File: PMMA/Calibration_Data/Aalto/Aalto_Gasification_65kW_3.csv
Time,Mass,Back Surface Temperature 1,Back Surface Temperature 2,Back Surface Temperature 3
[s],[g],[K],[K],[K]
0,69.76,329,331,331
2,69.46,330,331,331
4,69.49,330,331,332
6,69.55,330,331,332
8,69.6,330,331,332
10,69.68,330,331,332
12,69.73,330,331,332
14,69.73,330,331,332
16,69.72,330,332,332
18,69.7,331,332,332
20,69.68,331,332,332
22,69.59,331,332,333
24,69.28,332,332,333
26,69.12,332,333,333
28,68.68,332,333,334
30,68.48,333,334,334
32,68.14,334,334,334
34,67.57,334,335,335
36,67.57,335,335,335
38,66.97,336,336,336
40,66.72,337,337,337
42,66.12,338,338,338
44,65.82,339,339,338
46,65.18,340,341,340
48,64.92,341,342,341
50,64.26,343,343,342
52,63.98,345,345,343
54,63.31,346,347,344
56,63.04,347,348,346
58,62.38,349,350,347
60,62.24,351,352,348
62,61.69,352,353,350
64,61.4,353,354,351
66,60.71,355,356,353
68,60.37,358,359,354
70,59.64,360,362,357
72,59.35,362,363,358
74,58.64,365,365,360
76,58.35,368,367,362
78,57.93,370,370,364
80,57.1,371,371,366
82,56.74,372,372,367
84,56.03,372,372,368
86,55.73,373,373,369
88,54.99,374,374,370
90,54.99,375,374,371
92,54.25,376,376,373
94,53.95,378,377,374
96,53.2,380,379,375
98,52.89,382,381,378
100,52.04,383,382,379
102,51.74,385,384,381
104,51,387,387,382
106,50.69,389,388,385
108,50.2,390,389,386
110,49.38,392,391,388
112,49.07,395,394,390
114,48.56,397,395,391
116,48.2,398,396,392
118,47.72,400,399,394
120,46.96,402,401,396
122,46.65,404,402,398
124,45.82,406,404,400
126,45.51,409,406,402
128,45,411,409,404
130,44.22,413,411,406
132,43.85,415,413,408
134,43.08,417,415,410
136,42.76,420,417,412
138,41.97,422,419,414
140,41.65,424,421,416
142,41.14,426,423,418
144,40.81,428,425,420
146,39.86,430,427,422
148,39.53,434,429,424
150,38.72,435,432,427
152,38.39,437,434,429
154,37.57,440,436,431
156,37.23,443,439,433
158,36.69,446,441,435
160,35.81,448,444,437
162,35.47,451,446,441
164,34.96,453,448,443
166,33.98,456,451,444
168,33.98,458,452,446
170,33.1,461,456,449
172,32.74,463,458,451
174,31.78,467,462,454
176,31.41,469,464,458
178,30.5,472,466,460
180,30.12,475,469,462
182,29.2,479,472,464
184,28.82,482,476,467
186,27.88,486,479,471
188,27.5,489,482,474
190,26.85,492,485,477
192,25.83,497,488,480
194,25.43,500,493,485
196,24.49,504,497,488
198,24.49,506,498,490
200,23.33,513,504,496
202,22.94,518,510,500
204,21.98,524,514,504
206,21.52,529,520,508
208,20.56,534,525,513
210,20.15,541,532,520
212,19.58,547,536,526
214,18.41,555,542,531
216,18,570,549,535
218,16.96,579,562,542
220,16.52,588,569,549
222,15.46,595,576,555
224,14.83,601,581,562
226,14.38,608,589,569
228,13.29,613,593,580
230,12.84,619,599,585
232,11.74,624,604,591
234,11.28,636,611,597
236,10.11,645,622,602
238,10.11,651,626,607
240,8.78,674,637,612
242,8.35,711,658,619
244,7.78,750,692,631
246,6.87,784,720,660
248,6.54,830,756,684
250,5.88,863,807,730
252,5.64,884,832,756
254,5.3,896,845,779
256,4.77,907,844,799
258,4.54,912,842,817
260,4.29,912,844,834
262,4.08,910,852,843
264,3.79,914,856,858
266,3.41,920,846,861
268,3.27,921,860,872
270,2.98,917,886,881
272,2.86,932,882,889
274,2.59,930,876,897
276,2.48,934,863,902
278,2.34,938,870,909
280,2.12,952,872,911
282,2.03,949,878,917
284,1.91,951,885,922
286,1.84,950,887,925
288,1.67,944,881,928
290,1.55,952,891,931
292,1.5,961,887,936
294,1.43,952,879,938
296,1.38,951,885,938
298,1.27,959,888,940
300,1.23,959,890,943
302,1.17,937,889,948
304,1.08,939,891,950
306,1.04,935,890,952
308,0.97,933,889,956
310,0.93,950,895,957
312,0.9,947,887,958
314,0.84,952,891,962
316,0.81,953,893,964
318,0.77,951,892,968
320,0.72,938,892,969
322,0.7,945,890,970
324,0.64,941,891,971
326,0.63,950,899,972
328,0.59,953,898,971
330,0.57,938,891,971
332,0.54,934,883,971
334,0.51,936,887,967
336,0.49,950,892,968
338,0.45,943,883,967
340,0.44,932,882,966
342,0.41,926,880,965
344,0.39,923,885,962
346,0.37,929,891,962
348,0.36,933,894,959
350,0.34,928,884,957
352,0.32,918,882,955
354,0.29,930,892,957
356,0.28,924,897,955
358,0.26,920,889,954
360,0.25,926,892,955
362,0.22,923,889,953
364,0.21,927,889,948
366,0.2,914,880,947
368,0.17,911,877,947
370,0.17,911,882,943
372,0.16,918,890,944
374,0.14,917,893,945
376,0.13,911,883,944
378,0.12,915,880,942
380,0.11,904,887,941
382,0.11,903,877,942
384,0.1,906,885,939
386,0.08,907,879,938
388,0.08,909,874,938
390,0.07,916,875,941
392,0.06,921,877,938
394,0.05,928,880,940
396,0.05,922,879,939
398,0.04,921,878,935
400,0.03,912,874,935
402,0.02,911,873,930
404,0.02,910,880,929
406,0.01,906,876,929
408,0.01,902,880,931
410,0,907,879,931
412,0,908,878,929
414,-0.01,903,873,929
416,-0.02,907,882,928
418,-0.02,896,876,927
420,-0.02,893,873,928
422,-0.03,907,874,928
424,-0.03,908,875,928
426,-0.03,902,883,926
428,-0.03,907,878,926
430,-0.04,906,877,928
432,-0.04,901,871,925
434,-0.05,903,871,924
436,-0.04,899,875,922
438,-0.05,907,875,925
440,-0.05,901,882,927
442,-0.06,892,874,924
444,-0.06,897,872,924
446,-0.05,890,875,923
448,-0.06,900,874,921
450,-0.06,905,880,922
452,-0.07,902,877,924
454,-0.07,907,880,925
456,-0.07,911,878,926
458,-0.07,900,880,928
460,-0.07,906,876,925
462,-0.07,909,878,925
464,-0.07,913,884,924
466,-0.08,904,873,922
468,-0.07,902,873,923
470,-0.07,901,873,922
472,-0.07,900,883,921
474,-0.07,904,881,923
476,-0.08,904,883,923
478,-0.07,904,879,923
480,-0.08,901,881,924
482,-0.08,905,880,925
484,-0.08,903,879,925
486,-0.08,903,876,926
488,-0.09,908,877,926
490,-0.08,907,870,923
492,-0.08,901,878,923
494,-0.08,903,877,924
496,-0.09,907,877,924
498,-0.09,906,882,923
500,-0.09,911,882,924
502,-0.09,898,880,923
504,-0.09,901,875,922
506,-0.09,906,879,923
508,-0.09,912,876,923
510,-0.09,904,871,921
512,-0.1,902,872,920
514,-0.09,904,873,921
516,-0.09,914,875,921
518,-0.1,909,872,922
520,-0.09,906,875,921
522,-0.09,908,879,920
524,-0.09,909,881,921
526,-0.09,906,879,919
528,-0.1,905,878,920
530,-0.1,898,870,922
532,-0.1,903,879,922
534,-0.09,906,876,921
536,-0.1,901,878,922
538,-0.09,911,877,921
540,-0.1,901,874,920
542,-0.1,908,883,921
544,-0.1,900,877,923
546,-0.09,895,876,920
548,-0.1,900,877,923
550,-0.1,903,878,924
552,-0.1,906,877,924
553,-0.1,906,880,922