File: PMMA/Calibration_Data/Aalto/Aalto_Gasification_65kW_1.csv
Time,Mass,Back Surface Temperature 1,Back Surface Temperature 2
[s],[g],[K],[K]
0,67.02,318,320
2,68.9,318,320
4,69.3,318,320
6,70.03,318,320
8,70.2,318,320
10,70.54,318,320
12,70.66,318,321
14,70.81,318,321
16,70.9,318,321
18,71.03,319,321
20,71.07,319,321
22,71.05,319,321
24,70.97,319,321
26,70.8,320,322
28,70.42,320,322
30,70.26,320,323
32,69.96,321,323
34,69.46,321,324
36,69.25,322,325
38,68.71,322,325
40,68.48,323,326
42,68.11,324,327
44,67.87,324,328
46,67.51,325,329
48,66.84,326,330
50,66.58,327,331
52,65.88,328,333
54,65.56,330,335
56,65.05,331,336
58,64.77,331,337
60,64.36,332,338
62,63.63,334,340
64,63.35,335,342
66,62.67,337,344
68,62.38,338,345
70,61.64,339,347
72,61.35,341,350
74,60.9,343,352
76,60.2,344,353
78,59.92,346,355
80,59.14,348,357
82,58.84,349,360
84,58.15,351,362
86,57.92,353,363
88,57.23,354,365
90,56.95,356,366
92,56.56,358,369
94,55.83,360,370
96,55.53,361,371
98,55.18,362,372
100,54.71,364,374
102,53.89,366,376
104,53.53,367,377
106,53.11,369,379
108,52.33,370,381
110,52.03,373,383
112,51.25,375,385
114,50.89,376,387
116,50.16,378,388
118,49.86,380,391
120,49.43,382,393
122,48.63,384,394
124,48.33,386,396
126,47.58,388,399
128,47.26,390,401
130,46.95,391,403
132,46.31,393,404
134,45.51,395,406
136,45.2,398,409
138,44.43,400,411
140,44.11,402,413
142,43.33,404,416
144,43.01,406,418
146,42.22,408,420
148,42.22,410,421
150,41.45,412,424
152,40.77,414,426
154,40.44,417,430
156,39.65,420,432
158,39.32,422,434
160,38.52,424,436
162,38.17,426,439
164,37.31,429,441
166,36.97,432,444
168,36.14,434,447
170,35.79,436,449
172,35.25,439,452
174,34.39,441,454
176,34.04,445,457
178,33.15,447,461
180,32.8,449,464
182,31.94,452,467
184,31.57,455,469
186,30.98,459,473
188,30.02,462,476
190,29.64,465,479
192,29.1,467,482
194,28.11,472,487
196,27.73,474,490
198,26.73,478,493
200,26.73,479,495
202,25.78,483,499
204,25.4,487,505
206,24.45,493,510
208,24.07,497,518
210,23.11,501,525
212,22.71,506,533
214,21.75,509,541
216,21.35,515,545
218,20.36,520,553
220,19.94,525,558
222,19.29,530,563
224,18.28,534,568
226,17.78,542,573
228,16.73,547,580
230,16.29,553,585
232,15.22,559,590
234,14.79,564,596
236,13.72,572,603
238,13.27,578,613
240,12.18,584,617
242,11.72,591,625
244,10.57,599,635
246,10.14,616,653
248,9.18,638,694
250,8.82,663,726
252,8.32,688,758
254,7.62,721,787
256,7.4,748,818
258,6.89,775,835
260,6.68,798,843
262,6.43,816,829
264,6.01,830,828
266,5.82,847,834
268,5.46,856,837
270,5.28,864,848
272,5.13,872,850
274,4.84,879,855
276,4.73,886,860
278,4.58,895,872
280,4.3,899,880
282,4.2,903,878
284,4.11,908,889
286,3.91,911,888
288,3.71,916,890
290,3.64,922,896
292,3.53,927,903
294,3.37,929,896
296,3.3,933,900
298,3.17,936,908
300,3.12,940,910
302,3.05,942,906
304,2.93,944,913
306,2.88,947,923
308,2.84,949,924
310,2.77,950,915
312,2.67,952,912
314,2.63,955,909
316,2.55,956,916
318,2.51,957,912
320,2.48,958,916
322,2.41,961,915
324,2.38,962,915
326,2.34,963,911
328,2.27,964,915
330,2.25,966,913
332,2.19,967,917
334,2.17,968,917
336,2.14,969,909
338,2.08,969,915
340,2.07,971,919
342,2.03,973,920
344,2.01,973,919
346,1.98,975,930
348,1.94,975,920
350,1.93,976,911
352,1.9,975,911
354,1.88,974,916
356,1.84,974,911
358,1.83,975,911
360,1.83,976,921
362,1.81,977,919
364,1.77,976,913
366,1.76,976,920
368,1.74,977,922
370,1.71,978,922
372,1.69,978,922
374,1.68,978,931
376,1.65,977,921
378,1.65,977,915
380,1.63,976,921
382,1.62,975,918
384,1.59,974,920
386,1.58,974,914
388,1.56,975,914
390,1.54,974,917
392,1.52,974,917
394,1.52,972,911
396,1.49,972,908
398,1.47,971,919
400,1.47,969,906
402,1.46,967,902
404,1.45,966,908
406,1.43,966,915
408,1.41,966,920
410,1.4,965,914
412,1.39,964,913
414,1.38,963,908
416,1.37,959,901
418,1.36,958,908
420,1.35,958,906
422,1.34,957,906
424,1.34,957,906
426,1.33,957,906
428,1.31,957,904
430,1.31,956,908
432,1.3,955,901
434,1.29,953,896
436,1.29,953,899
438,1.27,952,906
440,1.27,951,906
442,1.27,952,910
444,1.26,950,909
446,1.25,949.5,906
448,1.26,948,906
450,1.24,948,912
452,1.23,947,905
454,1.23,945,903
456,1.22,945,904
458,1.21,945,910
460,1.22,946,906
462,1.21,945,903
464,1.21,944,905
466,1.21,943,900
468,1.21,942,897
470,1.2,942,899
472,1.2,941,901
474,1.19,940,905
476,1.19,940,903
478,1.19,940,904
480,1.2,940,901
482,1.2,940,901
484,1.19,940,903
486,1.19,940,903
488,1.19,940,905
490,1.19,939,910
492,1.19,939,907
494,1.18,938,899
496,1.18,938,901
498,1.18,937,899
500,1.18,937,898
502,1.18,937,895
504,1.18,936,891
506,1.18,935,892