File: PMMA/Calibration_Data/Aalto/Aalto_Cone_65kW_1.csv
Time,Mass,HRR,Back Surface Temperature 1,Back Surface Temperature 2,Back Surface Temperature 3
[s],[g],[kW/m2],[K],[K],[K]
0,71.67,0,307,307,306
2,72.14,0,308,307,307
4,72.22,0,308,307,307
6,72.35,0,308,307,307
8,72.38,0,308,307,307
10,72.42,0,308,307,308
12,72.43,217.9,308,307,308
14,72.44,294.3,309,307,308
16,72.38,479.2,309,308,308
18,72.3,557.95,309,308,308
20,71.82,608.4,310,308,309
22,71.57,660,310,308,309
24,70.88,687.9,310,309,309
26,70.57,705.9,311,309,310
28,69.74,716.5,312,309,310
30,69.41,740.5,313,310,311
32,68.76,734,313,311,312
34,68.25,746.2,314,311,313
36,67.9,776.7,315,312,314
38,67.32,794.5,316,313,315
40,66.39,753.5,318,313,316
42,65.64,772.5,320,315,317
44,65.27,793.6,321,316,319
46,64.7,820.1,322,316,319
48,63.94,789.3,324,318,321
50,63.55,790.7,326,319,323
52,62.93,823.2,327,321,325
54,61.98,816.6,329,323,327
56,61.54,790.7,331,324,329
58,60.98,805.6,333,326,332
60,59.95,790.8,336,328,334
62,59.18,746.1,338,330,337
64,59.18,752.4,339,331,337
66,58.22,790.4,341,334,341
68,57.84,774.4,343,335,344
70,56.89,780.6,345,337,346
72,56.51,778.4,348,340,348
74,55.56,774.8,350,343,352
76,55.18,770.6,352,345,354
78,54.23,772.4,355,347,357
80,53.84,811.4,358,351,361
82,52.82,779.7,360,354,363
84,52.38,802.2,362,356,366
86,51.76,798.7,365,360,369
88,51.36,799.6,366,361,370
90,50.36,822.4,368,363,372
92,49.98,786.1,368,365,373
94,49.42,825.4,370,366,374
96,48.32,794.3,371,367,374
98,47.86,804.8,372,368,375
100,46.89,822,375,370,377
102,46.5,785.9,377,371,378
104,45.52,808,379,373,380
106,45.12,777.7,381,375,382
108,44.56,806.8,384,378,383
110,43.45,825.3,386,380,386
112,43.45,836.9,387,381,387
114,42.39,815.4,391,383,389
116,41.9,809,393,386,393
118,40.92,821.5,396,388,395
120,40.51,857.4,398,390,397
122,39.52,810.9,401,393,400
124,39.13,844.6,404,395,402
126,38.11,859.1,406,399,406
128,37.68,866.6,409,400,409
130,36.65,872,412,403,411
132,36.22,872.9,416,405,414
134,35.54,867.3,418,409,417
136,34.51,892,421,412,420
138,34.08,920.9,424,415,423
140,32.94,955,427,418,426
142,32.48,929.5,431,422,431
144,31.41,917.7,434,425,434
146,31.41,936.5,435,426,435
148,30.14,968.2,440,430,440
150,29.66,970,443,433,443
152,28.55,1125.3,446,437,447
154,28.08,974.3,451,442,450
156,26.92,1049.4,455,445,456
158,26.43,1002.75,458,449,460
160,25.25,1001.9,462,452,464
162,24.75,1019.2,468,457,469
164,23.36,1037.9,472,461,473
166,22.84,1055.9,477,466,478
168,21.58,1031,482,470,482
170,21.06,1039.3,488,476,487
172,20.23,1045.1,493,480,493
174,19.72,1067.4,497,484,498
176,18.34,1091.2,510,490,505
178,17.81,1126.6,532,499,513
180,16.53,1092,543,514,522
182,15.98,1181.1,553,523,536
184,14.55,1123.7,563,531,546
186,13.98,1163.8,575,543,556
188,12.57,1209.1,585,549,570
190,11.95,1520.5,596,557,577
192,10.48,1261.6,608,566,588
194,9.75,1254.6,621,574,600
196,8.26,1162.45,648,582,610
198,8.26,1123.5,661,592,623
200,6.75,969.3,686,604,647
202,5.53,778.9,745,655,725
204,4.99,619.8,795,718,788
206,4.4,547.3,869,777,840
208,3.61,474.5,905,830,885
210,3,400,923,882,919
212,3.07,331.9,942,908,948
214,2.51,287.4,965,931,968
216,2.32,248.6,986,957,984
218,2.04,210.1,1022,991,1008
220,1.69,197.4,1091,1023,1023
222,1.55,168.1,1123,1051,1033
224,1.27,140.8,1132,1081,1058
226,1.17,121,1157,1090,1070
228,1.07,100,1164,1092,1075
230,0.91,83.4,1146,1114,1087
232,0.86,71.5,1139,1129,1096
234,0.81,65.5,1096,1127,1111
236,0.76,54.1,1032,1105,1119
238,0.69,46.4,981,1051,1114
240,0.66,39.7,935,1028,1100
242,0.59,36.5,882,1008,1061
244,0.58,33.8,882,997,1030
246,0.53,30.8,878,983,1017
248,0.51,26,867,969,993
250,0.5,26.9,827,962,983
252,0.48,22.6,839,954,972
254,0.47,16.5,813,949,963
256,0.42,17.8,828,947,955
258,0.42,17.9,831,945,953
260,0.42,12.8,817,941,946
262,0.41,13.3,815,937,944
264,0.39,13.9,815,936,941
266,0.39,8.8,823,937,942
268,0.38,9.6,820,936,943
270,0.37,9.2,805,937,936
272,0.37,9.7,811,936,936
274,0.37,3.8,815,936,934
276,0.37,3.7,804,937,932
278,0.36,4.2,805,929,930
280,0.37,3.8,814,929,930
282,0.36,3.4,805,928,931
284,0.36,3.8,818,927,926
286,0.37,3.4,822,927,930
288,0.36,3.5,819,931,926
290,0.36,3.1,830,932,926
292,0.36,3.5,823,934,927
294,0.36,4.3,817,934,927
296,0.37,4.3,808,930,926
298,0.37,11.6,827,932,927
300,0.37,4,830,933,927
302,0.37,3.5,801,932,929
304,0.37,3.8,819,931,923
306,0.36,3.6,818,933,922
308,0.37,2.8,824,934,924
310,0.36,2.4,810,932,925
312,0.36,2,794,931,923
314,0.36,1.2,823,933,922
316,0.37,0.7,821,934,921
318,0.36,0,822,936,919
320,0.37,0,810,937,920
322,0.36,0,807,936,920
324,0.36,0,804,936,921
326,0.37,0,806,934,921
328,0.36,0,809,933,921
330,0.37,0,810,933,921
332,0.37,0,807,937,922
334,0.36,0,812,938,917
336,0.36,0,821,938,918
338,0.36,0,809,937,916
340,0.37,0,787,937,921
342,0.36,0,782,934,921
344,0.36,0,799,933,924
346,0.36,0,810,929,924
348,0.37,0,818,929,925
350,0.36,0,811,932,923
352,0.36,0,785,934,923
354,0.37,0,805,934,919
356,0.36,0,816,935,914
358,0.36,5.6,811,934,920
360,0.37,0,817,932,923
362,0.38,0,826,931,924
364,0.37,0,828,930,923
366,0.35,0.4,831,932,922
368,0.36,0.8,836,933,919
370,0.37,0.4,828,935,920
372,0.37,0.4,834,936,919
374,0.37,0,821,936,919
376,0.37,0,825,935,919
378,0.37,0,795,936,919
380,0.37,0,787,937,918
382,0.37,0,813,937,921
384,0.37,0,812,935,921
386,0.38,0,815,934,920
388,0.37,0,807,934,924
390,0.38,0,804,935,923
392,0.38,0,791,935,921
394,0.37,0,801,934,921
396,0.37,0,807,934,922
398,0.37,0,803,937,919
400,0.37,0,796,938,918
402,0.38,0,805,937,922
404,0.38,0,806,935,924
406,0.37,0,804,932,926
408,0.37,0,797,933,927
410,0.37,0,807,932,927
412,0.38,0,812,933,924
414,0.37,0.4,807,934,923
416,0.37,0,809,934,924
418,0.36,0.8,821,933,924
420,0.36,0.8,823,933,924
422,0.37,0.8,816,936,923
424,0.37,0.8,817,935,924
426,0.37,0.8,801,932,924
428,0.37,0.8,801,935,921
430,0.36,0.4,814,936,920
432,0.37,0.4,806,935,920
434,0.37,0,819,934,923
436,0.37,0,820,936,922
438,0.37,0,820,937,921
440,0.38,0,823,937,921
442,0.37,0,819,935,923
444,0.37,0,811,936,921
446,0.38,0,817,937,920
448,0.38,0,826,937,920
450,0.38,0,822,937,919
452,0.38,0,821,935,921
454,0.38,0,824,935,921
456,0.38,0,810,936,918
458,0.39,0,820,938,918
460,0.39,0,840,938,917
462,0.38,0,842,938,916
464,0.39,0,813,935,920
466,0.37,0,802,935,922
468,0.38,0,805,936,923
470,0.38,0,803,934,920
472,0.37,0,810,934,922
474,0.35,0,810,935,922
476,0.36,0,795,937,922
478,0.36,5.3,806,938,921
480,0.36,0,809,939,920
482,0.36,0,823,938,922
484,0.36,0,819,937,922
486,0.35,0,827,935,919
488,0.36,0,815,938,921
490,0.36,0,812,938,921
492,0.36,0,812,938,918
494,0.36,0,812,939,918
496,0.36,0,819,937,920
498,0.37,0,823,939,921
500,0.36,0,815,939,920
502,0.37,0,814,940,920
504,0.37,0,810,939,920
506,0.36,0,816,940,921
508,0.37,0,824,938,923
510,0.37,0,814,938,923
512,0.38,0,817,939,922
514,0.37,0,801,939,922
516,0.38,0,793,936,922
518,0.37,0,820,936,922
520,0.37,0,797,933,922
521,0.38,0,801,933,921