File: PMMA/Calibration_Data/Aalto/Aalto_Cone_65kW_2.csv
Time,Mass,HRR,Back Surface Temperature 1,Back Surface Temperature 3
[s],[g],[kW/m2],[K],[K]
0,71.76,0,299,298
2,72.73,0,300,298
4,72.8,0,300,298
6,75.04,0,300,298
8,75.68,0,300,298
10,76.48,0,300,299
12,76.5,58.8,300,299
14,76.36,201.2,300,299
16,76.35,468.7,300,299
18,76.2,463,300,299
20,75.91,567,300,299
22,75.15,599.8,301,299
24,74.77,620.9,301,299
26,73.68,663.8,302,300
28,73.23,692.4,302,300
30,72.53,726.5,302,300
32,71.09,873,303,301
34,70.6,765.4,304,301
36,69.83,768.2,305,302
38,69.19,766.4,305,302
40,67.92,784.5,306,303
42,67.41,763,307,304
44,66.23,761.7,308,305
46,65.31,775.9,309,306
48,64.86,789.1,311,307
50,63.8,800,312,308
52,63.29,844.8,314,309
54,62.82,787,315,310
56,61.86,781.7,316,311
58,61.45,794.7,318,313
60,60.34,763.4,321,314
62,59.97,768.5,323,316
64,58.95,780.5,325,318
66,58.52,737.6,327,319
68,57.84,757.9,330,321
70,57.43,738.9,332,324
72,56.82,763.6,334,326
74,56.82,753.5,337,326
76,55.82,759.1,340,329
78,55.39,772.9,342,331
80,54.37,778.7,346,333
82,54.16,805.9,349,336
84,53.13,760,352,338
86,52.74,798.2,354,341
88,51.82,777.7,359,342
90,51.39,777.4,361,346
92,50.54,787.8,362,348
94,50.14,815.8,362,350
96,49.19,768.1,363,352
98,49.19,762.8,363,353
100,48.1,749.8,364,354
102,47.72,775.5,365,356
104,46.79,774.2,367,358
106,46.34,787.3,369,360
108,45.28,780.6,371,362
110,44.85,811.9,373,364
112,43.77,788.5,375,367
114,43.39,808,377,369
116,42.73,824.6,381,371
118,41.65,813.3,383,374
120,41.17,828.3,385,376
122,40.16,825.6,388,378
124,39.75,791.9,391,381
126,38.61,834.5,393,384
128,38.61,858.6,395,385
130,37.54,855.7,397,387
132,37.03,815.2,401,390
134,35.93,841.2,404,392
136,35.52,849.8,407,396
138,34.49,853.9,409,399
140,34,881.7,412,402
142,33.25,883.5,416,405
144,32.12,936.4,419,409
146,31.69,944.5,422,412
148,30.61,918.3,425,415
150,30.11,939.3,429,417
152,28.96,1169.1,433,422
154,28.54,969,436,425
156,27.41,991.8,440,428
158,26.82,980.5,443,432
160,25.57,984.2,447,435
162,25.15,1004.2,453,439
164,24.74,979.5,457,444
166,23.59,1004.1,460,449
168,23.07,1006.8,467,453
170,21.83,1005.1,472,459
172,21.35,1041.1,476,464
174,20.56,1039.2,480,468
176,19.75,1025.9,491,475
178,18.71,1084.9,500,485
180,18.07,1068.1,523,493
182,17,1122.9,532,501
184,16.28,1166.4,546,510
186,14.88,1312.7,555,522
188,14.47,1162.3,562,532
190,13.1,1273.6,570,541
192,12.4,1263.4,578,550
194,10.73,1214.8,592,560
196,10.21,1252.5,601,576
198,9.08,1197.7,619,587
200,8.36,1046,641,599
202,7.08,887.7,687,612
204,6.59,769.2,739,644
206,5.88,637.7,791,696
208,6.12,622.6,836,734
210,5.88,471.7,871,810
212,5.13,425,899,847
214,4.79,374.2,933,879
216,4.08,320.3,943,923
218,3.82,281.5,962,949
220,3.51,248.1,986,967
222,3.37,221.6,1002,992
224,2.71,185.7,1046,997
226,2.58,154.5,1060,1015
228,2.32,133.3,1072,1030
230,1.97,116.4,1084,1032
232,1.35,102.3,1092,1041
234,1.18,85.8,1108,1046
236,1.09,74.6,1099,1055
238,1.02,64.6,1018,1056
240,0.97,58.7,997,1064
242,0.89,55,997,1078
244,0.9,48.5,970,1085
246,0.85,45.4,962,1099
248,0.84,35,948,1123
250,0.73,30,939,1137
252,0.64,25.1,941,1139
254,0.58,20.1,927,1097
256,0.58,15.1,919,1053
258,0.47,15.8,919,1028
260,0.37,11.5,920,1012
262,0.34,12,919,997
264,0.25,7.6,919,983
266,0.3,8,921,974
268,0.2,7.3,914,968
270,0.19,3.3,900,963
272,0.25,3.3,904,955
274,0.2,3.8,907,950
276,0.14,3.8,899,947
278,0.26,4.3,906,946
280,0.29,3,904,944
282,0.42,0,909,941
284,0.46,0,908,936
286,0.51,0,910,936
288,0.54,0,902,936
290,0.55,0,905,938
292,0.56,0,907,935
294,0.52,0,906,933
296,0.6,0,905,928
298,0.62,0,906,928
300,0.66,0,910,926
302,0.73,0,896,927
304,0.81,0,900,928
306,0.8,0,892,928
308,0.8,0,887,925
310,0.84,0,894,927
312,0.95,0,891,927
314,0.83,0,887,922
316,0.98,0,886,926
318,1,0,893,926
320,1.01,0,889,929
322,1.01,0,886,927
324,1.04,0,899,926
326,1.09,0,895,925
328,1.15,0,895,925
330,1.17,0,896,923
332,1.16,0,903,923
334,1.19,0,898,922
336,1.24,6.2,899,922
338,1.37,0,893,921
340,1.36,0,894,921
342,1.32,0,896,923
344,1.37,0,892,921
346,1.39,0,900,918
348,0.86,0,896,916
350,0.88,0,893,914
352,0.82,0,890,917
354,0.87,0,895,919
356,0.83,0,892,918
358,0.86,0,895,920
360,0.91,0,897,922
362,0.94,0,888,918
364,0.92,0,889,921
366,0.94,0,891,919
368,0.97,0,890,917
370,0.98,0,891,920
372,1.03,0,895,919
374,1.02,0,893,920
376,1,0,889,920
378,0.95,0,897,922
380,0.89,0,895,925
382,0.9,0,893,922
384,0.92,0,892,919
386,0.92,0,895,920
388,1,0,900,923
390,1,0,902,922
392,1.04,0,897,921
394,0.94,0,896,921
396,0.99,0,899,920
398,0.93,0,896,917
400,0.88,6.2,894,918
402,0.95,0,895,916
404,0.97,0,894,914
406,0.91,0,895,915
408,0.97,0,896,918
410,0.87,0,895,916
412,0.86,0,890,917
414,0.8,0,884,916
416,0.84,0,887,918
418,0.77,0,891,920
420,0.72,0,891,920
422,0.72,0,895,919
424,0.74,0,891,920
426,0.7,0,888,921
428,0.7,0,894,923
430,0.77,0,887,923
432,0.75,0,892,924
434,0.76,0,889,926
436,0.67,0,893,926
438,0.67,0,890,925
440,0.73,0,887,926
442,0.66,0,894,925
444,0.59,0,902,927
446,0.66,0,904,927
448,0.68,0,900,922
450,0.68,0,899,922
452,0.7,0,902,919
454,0.58,0,900,919
456,0.64,0,902,918
458,0.75,0,898,919
460,0.75,0,895,919
462,0.75,0,890,920
464,0.7,0,895,916
466,0.66,0,897,920
468,0.67,0,898,918
470,0.56,0,898,920
472,0.61,0,896,920
474,0.61,0,894,920
476,0.69,0,900,921
478,0.81,0,900,922
480,0.61,0,891,922
482,0.58,0,890,926
484,0.47,0,892,924
486,0.49,0,889,923
488,0.55,0,890,922
490,0.47,0,887,923
492,0.57,0,885,926
494,0.61,0,885,921
496,0.61,0,886,921
498,0.49,0,891,919
500,0.52,0,896,917
502,0.49,0,899,921
504,0.54,0,896,920
506,0.51,0,895,920
508,0.51,0,897,922
510,0.49,0,897,920
512,0.47,0,900,921
514,0.4,0,891,921
516,0.44,0,892,922
518,0.49,0,894,921
520,0.45,0,894,923
521,0.45,0,894,924