File: PMMA/Calibration_Data/Aalto/Aalto_Gasification_65kW_2.csv
Time,Mass,Back Surface Temperature 1,Back Surface Temperature 2,Back Surface Temperature 3
[s],[g],[K],[K],[K]
0,73.89,327,327,328
2,72.93,328,328,328
4,72.9,328,328,328
6,72.75,328,328,328
8,72.68,328,328,328
10,72.51,328,328,329
12,72.45,328,328,329
14,72.31,328,328,329
16,72.26,328,329,329
18,72.16,329,329,329
20,72.09,329,329,329
22,71.81,329,329,329
24,71.63,329,329,330
26,71.16,330,330,330
28,70.96,330,330,331
30,70.43,330,330,331
32,70.2,331,331,331
34,69.62,332,331,332
36,69.37,332,332,333
38,68.96,333,333,333
40,68.66,334,333,334
42,68.23,334,335,334
44,67.51,335,336,335
46,67.24,337,336,336
48,66.51,338,338,338
50,66.22,339,339,338
52,65.74,340,340,339
54,65.44,340,341,340
56,64.72,342,342,341
58,64.43,344,344,342
60,63.94,345,346,344
62,63.16,346,347,345
64,62.8,347,348,347
66,62.32,350,350,348
68,61.58,351,352,350
70,61.28,353,354,351
72,60.49,354,356,353
74,60.17,357,358,355
76,59.72,359,361,358
78,58.85,360,363,360
80,58.53,362,365,362
82,57.72,365,367,363
84,57.72,366,369,365
86,57,368,370,367
88,56.64,369,372,368
90,56.17,371,374,369
92,55.43,372,375,371
94,55.12,373,375,372
96,54.36,374,376,372
98,53.98,375,377,373
100,53.24,376,378,374
102,52.93,378,379,375
104,52.48,380,381,377
106,51.68,381,382,378
108,51.36,383,383,379
110,50.61,385,385,381
112,50.29,386,387,383
114,49.47,388,389,384
116,49.16,389,390,386
118,48.72,391,392,387
120,47.91,394,393,389
122,47.59,395,395,390
124,47.21,396,396,391
126,46.45,398,398,393
128,46.14,400,400,394
130,45.62,402,402,397
132,44.8,404,404,398
134,44.44,406,406,400
136,43.94,408,407,402
138,43.14,410,410,404
140,42.81,412,412,406
142,41.96,414,413,407
144,41.64,416,415,409
146,41.26,417,417,410
148,40.74,419,418,412
150,39.96,421,420,414
152,39.62,423,422,416
154,39.06,426,425,418
156,38.2,428,427,420
158,37.86,431,430,423
160,36.99,433,432,425
162,36.65,435,434,426
164,35.77,437,436,428
166,35.43,440,438,431
168,34.89,443,441,433
170,33.96,445,443,436
172,33.41,448,446,437
174,33,450,448,439
176,32.44,453,450,441
178,32.03,455,453,443
180,31.17,457,455,446
182,30.81,460,457,448
184,30.29,464,460,450
186,29.32,466,463,452
188,28.87,468,465,456
190,28.33,471,468,458
192,27.34,474,471,460
194,26.89,478,475,462
196,26.27,481,477,466
198,25.29,484,480,469
200,24.88,487,483,471
202,23.89,492,486,474
204,23.47,494,491,478
206,22.41,498,494,481
208,21.99,502,496,484
210,21.34,509,500,486
212,20.35,515,505,489
214,19.86,521,509,494
216,19.21,528,513,497
218,18.11,537,518,501
220,18.11,543,524,502
222,16.98,551,531,508
224,16.47,558,538,511
226,15.41,570,547,514
228,14.97,577,556,521
230,13.87,583,561,525
232,13.43,588,565,530
234,12.32,593,569,535
236,11.86,599,575,541
238,10.74,604,579,548
240,10.27,609,584,552
242,9.54,614,590,556
244,8.41,623,596,560
246,7.94,629,605,567
248,6.81,635,611,574
250,6.34,646,618,581
252,5.28,663,625,588
254,4.85,684,635,596
256,3.87,715,669,604
258,3.53,765,700,616
260,2.79,820,745,630
262,2.79,860,764,646
264,2.04,885,814,704
266,1.81,898,831,740
268,1.29,905,840,772
270,1.09,901,840,808
272,0.81,902,854,825
274,0.41,907,853,835
276,0.26,919,866,848
278,-0.12,920,870,858
280,-0.24,921,872,868
282,-0.44,931,881,875
284,-0.56,942,900,885
286,-0.77,944,906,894
288,-1,946,899,898
290,-1.09,943,896,903
292,-1.29,950,903,908
294,-1.38,959,912,913
296,-1.53,958,911,917
298,-1.6,952,913,919
300,-1.7,947,917,923
302,-1.83,953,915,924
304,-1.88,962,919,925
306,-2,965,919,928
308,-2.04,957,919,931
310,-2.14,955,915,931
312,-2.18,961,916,932
314,-2.24,964,920,935
316,-2.34,960,919,938
318,-2.38,946,914,938
320,-2.42,954,922,939
322,-2.5,955,922,941
324,-2.52,948,918,943
326,-2.59,954,925,944
328,-2.61,951,928,946
330,-2.67,948,928,947
332,-2.69,945,928,949
334,-2.73,947,928,951
336,-2.75,945,926,952
338,-2.81,943,924,952
340,-2.83,933,919,954
342,-2.87,927,922,953
344,-2.89,933,918,951
346,-2.92,948,916,947
348,-2.96,949,921,948
350,-2.98,947,925,947
352,-3.01,938,917,947
354,-3.02,928,914,947
356,-3.06,929,915,946
358,-3.07,942,915,942
360,-3.09,942,915,942
362,-3.13,943,920,944
364,-3.14,943,922,942
366,-3.18,927,916,937
368,-3.19,919,911,935
370,-3.21,922,909,933
372,-3.23,918,912,933
374,-3.24,920,910,930
376,-3.25,929,913,932
378,-3.29,925,906,930
380,-3.3,924,912,931
382,-3.32,914,910,933
384,-3.33,923,914,928
386,-3.36,926,916,927
388,-3.37,924,908,926
390,-3.39,922,906,925
392,-3.4,923,903,924
394,-3.41,914,900,921
396,-3.41,915,902,923
398,-3.44,918,907,923
400,-3.45,926,910,926
402,-3.46,931,908,924
404,-3.48,923,905,923
406,-3.49,921,903,921
408,-3.5,909,902,920
410,-3.51,909,902,920
412,-3.52,918,908,918
414,-3.54,913,900,916
416,-3.54,911,900,915
418,-3.55,910,896,913
420,-3.57,916,903,912
422,-3.57,914,906,911
424,-3.58,925,909,913
426,-3.6,921,909,911
428,-3.59,917,908,912
430,-3.6,915,902,912
432,-3.62,910,899,912
434,-3.62,912,898,912
436,-3.62,910,895,911
438,-3.62,917,900,912
440,-3.63,923,900,911
442,-3.63,924,899,913
444,-3.64,913,896,912
446,-3.64,904,894,910
448,-3.65,910,896,909
450,-3.65,908,897,911
452,-3.65,910,895,910
454,-3.66,908,893,911
456,-3.66,911,899,912
458,-3.67,909,902,910
460,-3.68,914,904,909
462,-3.68,915,897,910
464,-3.69,919,899,911
466,-3.69,918,901,909
468,-3.69,916,896,906
470,-3.7,911,899,908
472,-3.7,912,899,909
474,-3.69,909,901,908
476,-3.7,915,902,907
478,-3.71,916,902,907
480,-3.71,916,905,906
482,-3.71,908,907,904
484,-3.72,915,902,909
486,-3.72,910,900,909
488,-3.72,913,906,904
490,-3.74,914,905,906
492,-3.73,913,899,907
494,-3.74,911,903,907
496,-3.74,914,905,906
498,-3.75,918,908,908
500,-3.75,916,903,906
502,-3.75,913,902,906
504,-3.75,913,902,907
506,-3.75,912,902,905
508,-3.76,912,896,903
510,-3.76,912,899,907
512,-3.76,912,901,908
514,-3.76,915,903,908
516,-3.77,919,903,907
518,-3.78,912,901,909
520,-3.78,907,893,905
522,-3.78,907,894,905
524,-3.78,914,898,905
526,-3.79,913,899,903
528,-3.79,909,902,902
530,-3.79,910,898,903
532,-3.8,903,895,900
534,-3.8,904,898,902
536,-3.79,905,902,904
538,-3.8,917,905,904
540,-3.81,920,907,905
542,-3.81,919,907,907
544,-3.81,913,905,907
546,-3.81,914,896,905
548,-3.81,916,900,905
550,-3.82,915,903,907
551,-3.82,914,903,906