File: PMMA/Calibration_Data/Aalto/Aalto_Cone_65kW_3.csv
Time,Mass,HRR,Back Surface Temperature 1,Back Surface Temperature 3
[s],[g],[kW/m2],[K],[K]
0,72.88,0,304,303
2,72.76,0.5,304,304
4,72.78,0.9,304,304
6,72.94,0,305,304
8,72.94,1.3,305,305
10,72.93,0,305,305
12,72.93,29.5,305,305
14,72.81,159.3,306,305
16,72.75,289.6,306,305
18,72.43,438.8,306,306
20,72.24,543.6,306,306
22,71.52,616.5,306,306
24,71.18,652.9,308,307
26,70.25,668.3,309,308
28,70.08,706.4,311,309
30,69.29,707.7,313,309
32,68.92,733.7,314,311
34,68,762.7,316,312
36,67.59,777.3,318,313
38,67,775.1,319,315
40,65.94,745.5,321,317
42,65.54,765,323,318
44,64.47,793.4,324,320
46,64.06,795.3,326,323
48,63.05,826.2,328,325
50,62.63,792.5,329,327
52,62.04,804.3,331,329
54,61.56,793.9,332,331
56,60.58,762.3,334,333
58,60.15,779.8,336,336
60,59.19,804.6,337,338
62,58.78,786.8,339,342
64,57.71,763.1,341,344
66,57.28,769.3,342,347
68,56.24,758.6,344,350
70,55.83,886.3,346,352
72,54.76,777,347,355
74,54.76,758.8,349,357
76,53.68,774.5,351,360
78,53.25,801.8,352,362
80,52.24,783.3,353,366
82,51.81,774,353,368
84,50.79,760.4,356,370
86,50.39,796.4,358,374
88,49.41,781.9,360,376
90,48.99,788,363,379
92,48.54,781.6,364,381
94,47.79,792.7,363,384
96,47.46,812.3,364,386
98,46.46,786.4,366,388
100,46.03,789,368,388
102,45.38,788.7,369,389
104,44.38,826.9,371,390
106,43.96,923,373,391
108,42.97,789.1,376,393
110,42.48,824.5,378,396
112,41.5,815.3,380,398
114,41.09,976,382,400
116,40.5,824.9,386,402
118,39.35,829.1,388,406
120,38.94,816.3,390,408
122,37.95,847.6,393,410
124,37.52,841.4,396,413
126,36.91,843.2,398,416
128,36.43,855.1,401,417
130,35.61,853.9,404,421
132,34.49,869.6,406,424
134,34.07,862.3,409,427
136,33.56,864.7,412,429
138,32.95,864.1,415,432
140,31.83,871.2,418,435
142,31.37,867,421,438
144,30.31,875.6,424,441
146,29.87,931.7,427,445
148,28.7,939.1,431,448
150,28.24,975.1,435,451
152,27.13,954,439,455
154,26.64,1097,442,460
156,25.91,994.8,446,464
158,24.82,985.5,450,467
160,24.36,986.4,455,471
162,23.16,998.3,458,475
164,22.67,982.9,462,481
166,21.42,995.9,467,486
168,20.84,1012.1,473,490
170,19.56,1032.8,478,496
172,19.06,991.4,483,501
174,18.23,1017.9,487,505
176,17.45,1074.8,491,509
178,16.24,1068.7,502,516
180,15.72,1114.6,513,533
182,14.39,1067.6,524,550
184,14.42,1089.9,354,566
186,14.09,1118.3,541,580
188,12.7,1166.8,550,590
190,12.09,1229.6,559,600
192,10.57,1300.9,576,610
194,9.97,1293.7,583,624
196,8.61,1222.5,594,634
198,7.96,1242.5,607,645
200,7,1237,627,653
202,5.45,1099.4,649,685
204,5.16,902,676,719
206,3.71,766.3,727,767
208,3.21,675.3,815,829
210,2.49,562.3,854,902
212,1.68,483,896,941
214,1.36,430.2,927,973
216,0.71,353.1,949,993
218,0.5,311.3,976,1016
220,0,270.8,990,1027
222,-0.12,230.3,1004,1045
224,-0.46,239.2,1020,1064
226,-0.58,184.2,1058,1101
228,-0.82,153.5,1068,1140
230,-0.91,140.4,1086,1147
232,-0.98,121.9,1113,1149
234,-1.16,105.1,1122,1177
236,-1.19,94.2,1114,1180
238,-1.27,80.2,1091,1217
240,-1.39,63.1,1074,1150
242,-1.43,58.2,1061,1039
244,-1.48,51.4,1027,1010
246,-1.51,44.3,1000,909
248,-1.61,42.8,988,887
250,-1.64,37.1,971,883
252,-1.65,31.9,962,878
254,-1.69,26.1,958,846
256,-1.74,26.8,945,836
258,-1.76,19.1,936,833
260,-1.78,19.5,928,831
262,-1.79,20.2,925,837
264,-1.8,15.2,919,825
266,-1.83,15.9,919,806
268,-1.83,14.9,924,811
270,-1.81,25.8,915,807
272,-1.82,14.3,911,811
274,-1.83,14,905,797
276,-1.83,13.7,895,812
278,-1.85,13.7,893,842
280,-1.85,13.4,884,835
282,-1.84,13.1,877,819
284,-1.85,12.2,883,840
286,-1.83,6.6,888,841
288,-1.84,7.5,885,860
290,-1.84,7.3,895,846
292,-1.85,6.6,901,844
294,-1.84,5.9,899,833
296,-1.86,5.9,902,841
298,-1.87,5.1,896,824
300,-1.86,4.4,887,839
302,-1.85,4,877,849
304,-1.85,4.4,882,850
306,-1.84,3.6,892,843
308,-1.86,3.2,899,845
310,-1.85,2.4,894,849
312,-1.83,1.6,898,851
314,-1.88,1.2,894,854
316,-1.87,0.7,895,854
318,-1.84,0.3,891,845
320,-1.84,1.2,897,855
322,-1.83,1.2,894,842
324,-1.81,0.8,893,840
326,-1.75,1.2,898,852
328,-1.75,1.6,899,858
330,-1.77,1.6,894,862
332,-1.77,1.6,891,861
334,-1.78,2,891,857
336,-1.81,2,883,854
338,-1.8,2,888,839
340,-1.78,2,884,845
342,-1.81,2,882,853
344,-1.84,2,889,833
346,-1.82,1.6,886,838
348,-1.82,1.2,891,840
350,-1.82,0.4,894,831
352,-1.84,0,887,838
354,-1.86,0,886,843
356,-1.88,0,896,844
358,-1.88,0,892,825
360,-1.9,0,890,849
362,-1.89,0,894,857
364,-1.88,0,894,838
366,-1.91,0,890,844
368,-1.88,0,894,842
370,-1.9,5.3,886,849
372,-1.9,0,893,853
374,-1.9,0,893,852
376,-1.91,0,887,845
378,-1.93,0,895,846
380,-1.95,0,901,852
382,-1.92,0,901,849
384,-1.94,0,893,852
386,-1.95,0,891,846
388,-1.95,0,886,851
390,-1.92,0,888,844
392,-1.91,0.4,887,854
394,-1.96,0.8,881,852
396,-1.98,0.8,889,849
398,-1.97,0.8,891,848
400,-1.96,0.4,898,835
402,-1.97,0,897,837
404,-2,0,897,829
406,-1.98,0,894,832
408,-2.01,0,902,836
410,-2.04,0,889,831
412,-2.07,5.3,886,850
414,-2.06,0,893,841
416,-2.05,0,887,847
418,-2.06,0,886,835
420,-2.03,0,893,851
422,-2.02,0,895,851
424,-2.06,0,895,853
426,-2.04,0,890,852
428,-2.06,0,883,851
430,-2.03,0,889,843
432,-2.06,0,893,835
434,-2.09,0,891,845
436,-2.08,0,898,839
438,-2.1,0,901,846
440,-2.09,0,901,857
442,-2.11,0,903,857
444,-2.1,0,898,857
446,-2.11,0,887,845
448,-2.09,0.8,882,857
450,-2.1,0.8,876,856
452,-2.06,0.8,879,858
454,-2.09,0.8,890,853
456,-2.06,0,889,851
458,-2.09,0,889,843
460,-2.09,0,893,849
462,-2.07,0,895,844
464,-2.08,0,892,835
466,-2.1,0,901,846
468,-2.11,0,897,848
470,-2.06,0,898,851
472,-2.06,0,886,852
474,-2.07,0,892,855
476,-2.07,0,887,865
478,-2.05,0,892,852
480,-2.07,0,891,830
482,-2.1,0,891,840
484,-2.1,0,898,817
486,-2.1,0,902,837
488,-2.11,0,896,855
490,-2.09,0,886,840
492,-2.09,0,895,847
494,-2.06,0,898,845
496,-2.03,0,896,850
498,-2.09,0.4,902,835
500,-2.07,0.9,897,858
502,-2.08,0.9,897,844
504,-2.06,6.2,883,858
506,-2.07,0.9,884,861
508,-2.03,0.4,881,854
510,-2.02,0,887,851
511,-2.02,0,894,852