File: PMMA/Calibration_Data/DBI-Lund/DBI-Lund_TGA_N2_20K_3.csv
Time,Temperature,Mass
[s],[K],[mg]
0,298.33,5.50E+00
8,298.358,5.44E+00
16,298.492,5.43E+00
24,298.9429,5.43E+00
32,299.874,5.44E+00
40,301.3823,5.44E+00
48,303.481,5.45333
56,306.0729,5.43811
64,309.073,5.44161
72,312.359,5.44341
80,315.824,5.44049
88,319.369,5.43924
96,322.915,5.43529
104,326.413,5.43293
112,329.835,5.4326
120,333.1669,5.43191
128,336.403,5.42909
136,339.563,5.42639
144,342.638,5.42504
152,345.641,5.42369
160,348.59,5.41963
168,351.497,5.4203
176,354.376,5.42098
184,357.247,5.41962
192,360.1049,5.41827
200,362.972,5.41726
208,365.8261,5.41726
216,368.681,5.41591
224,371.54,5.41726
232,374.379,5.41794
240,377.208,5.41501
248,380.011,5.41703
256,382.795,5.41501
264,385.561,5.41704
272,388.297,5.41568
280,391.03,5.41963
288,393.7317,5.40554
296,396.432,5.41139
304,399.1272,5.41309
312,401.814,5.41309
320,404.495,5.41343
328,407.179,5.4123
336,409.859,5.4096
344,412.534,5.41095
352,415.213,5.40666
360,417.892,5.40565
368,420.564,5.40531
376,423.24,5.40181
384,425.92,5.40046
392,428.586,5.39843
400,431.2552,5.39596
408,433.919,5.39494
416,436.579,5.39314
424,439.232,5.3901
432,441.88,5.38739
440,444.529,5.38321
448,447.184,5.38355
456,449.843,5.37995
464,452.4972,5.37285
472,455.165,5.37352
480,457.826,5.35706
488,460.4997,5.35052
496,463.171,5.3459
504,465.848,5.34184
512,468.518,5.33554
520,471.186,5.32347
528,473.858,5.31648
536,476.528,5.30916
544,479.2,5.3033
552,481.8679,5.29879
560,484.5301,5.28808
568,487.188,5.28064
576,489.8532,5.28391
584,492.517,5.25629
592,495.1768,5.25505
600,497.831,5.24513
608,500.496,5.24006
616,503.16,5.23499
624,505.826,5.2272
632,508.489,5.22721
640,511.149,5.22574
648,513.813,5.22067
656,516.4737,5.21898
664,519.135,5.21627
672,521.803,5.21492
680,524.473,5.2112
688,527.141,5.21086
696,529.809,5.20748
704,532.478,5.2041
712,535.15,5.20004
720,537.827,5.19632
728,540.494,5.19351
736,543.165,5.1873
744,545.828,5.18527
752,548.4991,5.17975
760,551.152,5.1722
768,553.8167,5.16566
776,556.478,5.15969
784,559.139,5.14966
792,561.795,5.13726
800,564.454,5.13196
808,567.112,5.11876
816,569.769,5.10288
824,572.426,5.08641
832,575.09,5.07007
840,577.744,5.05586
848,580.413,5.0358
856,583.075,5.01844
864,585.737,5.00356
872,588.401,4.97504
880,591.063,4.95712
888,593.733,4.93187
896,596.396,4.90594
904,599.06,4.87201
912,601.728,4.83493
920,604.387,4.78927
928,607.0488,4.74238
936,609.708,4.70293
944,612.369,4.61083
952,615.033,4.54522
960,617.689,4.46598
968,620.347,4.34829
976,623.01,4.24425
984,625.663,4.11462
992,628.3202,3.97383
1000,630.98,3.81669
1008,633.638,3.63825
1016,636.298,3.44402
1024,638.963,3.25318
1032,641.623,3.03235
1040,644.287,2.80995
1048,646.958,2.58247
1056,649.6312,2.34473
1064,652.299,2.115
1072,654.974,1.88504
1080,657.65,1.66445
1088,660.331,1.44305
1096,663.006,1.21749
1104,665.682,1.00219
1112,668.36,0.8131398
1120,671.045,0.64812
1128,673.725,0.5066501
1136,676.407,0.3876202
1144,679.0869,0.29044
1152,681.76,0.21402
1160,684.433,0.14526
1168,687.1,0.09982995
1176,689.76,0.05834015
1184,692.4192,0.0288101
1192,695.081,0.0047025
1200,697.735,-1.19E-02
1208,700.393,-2.48E-02
1216,703.048,-3.39E-02
1224,705.702,-4.09E-02
1232,708.351,-4.83E-02
1240,711.005,-0.0531399
1248,713.667,-0.0524601
1256,716.328,-0.0570801
1264,718.989,-0.0582098
1272,721.643,-0.0568502
1280,724.305,-0.05956995
1288,726.962,-0.05855025
1296,729.6271,-0.05855025
1304,732.288,-0.0578699
1312,734.954,-0.05923005
1320,737.628,-0.05923005
1328,740.301,-0.0576499
1336,742.966,-0.06057975
1344,745.635,-0.05922015
1352,748.304,-0.06193
1360,750.971,-0.06373015
1368,753.6321,-0.05527995
1376,756.2991,-0.0613602
1384,758.964,-0.05764
1392,761.631,-0.05900015
1400,764.2972,-0.0609202
1408,766.959,-0.05978995
1416,769.618,-0.03600025
1424,772.281,-0.0715099
1432,774.95,-0.0531399
1440,777.614,-0.0671099
1448,780.2729,-0.04953025
1456,782.941,-0.0627198
1464,785.605,-0.0621599
1472,788.2757,-0.06057975
1480,790.941,-0.05989995
1488,793.604,-0.05922015
1496,796.271,-0.06057975
1504,798.949,-0.06056985
1512,801.617,-0.0580998
1520,804.28,-0.05967995
1528,806.95,-0.05945005
1536,809.619,-0.0608102
1544,812.296,-0.0582098
1552,814.963,-0.0568601
1560,817.626,-0.05911015
1568,820.292,-0.06045985
1576,822.954,-0.05911015
1584,825.621,-0.05483005
1592,828.285,-0.06519975
1600,830.952,-0.06306025
1608,833.6157,-0.06193
1616,836.273,-0.0615901
1624,838.938,-0.0575399
1632,841.607,-0.06023985
1640,844.279,-0.06046975
1648,846.937,-0.05494005
1656,849.606,-0.0609202
1664,852.278,-0.0624899
1672,854.944,-0.05572985
1680,857.612,-5.99E-02
1688,860.28,-6.26E-02
1696,862.946,-6.43E-02
1704,865.613,-6.16E-02
1712,868.283,-5.93E-02
1720,870.945,-5.54E-02
1728,873.612,-4.57E-02
1736,876.282,-7.20E-02
1744,878.948,-4.61E-02
1752,881.62,-7.03E-02
1760,884.293,-5.66E-02
1768,886.958,-6.02E-02
1776,889.6268,-4.10E-02
1784,892.296,-6.07E-02
1792,894.965,-6.15E-02
1800,897.635,-3.17E-02
1808,900.304,-7.57E-02
1816,902.966,-6.49E-02
1824,905.639,-5.91E-02
1832,908.31,-6.13E-02
1840,910.971,-6.40E-02
1848,913.638,-6.40E-02
1856,916.306,-6.16E-02
1864,918.971,-0.04219985
1872,921.639,-0.07714025
1880,924.3058,-0.0613602
1888,926.975,-0.06034985
1896,929.64,-0.0582098
1904,932.303,-0.05934005
1912,934.969,-0.06474985
1920,937.642,-0.0608102
1928,940.308,-0.06768025
1936,942.979,-0.0578699
1944,945.646,-0.0538098
1952,948.316,-0.0624899
1960,950.982,-0.06666
1968,953.646,-0.05923005
1976,956.316,-0.06057975
1984,958.987,-0.05709
1992,961.654,-0.0566302
2000,964.323,-0.05527995
2008,966.994,-0.0617001
2016,969.666,-0.05956005
2024,972.3349,-0.0612502
2032,975.005,-0.05606975
2040,977.674,-0.05549995
2048,980.336,-0.0613701
2056,983.006,-0.06035975
2064,985.678,-0.05900015
2072,988.344,-0.05900015
2080,991.008,-0.05043005
2088,993.672,-0.0629398
2096,996.341,-0.06193
2104,999.006,-0.05978995
2108,1000.34,-0.05978995