File: PMMA/Calibration_Data/DBI-Lund/DBI-Lund_DSC_N2_20K_2.csv
Time,Temperature,Heat Flow
[s],[K],[W/g]
0,298.736,-0.0157
10.0002,298.77,-0.016
19.9998,299.043,-0.00877
30,299.929,0.0252
40.0002,301.69,0.0933
49.9998,304.349,0.19384
60,307.755,0.30816
70.0002,311.696,0.41504
79.9998,315.951,0.49844
90,320.341,0.56082
100.0002,324.719,0.5955
109.9998,329.01,0.61196
120,333.16,0.61688
130.0002,337.175,0.61096
139.9998,341.072,0.60203
150,344.844,0.59185
160.0002,348.536,0.58337
169.9998,352.173,0.57823
180,355.7521,0.57435
190.0002,359.334,0.5647
199.9998,362.919,0.5522
210,366.5,0.5421
220.0002,370.067,0.53756
229.9998,373.632,0.5355
240,377.165,0.5349
250.0002,380.679,0.53463
259.9998,384.151,0.53719
270,387.597,0.53992
280.0002,391.006,0.54736
289.9998,394.4,0.55941
300,397.774,0.58017
310.0002,401.1328,0.60631
319.9998,404.493,0.62714
330,407.836,0.63013
340.0002,411.185,0.60894
349.9998,414.536,0.57576
360,417.8831,0.55067
370.0002,421.228,0.54239
379.9998,424.5712,0.54117
390,427.911,0.54343
400.0002,431.243,0.5429
409.9998,434.5639,0.54375
420,437.885,0.54409
430.0002,441.2067,0.54425
439.9998,444.5202,0.5467
450,447.836,0.55111
460.0002,451.163,0.55627
469.9998,454.492,0.56323
480,457.82,0.56897
490.0002,461.155,0.57314
499.9998,464.498,0.5768
510,467.836,0.57777
520.0002,471.171,0.57279
529.9998,474.514,0.56777
540,477.852,0.56253
550.0002,481.18,0.56218
559.9998,484.5141,0.56201
570,487.847,0.57119
580.0002,491.1788,0.58575
589.9998,494.513,0.6063
600,497.858,0.63308
610.0002,501.1901,0.66001
619.9998,504.526,0.67481
630,507.848,0.67139
640.0002,511.167,0.65129
649.9998,514.484,0.62618
660,517.797,0.60186
670.0002,521.114,0.58135
679.9998,524.444,0.57172
690,527.779,0.5702
700.0002,531.124,0.57838
709.9998,534.466,0.58948
720,537.808,0.61138
730.0002,541.15,0.63571
739.9998,544.494,0.66539
750,547.832,0.69582
760.0002,551.176,0.72973
769.9998,554.5102,0.77609
780,557.849,0.82663
790.0002,561.189,0.88706
799.9998,564.525,0.95255
810,567.853,1.01704
820.0002,571.178,1.08823
829.9998,574.5,1.1533
840,577.822,1.21397
850.0002,581.136,1.26362
859.9998,584.457,1.31077
870,587.776,1.34094
880.0002,591.093,1.37691
889.9998,594.402,1.40258
900,597.714,1.43345
910.0002,601.03,1.46957
919.9998,604.348,1.53805
930,607.6643,1.62548
940.0002,610.992,1.73944
949.9998,614.319,1.87849
960,617.642,2.05212
970.0002,620.966,2.25341
979.9998,624.2951,2.48757
990,627.6201,2.74719
1000,630.941,3.02416
1010,634.26,3.30858
1020,637.5753,3.56928
1030,640.895,3.75538
1040,644.225,3.83103
1050,647.552,3.85081
1060,650.891,3.86456
1070,654.243,3.79839
1080,657.597,3.74161
1090,660.946,3.63671
1100,664.298,3.50088
1110,667.649,3.21027
1120,671.005,2.84127
1130,674.358,2.40204
1140,677.712,1.94541
1150,681.059,1.53572
1160,684.404,1.18849
1170,687.742,0.91194
1180,691.08,0.71177
1190,694.433,0.65611
1200,697.783,0.63349
1210,701.112,0.61294
1220,704.406,0.53555
1230,707.682,0.4479
1240,710.973,0.37584
1250,714.2721,0.31906
1260,717.577,0.25184
1270,720.8998,0.20205
1280,724.231,0.17413
1290,727.578,0.15785
1300,730.921,0.15535
1310,734.274,0.15579
1320,737.621,0.16035
1330,740.963,0.16678
1340,744.305,0.17254
1350,747.641,0.17764
1360,750.974,0.17861
1370,754.3051,0.18073
1380,757.632,0.18217
1390,760.96,0.18548
1400,764.294,0.18085
1410,767.618,0.18347
1420,770.943,0.18492
1430,774.271,0.18307
1440,777.595,0.18263
1450,780.927,0.18385
1460,784.259,0.1796
1470,787.593,0.17985
1480,790.925,0.17987
1490,794.261,0.1818
1500,797.591,0.18109
1510,800.934,0.18569
1520,804.271,0.18716
1530,807.604,0.19252
1540,810.94,0.19741
1550,814.272,0.20404
1560,817.6012,0.20899
1570,820.933,0.21519
1580,824.265,0.22362
1590,827.59,0.23062
1600,830.923,0.23494
1610,834.262,0.24548
1620,837.598,0.25407
1630,840.929,0.26271
1640,844.266,0.27064
1650,847.605,0.27786
1660,850.941,0.28963
1670,854.277,0.29945
1680,857.612,0.31158
1690,860.949,0.32275
1700,864.278,0.33703
1710,867.616,0.3501
1720,870.942,0.36527
1730,874.279,0.38537
1740,877.614,0.4066
1750,880.944,0.42124
1760,884.279,0.44059
1770,887.6091,0.46158
1780,890.944,0.48112
1790,894.277,0.49868
1800,897.613,0.51995
1810,900.919,0.54262
1820,904.251,0.56645
1830,907.591,0.59171
1840,910.932,0.62049
1850,914.266,0.65046
1860,917.596,0.67555
1870,920.931,0.70394
1880,924.259,0.73085
1890,927.596,0.76348
1900,930.932,0.78906
1910,934.272,0.81288
1920,937.607,0.83064
1930,940.944,0.85117
1940,944.2793,0.87178
1950,947.614,0.89004
1960,950.951,0.90704
1970,954.285,0.92193
1980,957.621,0.93959
1990,960.948,0.95052
2000,964.287,0.96176
2010,967.62,0.97058
2020,970.955,0.98189
2030,974.29,0.99902
2040,977.626,1.01401
2050,980.962,1.02547
2060,984.301,1.03725
2070,987.635,1.04601
2080,990.974,1.05842
2090,994.307,1.06585
2100,997.642,1.07107
2110,1000.98,1.08245
2120,1004.31,1.08854
2130,1007.64,1.09043
2140,1010.97,1.08893
2150,1014.31,1.09222
2160,1017.64,1.09579
2170,1020.98,1.09454
2180,1024.32,1.09584
2190,1027.65,1.09712
2200,1030.99,1.10211
2210,1034.32,1.10539
2220,1037.66,1.11012
2230,1041,1.11772
2240,1044.33,1.12477
2250,1047.68,1.12751
2260,1051.01,1.12851
2270,1054.35,1.13355
2280,1057.68,1.12989
2290,1061.02,1.13495
2300,1064.36,1.13505
2310,1067.69,1.13513
2320,1071.02,1.13462
2330,1074.37,1.13763
2340,1077.7,1.14033
2350,1081.04,1.13685
2360,1084.38,1.13807
2370,1087.72,1.13454
2380,1091.05,1.13188
2390,1094.38,1.13306
2400,1097.72,1.13633
2410,1101.05,1.13182
2420,1104.38,1.12879
2430,1107.71,1.12693
2440,1111.05,1.12626
2450,1114.38,1.12075
2460,1117.72,1.11824
2470,1121.06,1.11389
2480,1124.4,1.11497
2490,1127.73,1.11757
2500,1131.07,1.12047
2510,1134.41,1.12001
2520,1137.74,1.1226
2530,1141.07,1.12091
2540,1144.4,1.12257
2550,1147.731,1.12393
2560,1151.06,1.12497
2570,1154.4,1.12817
2580,1157.73,1.12891
2590,1161.06,1.13056
2600,1164.39,1.13843
2610,1167.72,1.14571
2620,1171.06,1.15924
2630,1174.39,1.17094
2640,1177.72,1.17986
2650,1181.05,1.19133
2660,1184.38,1.20534
2670,1187.7,1.22381
2680,1191.03,1.23793
2690,1194.35,1.26064
2700,1197.68,1.27646
2710,1201.01,1.29837
2720,1204.34,1.31655
2730,1207.67,1.34149
2740,1211.01,1.3662
2750,1214.34,1.38908
2760,1217.68,1.41109
2770,1221.01,1.43318
2774,1222.337,1.44332