File: PMMA/Calibration_Data/DBI-Lund/DBI-Lund_TGA_N2_20K_1.csv
Time,Temperature,Mass
[s],[K],[mg]
0,299.357,5.80E+00
8,299.34,5.79E+00
16,299.447,5.79E+00
24,299.862,5.79E+00
32,300.733,5.79E+00
40,302.1607,5.79312
48,304.16,5.80721
56,306.665,5.76967
64,309.56,5.7876
72,312.757,5.78895
80,316.128,5.79459
88,319.593,5.79413
96,323.068,5.78815
104,326.515,5.78737
112,329.8822,5.78704
120,333.177,5.79131
128,336.385,5.78342
136,339.516,5.78252
144,342.574,5.78084
152,345.561,5.78072
160,348.506,5.77948
168,351.404,5.78229
176,354.2821,5.78184
184,357.15,5.78218
192,360.01,5.77587
200,362.876,5.78027
208,365.741,5.77959
216,368.606,5.77745
224,371.464,5.78016
232,374.312,5.78038
240,377.147,5.77722
248,379.952,5.77722
256,382.738,5.77768
264,385.491,5.78117
272,388.238,5.77733
280,390.974,5.78399
288,393.677,5.7717
296,396.3749,5.77057
304,399.069,5.77745
312,401.762,5.77452
320,404.449,5.77261
328,407.129,5.77317
336,409.818,5.78929
344,412.489,5.75806
352,415.172,5.77136
360,417.849,5.76392
368,420.533,5.76302
376,423.2107,5.76279
384,425.8872,5.75964
392,428.556,5.75829
400,431.23,5.75987
408,433.897,5.75614
416,436.5511,5.75423
424,439.208,5.75187
432,441.865,5.75029
440,444.518,5.74735
448,447.177,5.74577
456,449.829,5.74589
464,452.484,5.73202
472,455.147,5.74679
480,457.807,5.73146
488,460.474,5.71906
496,463.146,5.71409
504,465.818,5.71827
512,468.492,5.71579
520,471.162,5.70124
528,473.8322,5.69764
536,476.5,5.69505
544,479.162,5.68479
552,481.832,5.67679
560,484.494,5.67386
568,487.163,5.67059
576,489.831,5.67183
584,492.498,5.64116
592,495.164,5.64444
600,497.824,5.63598
608,500.483,5.62325
616,503.144,5.61727
624,505.801,5.61422
632,508.469,5.60623
640,511.13,5.60138
648,513.789,5.59427
656,516.454,5.59698
664,519.117,5.59517
672,521.78,5.58841
680,524.447,5.58774
688,527.108,5.58514
696,529.772,5.5777
704,532.443,5.57579
712,535.108,5.57477
720,537.777,5.56564
728,540.454,5.56677
736,543.138,5.55538
744,545.832,5.55346
752,548.514,5.54783
760,551.1979,5.53983
768,553.878,5.53126
776,556.544,5.51942
784,559.213,5.51548
792,561.872,5.49801
800,564.533,5.49136
808,567.188,5.46531
816,569.832,5.46104
824,572.478,5.43499
832,575.123,5.42676
840,577.775,5.40523
848,580.419,5.37626
856,583.0662,5.36082
864,585.713,5.3474
872,588.365,5.31055
880,591.012,5.28992
888,593.671,5.26309
896,596.336,5.23716
904,599.002,5.19489
912,601.669,5.15814
920,604.332,5.10437
928,606.992,5.05319
936,609.657,5.00755
944,612.3227,4.90902
952,614.978,4.84127
960,617.6436,4.75064
968,620.303,4.62371
976,622.963,4.52181
984,625.609,4.37843
992,628.263,4.23031
1000,630.92,4.06708
1008,633.5722,3.88289
1016,636.225,3.68844
1024,638.885,3.47686
1032,641.542,3.26166
1040,644.207,3.02867
1048,646.875,2.79319
1056,649.547,2.56108
1064,652.2253,2.33282
1072,654.9029,2.09993
1080,657.5868,1.88813
1088,660.269,1.65625
1096,662.951,1.43486
1104,665.6252,1.21595
1112,668.3131,1.00876
1120,670.991,0.8278398
1128,673.673,0.67047
1136,676.358,0.536
1144,679.037,0.41639
1152,681.711,0.3203601
1160,684.386,0.24799
1168,687.062,0.195
1176,689.732,0.15588
1184,692.388,0.1179
1192,695.0481,0.08498972
1200,697.723,0.06852004
1208,700.403,0.06570994
1216,703.0639,0.05297024
1224,705.718,0.04925012
1232,708.353,0.0345999
1240,710.989,0.03561026
1248,713.626,0.02929986
1256,716.267,0.02614988
1264,718.914,0.02929
1272,721.567,0.0238902
1280,724.225,0.01971014
1288,726.893,0.02378
1296,729.56,0.02568994
1304,732.232,0.02072978
1312,734.906,0.02377014
1320,737.58,0.01904024
1328,740.25,0.02208002
1336,742.926,0.01701024
1344,745.603,0.02242976
1352,748.271,0.0157702
1360,750.94,0.02084984
1368,753.601,0.02547012
1376,756.268,0.01599988
1384,758.936,0.01881984
1392,761.606,0.0178002
1400,764.2629,0.01769
1408,766.933,0.01948974
1416,769.5941,0.04170026
1424,772.247,0.00642002
1432,774.914,0.02535006
1440,777.578,0.00878004
1448,780.246,0.02704018
1456,782.912,0.01103972
1464,785.581,0.01553994
1472,788.246,0.01035996
1480,790.914,0.01656016
1488,793.585,0.02117986
1496,796.254,0.01216028
1504,798.9211,0.01363
1512,801.596,0.01745974
1520,804.266,0.01904024
1528,806.934,0.01623014
1536,809.6005,0.01260978
1544,812.266,0.0129601
1552,814.935,0.01859016
1560,817.5948,0.01341018
1568,820.254,0.02287984
1576,822.914,0.00878004
1584,825.574,0.01474998
1592,828.231,0.0038222
1600,830.897,0.00935018
1608,833.562,0.00732018
1616,836.227,0.0087899
1624,838.891,0.01869978
1632,841.561,0.00969006
1640,844.229,0.00551
1648,846.895,0.03156012
1656,849.5668,0.01284004
1664,852.2331,0.00720998
1672,854.906,0.0046226
1680,857.574,0.01126012
1688,860.246,0.00585974
1696,862.914,0.00708992
1704,865.588,0.0094598
1712,868.254,0.01035996
1720,870.92,0.01103972
1728,873.591,0.02716024
1736,876.259,-0.00203
1744,878.93,0.02580014
1752,881.589,-0.0053128
1760,884.263,0.02062016
1768,886.933,0.01441996
1776,889.601,0.01384982
1784,892.264,0.01238996
1792,894.933,0.00969006
1800,897.601,0.03719018
1808,900.267,-0.00857994
1816,902.932,0.0001102
1824,905.6003,0.03550006
1832,908.255,0.00033002
1840,910.92,-0.00879976
1848,913.588,-0.0093699
1856,916.262,0.00911992
1864,918.937,0.02175
1872,921.605,-0.01060008
1880,924.275,0.00608014
1888,926.946,0.00708992
1896,929.615,0.01375006
1904,932.292,0.0114898
1912,934.962,-0.0018096
1920,937.643,0.01271998
1928,940.302,-0.00812986
1936,942.975,0.00935018
1944,945.634,0.00923998
1952,948.3,0.00787988
1960,950.9671,-0.00845988
1968,953.63,0.01802002
1976,956.298,0.03132986
1984,958.959,0.0094598
1992,961.624,-0.00857008
2000,964.288,0.01611008
2008,966.952,0.0048372
2016,969.622,0.0051794
2024,972.2904,0.0007772
2032,974.957,0.01216028
2040,977.628,0.00856022
2048,980.299,-0.00642988
2056,982.968,0.00686024
2064,985.639,0.0067599
2072,988.308,0.00720998
2080,990.98,0.01103972
2088,993.651,0.0041702
2096,996.319,0.0051794
2104,998.9901,0.0116
2108,1000.33,0.00866984