File: PMMA/Calibration_Data/DBI-Lund/DBI-Lund_Gasification_50kW_2.csv
Time,Mass
[s],[g]
0,67.7
2,67.7159
4,67.6198
6,67.6345
8,67.5561
10,67.5437
12,67.4776
14,67.4952
16,67.5718
18,67.4577
20,67.401
22,67.3234
24,67.1929
26,67.2585
28,67.12552
30,67.0809
32,66.83699
34,66.75
36,66.5787
38,66.4081
40,66.2763
42,66.1381
44,65.8615
46,65.4432
48,65.29562
50,65.0109
52,64.92122
54,64.7739
56,64.4376
58,64.0443
60,63.8592
62,63.5783
64,63.3637
66,63.09654
68,62.6502
70,62.3058
72,62.1231
74,61.8365
76,61.6004
78,61.3386
80,60.9181
82,60.6726
84,60.3277
86,60.1028
88,59.73234
90,59.3693
92,59.12804
94,58.6472
96,58.5297
98,58.0688
100,57.67216
102,57.4178
104,57.0915
106,56.7161
108,56.4349
110,55.9218
112,55.6546
114,55.3529
116,55.037
118,54.6877
120,54.20391
122,53.8116
124,53.4887
126,53.0437
128,52.6753
130,52.34488
132,52.0033
134,51.6923
136,51.2369
138,50.6741
140,50.3305
142,49.87044
144,49.53586
146,49.0221
148,48.6898
150,48.4181
152,47.9387
154,47.461
156,46.988
158,46.656
160,46.234
162,45.9606
164,45.4023
166,44.94474
168,44.4698
170,44.1403
172,43.66187
174,43.1729
176,42.8207
178,42.2685
180,41.8779
182,41.4375
184,40.9557
186,40.56176
188,40.0278
190,39.463
192,39.052
194,38.5109
196,38.04025
198,37.5966
200,37.0796
202,36.73617
204,36.0516
206,35.4948
208,35.0237
210,34.6163
212,33.8751
214,33.4565
216,32.9395
218,32.4225
220,31.80912
222,31.19955
224,30.8903
226,30.2234
228,29.7825
230,29.0622
232,28.6328
234,28.0303
236,27.5221
238,26.7976
240,26.415
242,25.6257
244,25.3609
246,24.56722
248,23.95172
250,23.3182
252,22.857
254,22.13216
256,21.5805
258,20.9539
260,20.29513
262,19.8525
264,19.147
266,18.3694
268,17.7295
270,17.119
272,16.4184
274,15.7687
276,15.0544
278,14.3161
280,13.7913
282,13.0117
284,12.2983
286,11.556
288,10.9056
290,10.2796
292,9.616044
294,8.85433
296,8.283386
298,7.488273
300,7.051085
302,6.522908
304,6.008078
306,5.504561
308,5.15238
310,4.610954
312,4.461852
314,4.174794
316,3.600733
318,3.331097
320,3.249247
322,2.783371
324,2.443979
326,2.293312
328,2.038779
330,1.808228
332,1.538537
334,1.504742
336,1.209183
338,1.100761
340,0.821329
342,0.53589
344,0.514713
346,0.310731
348,0.232849
350,0.137502
352,-0.031234
354,-0.012853
356,-0.114901
358,-0.191508
360,-0.495351
362,-0.434478
364,-0.42571
366,-0.559619
368,-0.762586
370,-0.653965
372,-0.856697
374,-0.79219
376,-0.952217
378,-1.014469
380,-0.908511
382,-1.057584
384,-1.196237
386,-1.176093
388,-1.167306
390,-1.322891
392,-1.26935
394,-1.383086
396,-1.294671
398,-1.273845
400,-1.345728
402,-1.368262
404,-1.495417
406,-1.435243
408,-1.42199
410,-1.321493
412,-1.331105
414,-1.470354
416,-1.417317
418,-1.411057
420,-1.402216
422,-1.377477
424,-1.625912
426,-1.420143
428,-1.36949
430,-1.528502
432,-1.510652
434,-1.366472
436,-1.498901
438,-1.426243
440,-1.262122
442,-1.389098
444,-1.498826
446,-1.316473
448,-1.389055
450,-1.365211
452,-1.191703
454,-1.333748
456,-1.362592
458,-1.303934
460,-1.324079
462,-1.437772
464,-1.372912
466,-1.421741
468,-1.416314
470,-1.307208
472,-1.203265
474,-1.273152
476,-1.372583
478,-1.387014
480,-1.338229
482,-1.500638
484,-1.330143
486,-1.269243
488,-1.394149
490,-1.467958