File: PMMA/Calibration_Data/DBI-Lund/DBI-Lund_Gasification_25kW_3.csv
Time,Mass
[s],[g]
0,70.1
5,70.0816
10,70.0232
15,70.0286
20,69.9958
25,69.84664
30,70.1543
35,70.0401
40,70.0371
45,70.0263
50,69.9243
55,70.0748
60,69.8737
65,69.8477
70,69.8008
75,69.78016
80,69.8108
85,69.8965
90,69.8966
95,69.6702
100,69.8168
105,69.6351
110,69.7163
115,69.8315
120,69.7925
125,69.6713
130,69.6425
135,69.3481
140,69.3846
145,69.3217
150,69.1142
155,69.1801
160,69.0327
165,68.7356
170,68.8813
175,68.7236
180,68.4281
185,68.2403
190,68.0539
195,67.74294
200,67.7718
205,67.2527
210,67.1701
215,67.0498
220,66.8129
225,66.2976
230,66.3093
235,66.0096
240,65.7567
245,65.49578
250,65.3034
255,64.8076
260,64.5403
265,64.134
270,63.7885
275,63.778
280,63.3793
285,63.03043
290,62.6397
295,62.3691
300,62.0492
305,61.6847
310,61.2764
315,60.8705
320,60.579
325,60.328
330,59.8087
335,59.701
340,59.2713
345,58.6887
350,58.3296
355,57.7841
360,57.6876
365,57.0432
370,56.6668
375,56.262
380,55.8983
385,55.4078
390,54.952
395,54.3924
400,54.1153
405,53.8252
410,53.3814
415,53.0828
420,52.2681
425,52.078
430,51.6868
435,51.0332
440,50.6394
445,49.9915
450,49.6037
455,49.2383
460,48.858
465,48.1205
470,47.72283
475,47.32865
480,46.7238
485,46.4455
490,45.7586
495,45.3344
500,44.8253
505,44.3673
510,43.81284
515,43.0588
520,42.7268
525,42.34302
530,41.5904
535,41.3853
540,40.6794
545,40.0649
550,39.8255
555,39.3077
560,38.5777
565,38.0399
570,37.6148
575,37.0397
580,36.576
585,35.9543
590,35.3508
595,34.7263
600,34.3713
605,33.8078
610,32.9703
615,32.5773
620,32.1181
625,31.5559
630,31.2065
635,30.3509
640,29.8425
645,29.4121
650,28.94104
655,28.3663
660,27.7532
665,27.1532
670,26.6105
675,26.0574
680,25.4705
685,24.9956
690,24.3198
695,23.7673
700,23.21065
705,22.6952
710,22.1394
715,21.4701
720,20.9757
725,20.5315
730,19.8159
735,19.4594
740,18.9197
745,18.2395
750,17.72226
755,17.2342
760,16.5933
765,16.1629
770,15.5032
775,15.1043
780,14.6281
785,14.114
790,13.754
795,13.2464
800,12.7217
805,12.5596
810,12.2103
815,11.8914
820,11.4776
825,11.0948
830,10.8242
835,10.4655
840,10.1301
845,10.1379
850,9.634128
855,9.500319
860,9.115269
865,9.042421
870,8.558611
875,8.549647
880,8.063174
885,7.998369
890,7.65057
895,7.426925
900,7.145047
905,6.977029
910,6.904917
915,6.597776
920,6.426111
925,6.172259
930,5.882951
935,5.874476
940,5.641468
945,5.290034
950,5.306754
955,5.075753
960,5.066209
965,4.717958
970,4.514131
975,4.422261
980,4.148576
985,4.131155
990,3.906548
995,3.967204
1000,3.597054
1005,3.330346
1010,3.245041
1015,3.185294
1020,3.137358
1025,2.962469
1030,2.715825
1035,2.729416
1040,2.524156
1045,2.532479
1050,2.459933
1055,2.425829
1060,2.457549
1065,2.348416
1070,2.232499
1075,1.946463
1080,1.993149
1085,1.892928
1090,1.906016
1095,1.843153
1100,1.625186
1105,1.755054
1110,1.770704
1115,1.666442
1120,1.551888
1125,1.311678
1130,1.562596
1135,1.272836
1140,1.295388
1145,1.374658
1150,1.15171
1155,1.264615
1160,1.020268
1165,1.06858
1170,1.233559
1175,0.961847
1180,0.855301
1185,0.998955
1190,0.857106
1195,1.03785
1200,0.872659
1205,0.796404
1210,0.793816
1215,0.677438
1220,0.94627
1225,0.691712
1230,0.779829
1235,0.851874
1240,0.678554
1245,0.634442
1250,0.670482
1255,0.527523
1260,0.650558
1265,0.478031
1270,0.50731
1275,0.533455
1280,0.570521
1285,0.410242
1290,0.291112
1295,0.357973
1300,0.308323
1305,0.266546
1310,0.518021
1315,0.280957
1320,0.358108
1325,0.285171
1330,0.288454
1335,0.310831
1340,0.19626
1345,0.158422
1350,0.416878
1355,0.144585
1360,0.050425
1365,0.252253
1370,0.27947
1375,0.119661
1380,0.138124
1385,0.001212
1388,0.131819