File: Wood/Calibration_Data/FZJ/FZJ_MCC_N2_60K_R1.csv
Time (s),Temperature (K),HRR (W/g)
0.00,348.05,-0.74
11.39,350.05,28.16
15.72,352.05,24.17
18.59,354.05,22.37
21.09,356.05,9.85
23.35,358.05,9.81
25.53,360.05,12.71
27.60,362.05,8.98
29.65,364.05,7.56
31.63,366.05,4.86
33.55,368.05,3.29
35.44,370.05,4.90
37.35,372.05,4.73
39.27,374.05,2.84
41.16,376.05,2.94
43.04,378.05,0.67
44.90,380.05,0.79
46.78,382.05,2.37
48.66,384.05,2.32
50.53,386.05,0.86
52.40,388.05,3.28
54.26,390.05,-0.20
56.15,392.05,-2.16
58.00,394.05,3.60
59.90,396.05,-0.65
61.79,398.05,-0.59
63.66,400.05,3.11
65.53,402.05,0.08
67.43,404.05,0.20
69.34,406.05,1.03
71.24,408.05,-0.34
73.14,410.05,-0.56
75.08,412.05,0.42
76.97,414.05,-1.12
78.90,416.05,-0.33
80.82,418.05,-0.22
82.75,420.05,0.91
84.69,422.05,2.63
86.61,424.05,-0.01
88.55,426.05,0.74
90.49,428.05,5.12
92.43,430.05,2.43
94.38,432.05,0.17
96.34,434.05,0.12
98.28,436.05,1.62
100.25,438.05,1.01
102.19,440.05,-1.58
104.15,442.05,2.62
106.14,444.05,3.71
108.08,446.05,1.08
110.06,448.05,1.82
111.99,450.05,2.51
113.98,452.05,0.45
115.93,454.05,-1.06
117.88,456.05,1.08
119.86,458.05,1.32
121.79,460.05,3.91
123.79,462.05,2.09
125.74,464.05,1.16
127.74,466.05,2.00
129.68,468.05,3.64
131.65,470.05,2.42
133.62,472.05,2.21
135.61,474.05,4.27
137.57,476.05,3.85
139.54,478.05,3.91
141.50,480.05,0.16
143.48,482.05,1.00
145.44,484.05,2.21
147.42,486.05,1.46
149.42,488.05,0.74
151.40,490.05,0.67
153.37,492.05,0.54
155.34,494.05,1.29
157.32,496.05,2.27
159.31,498.05,3.16
161.32,500.05,1.44
163.30,502.05,0.90
165.27,504.05,2.34
167.27,506.05,3.80
169.27,508.05,3.25
171.24,510.05,3.31
173.24,512.05,1.61
175.23,514.05,2.19
177.20,516.05,5.15
179.22,518.05,4.50
181.22,520.05,2.23
183.15,522.05,4.10
185.17,524.05,4.67
187.16,526.05,4.25
189.16,528.05,3.85
191.13,530.05,4.87
193.11,532.05,6.53
195.12,534.05,9.76
197.10,536.05,11.12
199.12,538.05,5.76
201.11,540.05,3.69
203.14,542.05,8.68
205.14,544.05,13.17
207.14,546.05,11.07
209.10,548.05,11.01
211.10,550.05,13.55
213.10,552.05,11.74
215.13,554.05,14.53
217.12,556.05,17.65
219.11,558.05,16.81
221.07,560.05,17.66
223.07,562.05,20.89
225.07,564.05,22.79
227.09,566.05,24.79
229.08,568.05,24.67
231.08,570.05,24.14
233.04,572.05,27.94
235.04,574.05,30.06
237.05,576.05,27.29
239.07,578.05,33.13
241.06,580.05,35.63
243.07,582.05,34.88
245.07,584.05,38.18
247.05,586.05,40.39
249.05,588.05,41.38
251.06,590.05,43.95
253.06,592.05,46.94
255.06,594.05,51.82
257.09,596.05,51.39
259.05,598.05,52.90
261.05,600.05,55.10
263.06,602.05,59.17
265.06,604.05,63.54
267.08,606.05,63.92
269.09,608.05,66.09
271.06,610.05,68.92
273.05,612.05,71.51
275.07,614.05,74.73
277.05,616.05,77.34
279.04,618.05,79.93
281.09,620.05,83.11
283.05,622.05,84.08
285.07,624.05,88.57
287.07,626.05,90.49
289.10,628.05,88.54
291.07,630.05,93.41
293.05,632.05,93.48
295.08,634.05,92.33
297.08,636.05,95.67
299.07,638.05,96.62
301.07,640.05,96.76
303.09,642.05,99.69
305.08,644.05,101.83
307.07,646.05,105.11
309.07,648.05,107.45
311.09,650.05,110.28
313.06,652.05,113.57
315.08,654.05,117.46
317.07,656.05,122.19
319.08,658.05,125.55
321.07,660.05,128.17
323.07,662.05,134.57
325.08,664.05,139.64
327.08,666.05,142.77
329.10,668.05,144.50
331.08,670.05,143.89
333.08,672.05,143.91
335.10,674.05,143.74
337.10,676.05,138.64
339.09,678.05,130.89
341.10,680.05,122.04
343.09,682.05,107.97
345.10,684.05,91.33
347.10,686.05,79.86
349.11,688.05,63.77
351.08,690.05,47.12
353.12,692.05,31.69
355.09,694.05,21.97
357.08,696.05,15.51
359.10,698.05,11.20
361.10,700.05,9.69
363.09,702.05,9.88
365.11,704.05,6.58
367.12,706.05,8.51
369.11,708.05,11.15
371.12,710.05,8.59
373.12,712.05,9.96
375.09,714.05,10.01
377.09,716.05,8.52
379.12,718.05,9.70
381.11,720.05,8.99
383.11,722.05,10.32
385.12,724.05,9.89
387.12,726.05,8.15
389.14,728.05,9.89
391.12,730.05,9.07
393.15,732.05,6.42
395.14,734.05,7.04
397.16,736.05,6.86
399.15,738.05,6.79
401.13,740.05,6.15
403.14,742.05,7.54
405.15,744.05,5.08
407.15,746.05,3.79
409.17,748.05,2.83
411.16,750.05,2.32
413.16,752.05,2.64
415.17,754.05,4.00
417.16,756.05,5.55
419.18,758.05,1.63
421.20,760.05,2.49
423.17,762.05,3.71
425.17,764.05,1.78
427.19,766.05,-0.57
429.19,768.05,2.66
431.19,770.05,2.33
433.22,772.05,1.07
435.23,774.05,-0.19
437.22,776.05,1.73
439.21,778.05,1.09
441.23,780.05,-0.81
443.24,782.05,0.02
445.25,784.05,1.21
447.25,786.05,-0.68
449.22,788.05,-0.32
451.24,790.05,1.26
453.22,792.05,0.15
455.23,794.05,0.40
457.28,796.05,0.07
459.25,798.05,-0.56
461.24,800.05,0.79
463.27,802.05,-0.23
465.26,804.05,0.14
467.26,806.05,3.53
469.26,808.05,-1.52
471.28,810.05,-2.55
473.27,812.05,-0.89
475.27,814.05,-1.10
477.26,816.05,-2.45
479.26,818.05,-0.23
481.27,820.05,1.54
483.28,822.05,-0.56
485.28,824.05,-0.20
487.28,826.05,0.67
489.29,828.05,-0.10
491.31,830.05,-1.41
493.33,832.05,0.57
495.31,834.05,1.34
497.31,836.05,-0.33
499.30,838.05,-0.41
501.34,840.05,0.87
503.34,842.05,-0.20
505.32,844.05,0.42
507.30,846.05,-0.53
509.31,848.05,0.09
511.31,850.05,0.08
513.27,852.05,-0.32
515.30,854.05,0.34
517.28,856.05,0.93
519.28,858.05,-1.22
521.30,860.05,0.37
523.31,862.05,1.70
525.28,864.05,9.21
527.29,866.05,9.24
529.31,868.05,9.27
531.32,870.05,9.30
533.32,872.05,9.33
535.30,874.05,9.36
537.31,876.05,9.39
537.80,876.55,9.40