File: Wood/Calibration_Data/FZJ/FZJ_MCC_N2_60K_R10.csv
Time (s),Temperature (K),HRR (W/g)
0.00,347.98,-0.19
11.82,349.98,3.86
15.95,351.98,3.39
18.82,353.98,2.82
21.33,355.98,1.50
23.60,357.98,0.70
25.75,359.98,0.66
27.84,361.98,1.95
29.88,363.98,1.39
31.88,365.98,-0.24
33.84,367.98,0.34
35.77,369.98,1.01
37.67,371.98,0.35
39.60,373.98,0.14
41.51,375.98,0.19
43.39,377.98,0.17
45.25,379.98,0.20
47.14,381.98,0.45
49.00,383.98,0.21
50.89,385.98,-0.27
52.76,387.98,-0.51
54.59,389.98,-0.07
56.48,391.98,0.04
58.37,393.98,0.03
60.25,395.98,-0.08
62.11,397.98,-0.08
64.00,399.98,0.23
65.88,401.98,0.07
67.78,403.98,0.24
69.68,405.98,0.31
71.58,407.98,0.11
73.47,409.98,-0.34
75.39,411.98,-0.38
77.29,413.98,-0.41
79.21,415.98,0.32
81.15,417.98,-0.06
83.07,419.98,-0.97
85.00,421.98,-0.37
86.91,423.98,-0.05
88.84,425.98,-0.12
90.83,427.98,0.03
92.75,429.98,0.12
94.68,431.98,-0.10
96.62,433.98,-0.03
98.57,435.98,0.60
100.52,437.98,0.79
102.51,439.98,-0.36
104.44,441.98,-0.42
106.43,443.98,0.01
108.37,445.98,0.34
110.34,447.98,-0.41
112.29,449.98,0.28
114.24,451.98,0.24
116.21,453.98,0.08
118.16,455.98,0.28
120.14,457.98,-0.33
122.10,459.98,0.74
124.03,461.98,0.73
126.04,463.98,0.57
127.97,465.98,0.63
129.98,467.98,0.19
131.94,469.98,0.38
133.87,471.98,0.80
135.87,473.98,0.90
137.83,475.98,1.08
139.81,477.98,0.59
141.75,479.98,0.60
143.75,481.98,1.48
145.70,483.98,1.31
147.70,485.98,1.40
149.68,487.98,1.13
151.63,489.98,1.72
153.63,491.98,1.61
155.62,493.98,1.12
157.60,495.98,2.36
159.56,497.98,3.39
161.54,499.98,1.40
163.55,501.98,1.72
165.54,503.98,2.71
167.53,505.98,2.18
169.54,507.98,2.77
171.50,509.98,2.52
173.50,511.98,1.71
175.45,513.98,2.57
177.44,515.98,2.65
179.45,517.98,3.40
181.41,519.98,3.40
183.42,521.98,3.75
185.39,523.98,4.56
187.38,525.98,4.24
189.38,527.98,4.46
191.35,529.98,6.52
193.34,531.98,5.96
195.35,533.98,6.30
197.34,535.98,7.37
199.36,537.98,7.52
201.32,539.98,8.08
203.32,541.98,9.16
205.35,543.98,9.66
207.34,545.98,10.66
209.34,547.98,11.66
211.33,549.98,12.00
213.34,551.98,13.37
215.32,553.98,14.47
217.32,555.98,14.43
219.32,557.98,15.99
221.29,559.98,17.53
223.31,561.98,18.68
225.31,563.98,19.75
227.31,565.98,21.25
229.30,567.98,23.44
231.28,569.98,24.10
233.27,571.98,25.44
235.26,573.98,28.41
237.28,575.98,30.05
239.28,577.98,30.37
241.28,579.98,32.42
243.28,581.98,34.99
245.27,583.98,36.81
247.29,585.98,38.38
249.29,587.98,40.86
251.29,589.98,43.04
253.31,591.98,46.07
255.29,593.98,48.25
257.29,595.98,50.58
259.27,597.98,54.91
261.25,599.98,56.63
263.27,601.98,59.78
265.26,603.98,63.00
267.26,605.98,65.53
269.27,607.98,69.24
271.29,609.98,72.74
273.29,611.98,75.38
275.29,613.98,77.99
277.30,615.98,80.91
279.30,617.98,84.09
281.29,619.98,86.70
283.27,621.98,88.32
285.26,623.98,90.66
287.29,625.98,93.29
289.29,627.98,94.22
291.30,629.98,95.92
293.32,631.98,98.45
295.29,633.98,99.70
297.30,635.98,101.75
299.29,637.98,104.84
301.30,639.98,105.95
303.28,641.98,108.12
305.31,643.98,111.49
307.29,645.98,114.71
309.27,647.98,117.93
311.32,649.98,122.22
313.31,651.98,126.56
315.30,653.98,131.19
317.30,655.98,134.84
319.31,657.98,138.50
321.31,659.98,143.20
323.31,661.98,146.30
325.32,663.98,147.80
327.35,665.98,148.70
329.36,667.98,147.97
331.34,669.98,144.79
333.37,671.98,138.90
335.36,673.98,130.48
337.36,675.98,120.58
339.32,677.98,107.73
341.32,679.98,93.98
343.31,681.98,79.41
345.28,683.98,64.73
347.26,685.98,52.25
349.27,687.98,40.75
351.23,689.98,32.10
353.19,691.98,25.51
355.17,693.98,21.63
357.13,695.98,19.00
359.13,697.98,17.02
361.12,699.98,16.41
363.13,701.98,15.38
365.11,703.98,15.09
367.10,705.98,14.64
369.13,707.98,13.79
371.11,709.98,13.41
373.10,711.98,13.10
375.12,713.98,12.77
377.13,715.98,12.62
379.14,717.98,12.48
381.12,719.98,11.78
383.11,721.98,11.35
385.13,723.98,10.41
387.14,725.98,10.19
389.14,727.98,10.28
391.17,729.98,9.50
393.17,731.98,8.92
395.15,733.98,8.49
397.15,735.98,8.25
399.17,737.98,7.88
401.15,739.98,7.24
403.18,741.98,7.20
405.18,743.98,5.87
407.19,745.98,6.04
409.18,747.98,6.07
411.19,749.98,4.42
413.20,751.98,5.04
415.24,753.98,5.07
417.25,755.98,4.27
419.27,757.98,4.04
421.25,759.98,3.95
423.24,761.98,3.01
425.24,763.98,3.33
427.25,765.98,2.89
429.24,767.98,2.67
431.27,769.98,2.34
433.29,771.98,2.53
435.31,773.98,2.03
437.30,775.98,1.95
439.29,777.98,2.35
441.29,779.98,1.89
443.33,781.98,1.91
445.33,783.98,1.81
447.30,785.98,1.20
449.33,787.98,1.33
451.29,789.98,1.49
453.31,791.98,1.56
455.32,793.98,1.04
457.31,795.98,1.16
459.35,797.98,1.40
461.36,799.98,0.82
463.33,801.98,0.81
465.33,803.98,0.89
467.35,805.98,1.08
469.33,807.98,0.98
471.36,809.98,0.03
473.35,811.98,1.33
475.39,813.98,0.36
477.38,815.98,0.05
479.38,817.98,1.17
481.37,819.98,1.35
483.38,821.98,0.78
485.36,823.98,0.42
487.37,825.98,-0.66
489.35,827.98,-0.09
491.38,829.98,0.47
493.39,831.98,-0.14
495.39,833.98,-0.11
497.39,835.98,0.76
499.40,837.98,0.42
501.43,839.98,-0.06
503.39,841.98,0.60
505.39,843.98,0.42
507.40,845.98,-0.02
509.39,847.98,-0.22
511.40,849.98,-0.63
513.35,851.98,-0.24
515.38,853.98,0.07
517.37,855.98,0.27
519.40,857.98,-0.59
521.40,859.98,-0.72
523.39,861.98,0.20
525.41,863.98,-1.16
527.41,865.98,-1.17
529.41,867.98,-1.17
531.42,869.98,-1.18
533.44,871.98,-1.18
535.41,873.98,-1.19
537.41,875.98,-1.19
538.43,876.98,-1.19