File: Wood/Calibration_Data/FZJ/FZJ_MCC_N2_45K_R1.csv
Time (s),Temperature (K),HRR (W/g)
2.26,348.43,-3.98
14.33,350.43,4.84
18.44,352.43,3.67
21.69,354.43,2.43
24.64,356.43,2.51
27.40,358.43,1.06
30.11,360.43,1.33
32.70,362.43,0.50
35.22,364.43,0.22
37.77,366.43,1.21
40.29,368.43,0.69
42.81,370.43,-0.11
45.30,372.43,-0.15
47.75,374.43,0.38
50.28,376.43,0.14
52.76,378.43,0.08
55.23,380.43,0.09
57.71,382.43,0.51
60.24,384.43,-0.19
62.73,386.43,0.08
65.27,388.43,-0.18
67.74,390.43,-0.34
70.28,392.43,-0.10
72.80,394.43,0.12
75.34,396.43,-0.02
77.91,398.43,-0.19
80.43,400.43,-0.51
82.98,402.43,0.04
85.54,404.43,0.17
88.13,406.43,-0.39
90.69,408.43,-0.54
93.26,410.43,0.62
95.86,412.43,-0.00
98.50,414.43,-0.21
101.07,416.43,-0.20
103.64,418.43,0.04
106.28,420.43,0.34
108.90,422.43,-0.03
111.50,424.43,0.04
114.10,426.43,0.65
116.72,428.43,0.14
119.36,430.43,1.21
122.00,432.43,0.76
124.63,434.43,1.29
127.24,436.43,1.18
129.88,438.43,1.04
132.55,440.43,1.82
135.22,442.43,1.69
137.85,444.43,1.60
140.46,446.43,1.86
143.07,448.43,2.06
145.69,450.43,2.22
148.34,452.43,2.89
150.95,454.43,3.31
153.60,456.43,3.64
156.24,458.43,3.60
158.87,460.43,3.93
161.51,462.43,4.35
164.15,464.43,4.69
166.76,466.43,5.43
169.41,468.43,4.53
172.03,470.43,5.75
174.66,472.43,6.53
177.29,474.43,5.85
179.93,476.43,6.83
182.57,478.43,7.19
185.22,480.43,7.05
187.86,482.43,7.88
190.51,484.43,8.44
193.23,486.43,8.20
195.86,488.43,8.68
198.51,490.43,8.59
201.15,492.43,8.74
203.82,494.43,9.16
206.50,496.43,8.91
209.18,498.43,8.44
211.83,500.43,9.29
214.46,502.43,9.18
217.15,504.43,9.40
219.83,506.43,9.23
222.46,508.43,9.18
225.18,510.43,9.81
227.85,512.43,10.09
230.47,514.43,9.96
233.12,516.43,10.91
235.81,518.43,10.69
238.46,520.43,11.23
241.08,522.43,12.02
243.77,524.43,12.34
246.43,526.43,13.26
249.12,528.43,13.55
251.77,530.43,13.91
254.40,532.43,14.54
257.07,534.43,15.48
259.74,536.43,17.40
262.42,538.43,16.79
265.05,540.43,17.58
267.70,542.43,18.47
270.37,544.43,19.35
273.08,546.43,19.90
275.70,548.43,20.75
278.37,550.43,21.57
281.02,552.43,23.04
283.66,554.43,23.62
286.34,556.43,24.18
289.01,558.43,25.27
291.68,560.43,25.69
294.30,562.43,27.13
296.94,564.43,28.01
299.63,566.43,28.92
302.30,568.43,29.36
304.94,570.43,30.16
307.61,572.43,31.38
310.26,574.43,31.93
312.94,576.43,32.52
315.62,578.43,33.65
318.29,580.43,35.44
320.94,582.43,35.48
323.58,584.43,36.29
326.33,586.43,38.16
328.97,588.43,39.79
331.67,590.43,40.54
334.36,592.43,42.37
337.02,594.43,44.17
339.67,596.43,45.81
342.34,598.43,47.45
344.99,600.43,49.68
347.63,602.43,51.70
350.33,604.43,53.62
353.00,606.43,55.63
355.64,608.43,57.34
358.36,610.43,58.99
361.02,612.43,60.96
363.65,614.43,62.06
366.32,616.43,63.61
369.00,618.43,64.83
371.61,620.43,65.64
374.28,622.43,66.99
376.97,624.43,67.49
379.63,626.43,68.86
382.31,628.43,69.81
385.00,630.43,71.21
387.64,632.43,72.82
390.31,634.43,74.60
392.97,636.43,76.45
395.61,638.43,79.14
398.29,640.43,81.94
400.96,642.43,84.93
403.61,644.43,88.39
406.31,646.43,91.67
409.00,648.43,95.97
411.64,650.43,99.75
414.34,652.43,103.44
416.97,654.43,106.80
419.67,656.43,110.27
422.32,658.43,111.77
425.02,660.43,113.16
427.65,662.43,111.81
430.31,664.43,109.31
433.02,666.43,104.02
435.68,668.43,97.01
438.30,670.43,88.33
440.95,672.43,77.39
443.63,674.43,64.99
446.32,676.43,52.89
448.91,678.43,41.58
451.56,680.43,32.39
454.23,682.43,24.58
456.87,684.43,19.03
459.51,686.43,15.72
462.20,688.43,13.41
464.85,690.43,12.08
467.57,692.43,11.44
470.23,694.43,11.59
472.95,696.43,11.49
475.66,698.43,10.84
478.29,700.43,10.67
481.00,702.43,10.21
483.65,704.43,9.91
486.34,706.43,9.93
489.03,708.43,9.48
491.69,710.43,9.02
494.37,712.43,8.95
497.01,714.43,7.99
499.69,716.43,8.51
502.36,718.43,8.74
505.00,720.43,7.30
507.68,722.43,7.63
510.36,724.43,7.50
512.99,726.43,6.12
515.66,728.43,6.79
518.31,730.43,6.21
520.99,732.43,6.21
523.66,734.43,5.34
526.31,736.43,6.05
528.97,738.43,4.97
531.64,740.43,4.74
534.32,742.43,4.26
536.99,744.43,4.17
539.68,746.43,3.95
542.37,748.43,3.95
545.06,750.43,2.99
547.70,752.43,4.35
550.38,754.43,2.46
553.05,756.43,2.48
555.71,758.43,2.92
558.36,760.43,1.72
561.07,762.43,1.91
563.71,764.43,2.54
566.37,766.43,1.31
569.05,768.43,1.97
571.71,770.43,1.50
574.41,772.43,1.03
577.11,774.43,1.48
579.74,776.43,1.38
582.39,778.43,0.63
585.09,780.43,1.45
587.76,782.43,1.01
590.43,784.43,0.94
593.07,786.43,0.78
595.76,788.43,1.06
598.44,790.43,1.30
601.09,792.43,0.60
603.72,794.43,0.82
606.41,796.43,0.59
609.09,798.43,0.33
611.76,800.43,0.16
614.43,802.43,0.81
617.08,804.43,0.37
619.80,806.43,-0.46
622.47,808.43,0.66
625.10,810.43,0.06
627.78,812.43,0.07
630.45,814.43,0.37
633.12,816.43,0.72
635.83,818.43,0.20
638.48,820.43,-0.48
641.13,822.43,0.81
643.80,824.43,0.14
646.48,826.43,-0.30
649.16,828.43,-0.58
651.80,830.43,1.09
654.45,832.43,-0.78
657.17,834.43,0.37
659.85,836.43,-0.18
662.52,838.43,0.05
665.18,840.43,0.16
667.84,842.43,-0.38
670.47,844.43,0.11
673.17,846.43,-0.08
675.86,848.43,-0.54
678.51,850.43,0.12
681.16,852.43,0.57
683.83,854.43,-0.05
686.51,856.43,-0.16
689.14,858.43,0.04
691.84,860.43,-0.15
694.48,862.43,-0.03
697.16,864.43,-0.06
699.86,866.43,1.57
702.53,868.43,1.58
705.21,870.43,1.59
707.90,872.43,1.59
710.53,874.43,1.60
711.84,875.43,1.60