File: Wood/Calibration_Data/FZJ/FZJ_MCC_N2_60K_R11.csv
Time (s),Temperature (K),HRR (W/g)
2.53,348.35,-2.93
12.79,350.35,3.82
16.60,352.35,3.64
19.43,354.35,2.98
21.91,356.35,2.23
24.16,358.35,2.24
26.30,360.35,1.85
28.38,362.35,0.97
30.42,364.35,1.48
32.41,366.35,0.59
34.34,368.35,0.39
36.28,370.35,-0.01
38.21,372.35,0.45
40.10,374.35,1.17
41.98,376.35,0.18
43.89,378.35,-0.21
45.74,380.35,0.57
47.63,382.35,0.78
49.52,384.35,-0.04
51.36,386.35,-0.06
53.25,388.35,0.48
55.09,390.35,0.25
56.94,392.35,-0.12
58.83,394.35,0.07
60.71,396.35,0.19
62.63,398.35,0.18
64.51,400.35,0.07
66.40,402.35,-0.13
68.28,404.35,-0.00
70.16,406.35,-0.08
72.03,408.35,-0.19
73.93,410.35,-0.23
75.86,412.35,0.15
77.76,414.35,-0.22
79.69,416.35,-0.26
81.59,418.35,0.34
83.53,420.35,0.25
85.48,422.35,0.03
87.35,424.35,0.16
89.30,426.35,-0.57
91.25,428.35,0.28
93.20,430.35,0.58
95.15,432.35,-0.41
97.09,434.35,-0.12
99.01,436.35,0.21
100.97,438.35,-0.19
102.93,440.35,-0.28
104.89,442.35,-0.18
106.86,444.35,0.46
108.81,446.35,0.27
110.76,448.35,0.20
112.73,450.35,0.21
114.66,452.35,-0.44
116.60,454.35,0.72
118.57,456.35,0.63
120.57,458.35,0.36
122.51,460.35,0.28
124.50,462.35,0.21
126.44,464.35,1.01
128.42,466.35,1.04
130.37,468.35,-0.14
132.34,470.35,-0.02
134.28,472.35,0.93
136.28,474.35,1.20
138.25,476.35,0.83
140.19,478.35,1.09
142.14,480.35,2.08
144.13,482.35,1.12
146.12,484.35,0.92
148.12,486.35,1.98
150.08,488.35,1.97
152.08,490.35,2.13
154.05,492.35,1.99
156.01,494.35,2.17
157.99,496.35,1.26
159.98,498.35,2.38
161.96,500.35,3.26
163.95,502.35,2.30
165.93,504.35,2.41
167.92,506.35,2.83
169.90,508.35,2.68
171.88,510.35,3.14
173.86,512.35,3.47
175.87,514.35,3.55
177.84,516.35,3.54
179.82,518.35,3.03
181.81,520.35,3.69
183.80,522.35,4.17
185.82,524.35,4.65
187.81,526.35,4.67
189.77,528.35,5.81
191.77,530.35,6.10
193.74,532.35,7.07
195.75,534.35,6.72
197.73,536.35,7.88
199.74,538.35,8.72
201.73,540.35,9.57
203.72,542.35,10.15
205.73,544.35,10.64
207.72,546.35,11.92
209.71,548.35,13.01
211.71,550.35,13.83
213.70,552.35,14.48
215.71,554.35,16.49
217.70,556.35,16.75
219.69,558.35,17.66
221.68,560.35,19.04
223.69,562.35,21.14
225.69,564.35,22.32
227.69,566.35,23.68
229.69,568.35,25.75
231.65,570.35,27.11
233.67,572.35,28.40
235.67,574.35,31.12
237.66,576.35,32.78
239.66,578.35,34.03
241.65,580.35,35.42
243.67,582.35,38.57
245.67,584.35,40.57
247.67,586.35,41.83
249.66,588.35,44.91
251.66,590.35,47.13
253.67,592.35,49.63
255.64,594.35,52.84
257.65,596.35,55.63
259.67,598.35,59.08
261.67,600.35,61.04
263.64,602.35,63.61
265.66,604.35,67.42
267.64,606.35,70.12
269.65,608.35,73.08
271.69,610.35,76.13
273.67,612.35,79.24
275.66,614.35,82.69
277.67,616.35,85.09
279.69,618.35,86.24
281.63,620.35,89.26
283.67,622.35,91.73
285.67,624.35,93.03
287.67,626.35,95.57
289.69,628.35,97.88
291.68,630.35,99.20
293.66,632.35,101.35
295.66,634.35,104.10
297.67,636.35,104.96
299.66,638.35,106.95
301.69,640.35,110.20
303.67,642.35,113.00
305.68,644.35,116.08
307.70,646.35,119.68
309.69,648.35,122.16
311.70,650.35,126.48
313.73,652.35,130.64
315.71,654.35,133.72
317.71,656.35,138.21
319.67,658.35,141.86
321.69,660.35,144.13
323.68,662.35,146.78
325.73,664.35,148.04
327.72,666.35,146.85
329.74,668.35,144.87
331.73,670.35,140.27
333.75,672.35,134.00
335.73,674.35,124.83
337.73,676.35,114.53
339.71,678.35,102.81
341.69,680.35,89.26
343.68,682.35,75.55
345.64,684.35,62.41
347.60,686.35,50.28
349.61,688.35,39.39
351.59,690.35,31.10
353.56,692.35,25.31
355.53,694.35,21.58
357.50,696.35,18.71
359.48,698.35,16.82
361.48,700.35,16.43
363.48,702.35,15.73
365.47,704.35,16.10
367.47,706.35,15.03
369.48,708.35,13.74
371.50,710.35,13.33
373.49,712.35,13.88
375.50,714.35,13.32
377.50,716.35,12.42
379.50,718.35,12.03
381.51,720.35,12.10
383.52,722.35,11.33
385.49,724.35,10.54
387.50,726.35,10.63
389.51,728.35,9.71
391.51,730.35,10.20
393.54,732.35,10.21
395.53,734.35,7.47
397.53,736.35,8.06
399.55,738.35,8.64
401.54,740.35,7.10
403.58,742.35,6.96
405.56,744.35,7.14
407.56,746.35,5.94
409.56,748.35,5.34
411.60,750.35,5.34
413.57,752.35,5.45
415.62,754.35,4.39
417.61,756.35,4.22
419.62,758.35,4.33
421.64,760.35,4.03
423.65,762.35,3.73
425.61,764.35,3.31
427.62,766.35,2.73
429.64,768.35,3.15
431.66,770.35,2.58
433.68,772.35,3.17
435.67,774.35,2.90
437.68,776.35,2.15
439.70,778.35,2.26
441.72,780.35,2.69
443.74,782.35,2.14
445.73,784.35,1.37
447.74,786.35,1.67
449.71,788.35,1.61
451.72,790.35,1.89
453.72,792.35,1.98
455.73,794.35,1.89
457.75,796.35,1.16
459.74,798.35,1.05
461.77,800.35,1.39
463.73,802.35,1.57
465.73,804.35,1.53
467.74,806.35,1.01
469.75,808.35,0.76
471.76,810.35,1.37
473.74,812.35,0.16
475.76,814.35,0.83
477.76,816.35,1.23
479.76,818.35,0.27
481.75,820.35,0.70
483.80,822.35,1.60
485.79,824.35,0.73
487.79,826.35,0.45
489.80,828.35,0.69
491.80,830.35,0.20
493.81,832.35,0.82
495.81,834.35,-0.47
497.80,836.35,-0.12
499.80,838.35,1.46
501.81,840.35,-0.18
503.80,842.35,-0.95
505.82,844.35,0.58
507.81,846.35,0.30
509.80,848.35,-0.39
511.81,850.35,0.09
513.78,852.35,0.08
515.78,854.35,-0.41
517.83,856.35,-0.39
519.80,858.35,0.41
521.84,860.35,-1.01
523.83,862.35,-0.57
525.82,864.35,-1.13
527.81,866.35,-1.13
529.84,868.35,-1.14
531.83,870.35,-1.15
533.84,872.35,-1.15
535.84,874.35,-1.16
537.81,876.35,-1.17
538.33,876.85,-1.17