File: Wood/Calibration_Data/FZJ/FZJ_Wood_MCC_N2_60K_R12.csv
Time (s),Temperature (K),HRR (W/g)
0.00,347.97,-0.79
13.12,350.47,6.49
17.47,352.97,5.21
20.71,355.47,3.46
23.60,357.97,2.46
26.29,360.47,1.87
28.85,362.97,0.77
31.33,365.47,1.66
33.82,367.97,0.71
36.20,370.47,0.84
38.56,372.97,0.63
40.97,375.47,0.43
43.32,377.97,0.22
45.66,380.47,0.53
47.99,382.97,0.62
50.33,385.47,-0.25
52.69,387.97,-0.33
54.98,390.47,0.23
57.35,392.97,-0.16
59.70,395.47,0.14
62.04,397.97,-0.56
64.42,400.47,0.28
66.75,402.97,0.35
69.13,405.47,0.60
71.48,407.97,0.42
73.88,410.47,0.04
76.26,412.97,0.21
78.64,415.47,0.28
81.05,417.97,0.35
83.47,420.47,1.12
85.91,422.97,0.65
88.32,425.47,1.08
90.73,427.97,1.44
93.14,430.47,1.21
95.62,432.97,1.62
98.06,435.47,2.62
100.47,437.97,2.77
102.95,440.47,2.64
105.40,442.97,2.88
107.86,445.47,3.16
110.25,447.97,3.54
112.71,450.47,4.08
115.19,452.97,3.83
117.61,455.47,3.96
120.10,457.97,4.53
122.57,460.47,5.06
124.99,462.97,5.61
127.46,465.47,5.89
129.89,467.97,6.96
132.39,470.47,7.12
134.84,472.97,7.41
137.29,475.47,9.35
139.76,477.97,9.43
142.22,480.47,9.70
144.68,482.97,9.97
147.15,485.47,10.60
149.62,487.97,11.47
152.09,490.47,10.59
154.56,492.97,10.97
157.02,495.47,10.37
159.51,497.97,11.61
162.02,500.47,10.60
164.48,502.97,11.05
166.97,505.47,10.78
169.46,507.97,11.43
171.92,510.47,11.54
174.42,512.97,12.85
176.88,515.47,13.09
179.41,517.97,13.44
181.89,520.47,14.89
184.38,522.97,15.53
186.86,525.47,16.36
189.33,527.97,17.17
191.83,530.47,18.82
194.32,532.97,19.97
196.83,535.47,20.07
199.31,537.97,22.22
201.79,540.47,23.16
204.31,542.97,24.50
206.81,545.47,25.78
209.31,547.97,25.99
211.81,550.47,28.01
214.27,552.97,29.69
216.79,555.47,31.44
219.30,557.97,32.48
221.81,560.47,33.80
224.27,562.97,35.26
226.77,565.47,36.53
229.27,567.97,37.82
231.75,570.47,39.32
234.25,572.97,41.06
236.75,575.47,41.33
239.25,577.97,43.66
241.76,580.47,44.77
244.25,582.97,46.13
246.76,585.47,47.56
249.22,587.97,49.68
251.75,590.47,51.61
254.24,592.97,53.98
256.73,595.47,56.46
259.25,597.97,58.54
261.73,600.47,61.56
264.26,602.97,64.67
266.73,605.47,68.11
269.22,607.97,70.65
271.74,610.47,73.77
274.23,612.97,76.74
276.72,615.47,79.74
279.23,617.97,81.94
281.72,620.47,83.95
284.21,622.97,86.00
286.73,625.47,86.55
289.21,627.97,88.60
291.74,630.47,90.32
294.21,632.97,91.98
296.72,635.47,94.59
299.23,637.97,96.92
301.73,640.47,100.59
304.21,642.97,104.05
306.75,645.47,108.92
309.23,647.97,113.99
311.72,650.47,119.73
314.24,652.97,125.59
316.72,655.47,131.59
319.23,657.97,136.93
321.74,660.47,142.18
324.25,662.97,145.46
326.75,665.47,146.56
329.27,667.97,144.79
331.77,670.47,138.83
334.26,672.97,128.83
336.75,675.47,114.44
339.25,677.97,96.54
341.77,680.47,76.84
344.23,682.97,58.86
346.72,685.47,42.45
349.19,687.97,30.31
351.68,690.47,22.90
354.17,692.97,17.90
356.65,695.47,16.40
359.14,697.97,16.54
361.62,700.47,14.64
364.11,702.97,15.04
366.64,705.47,15.20
369.15,707.97,14.43
371.67,710.47,14.19
374.15,712.97,13.42
376.65,715.47,13.27
379.16,717.97,12.32
381.66,720.47,12.08
384.17,722.97,11.94
386.65,725.47,10.83
389.14,727.97,10.54
391.66,730.47,10.31
394.16,732.97,9.99
396.68,735.47,9.48
399.16,737.97,8.23
401.67,740.47,8.12
404.18,742.97,7.69
406.68,745.47,7.57
409.19,747.97,6.94
411.71,750.47,6.50
414.21,752.97,5.91
416.73,755.47,5.34
419.25,757.97,5.34
421.76,760.47,4.77
424.24,762.97,4.35
426.74,765.47,3.43
429.26,767.97,4.02
431.74,770.47,4.36
434.25,772.97,2.94
436.80,775.47,3.26
439.32,777.97,2.95
441.84,780.47,3.19
444.34,782.97,2.78
446.79,785.47,2.50
449.30,787.97,2.45
451.78,790.47,2.14
454.31,792.97,2.12
456.80,795.47,2.43
459.34,797.97,2.04
461.83,800.47,1.80
464.33,802.97,1.62
466.82,805.47,1.83
469.32,807.97,1.37
471.86,810.47,1.39
474.34,812.97,0.75
476.85,815.47,1.52
479.36,817.97,0.86
481.83,820.47,0.91
484.33,822.97,0.78
486.83,825.47,0.88
489.34,827.97,0.55
491.84,830.47,0.73
494.35,832.97,0.40
496.84,835.47,0.23
499.31,837.97,1.01
501.84,840.47,0.13
504.37,842.97,0.12
506.84,845.47,0.05
509.34,847.97,0.46
511.84,850.47,-0.04
514.31,852.97,-0.35
516.83,855.47,0.00
519.33,857.97,-0.15
521.85,860.47,-0.43
524.31,862.97,-0.23
526.82,865.47,0.10
529.33,867.97,0.52
531.86,870.47,0.06
534.37,872.97,0.50
536.85,875.47,-0.23
539.34,877.97,0.58
541.84,880.47,-0.33
544.33,882.97,0.04
546.85,885.47,0.01
549.32,887.97,0.39
551.85,890.47,-0.15
554.33,892.97,-0.15
556.81,895.47,0.06
559.31,897.97,0.40
561.81,900.47,0.04
564.32,902.97,-0.39
566.81,905.47,0.26
569.30,907.97,-0.01
571.80,910.47,-0.04
574.28,912.97,0.04
576.81,915.47,0.41
579.29,917.97,-0.04
581.79,920.47,-0.02
584.29,922.97,0.60
586.77,925.47,0.34
589.26,927.97,-0.49
591.77,930.47,0.10
594.24,932.97,-0.27
596.75,935.47,-0.13
599.22,937.97,0.08
601.75,940.47,-0.27
604.19,942.97,-0.10
606.69,945.47,-0.21
609.21,947.97,0.22
611.70,950.47,0.04
614.18,952.97,-0.10
616.68,955.47,0.30
619.17,957.97,0.09
621.65,960.47,0.43
624.14,962.97,-0.22
626.63,965.47,0.28
629.12,967.97,0.28
631.63,970.47,0.28
634.09,972.97,0.28
636.60,975.47,0.29
637.61,976.47,0.29