File: Wood/Calibration_Data/FZJ/FZJ_MCC_N2_60K_R7.csv
Time,Temperature,HRR
0.000,75.051,-0.857
14.210,77.551,4.712
18.316,80.051,3.260
21.540,82.551,2.237
24.330,85.051,1.915
27.016,87.551,1.673
29.587,90.051,1.347
32.068,92.551,0.723
34.467,95.051,0.446
36.902,97.551,0.489
39.268,100.051,0.763
41.607,102.551,0.262
43.965,105.051,0.380
46.286,107.551,0.272
48.626,110.051,0.090
50.961,112.551,0.438
53.291,115.051,-0.189
55.623,117.551,-0.176
57.977,120.051,0.009
60.303,122.551,-0.517
62.652,125.051,0.004
65.007,127.551,-0.102
67.336,130.051,0.169
69.696,132.551,0.169
72.077,135.051,-0.130
74.470,137.551,0.181
76.845,140.051,0.561
79.200,142.551,0.329
81.623,145.051,1.075
84.059,147.551,0.796
86.445,150.051,0.784
88.863,152.551,2.086
91.282,155.051,0.952
93.699,157.551,1.551
96.144,160.051,2.483
98.575,162.551,1.283
101.015,165.051,3.049
103.450,167.551,0.950
105.889,170.051,2.865
108.331,172.551,3.762
110.766,175.051,2.633
113.233,177.551,3.562
115.649,180.051,2.686
118.098,182.551,4.786
120.581,185.051,4.749
123.020,187.551,4.234
125.481,190.051,5.945
127.899,192.551,4.847
130.393,195.051,7.246
132.846,197.551,6.473
135.285,200.051,6.987
137.757,202.551,9.086
140.229,205.051,8.467
142.709,207.551,10.743
145.158,210.051,9.918
147.659,212.551,10.399
150.080,215.051,11.934
152.557,217.551,10.699
155.030,220.051,12.474
157.486,222.551,10.657
160.015,225.051,12.167
162.477,227.551,12.274
164.961,230.051,11.546
167.452,232.551,12.363
169.951,235.051,12.065
172.388,237.551,12.622
174.901,240.051,12.682
177.360,242.551,13.168
179.880,245.051,13.350
182.320,247.551,13.862
184.798,250.051,13.829
187.301,252.551,15.044
189.769,255.051,15.595
192.245,257.551,16.126
194.716,260.051,17.415
197.215,262.551,18.268
199.721,265.051,19.944
202.231,267.551,20.504
204.731,270.051,21.798
207.212,272.551,23.110
209.690,275.051,24.242
212.212,277.551,25.777
214.676,280.051,27.475
217.211,282.551,28.600
219.677,285.051,30.709
222.191,287.551,32.537
224.679,290.051,33.089
227.184,292.551,35.540
229.673,295.051,36.904
232.147,297.551,38.592
234.626,300.051,40.515
237.150,302.551,42.362
239.643,305.051,44.082
242.122,307.551,46.166
244.616,310.051,47.630
247.137,312.551,49.873
249.638,315.051,51.790
252.102,317.551,53.816
254.622,320.051,56.230
257.129,322.551,59.019
259.608,325.051,61.329
262.132,327.551,63.777
264.590,330.051,66.734
267.109,332.551,69.525
269.629,335.051,72.358
272.101,337.551,75.539
274.604,340.051,78.344
277.078,342.551,80.408
279.587,345.051,82.729
282.100,347.551,85.093
284.586,350.051,87.421
287.084,352.551,89.238
289.615,355.051,90.937
292.095,357.551,93.159
294.570,360.051,95.596
297.101,362.551,97.203
299.561,365.051,100.918
302.061,367.551,104.058
304.564,370.051,108.037
307.091,372.551,112.453
309.571,375.051,117.703
312.095,377.551,123.055
314.609,380.051,128.590
317.128,382.551,133.289
319.609,385.051,138.340
322.113,387.551,141.415
324.603,390.051,142.615
327.134,392.551,141.698
329.658,395.051,138.121
332.138,397.551,131.188
334.622,400.051,120.499
337.066,402.551,106.919
339.624,405.051,90.281
342.050,407.551,73.108
344.579,410.051,57.283
346.991,412.551,42.951
349.553,415.051,32.000
352.011,417.551,24.685
354.461,420.051,20.237
356.937,422.551,18.204
359.414,425.051,17.088
361.990,427.551,16.336
364.395,430.051,16.126
367.023,432.551,15.537
369.514,435.051,15.375
372.059,437.551,14.374
374.579,440.051,13.629
376.989,442.551,13.775
379.534,445.051,13.056
382.052,447.551,13.017
384.513,450.051,12.331
386.975,452.551,11.459
389.501,455.051,10.848
392.036,457.551,10.549
394.564,460.051,9.744
397.048,462.551,8.764
399.582,465.051,9.761
402.072,467.551,9.074
404.552,470.051,8.000
407.051,472.551,7.174
409.586,475.051,6.977
412.073,477.551,6.328
414.557,480.051,5.903
417.173,482.551,5.692
419.585,485.051,5.415
422.174,487.551,4.855
424.731,490.051,4.391
427.224,492.551,4.047
429.737,495.051,4.270
432.249,497.551,3.653
434.723,500.051,3.562
437.226,502.551,3.498
439.794,505.051,3.113
442.256,507.551,3.192
444.780,510.051,2.593
447.241,512.551,2.163
449.762,515.051,2.654
452.224,517.551,2.037
454.770,520.051,2.236
457.267,522.551,2.356
459.747,525.051,1.909
462.262,527.551,1.675
464.752,530.051,1.622
467.225,532.551,1.717
469.744,535.051,1.267
472.261,537.551,1.435
474.690,540.051,0.927
477.237,542.551,1.180
479.718,545.051,1.234
482.193,547.551,1.113
484.698,550.051,1.148
487.189,552.551,1.009
489.695,555.051,0.744
492.202,557.551,0.903
494.667,560.051,0.988
497.195,562.551,0.702
499.676,565.051,0.817
502.155,567.551,0.499
504.677,570.051,0.588
507.142,572.551,0.717
509.646,575.051,0.522
512.145,577.551,0.677
514.629,580.051,0.335
517.121,582.551,0.815
519.643,585.051,0.671
522.129,587.551,0.343
524.632,590.051,0.526
527.123,592.551,0.446
529.652,595.051,0.612
532.119,597.551,0.370
534.645,600.051,0.636
537.126,602.551,0.568
539.644,605.051,0.547
542.112,607.551,0.457
544.564,610.051,0.297
547.084,612.551,0.873
549.596,615.051,0.601
552.090,617.551,0.328
554.575,620.051,0.487
557.049,622.551,0.539
559.498,625.051,0.102
562.066,627.551,0.469
564.553,630.051,0.601
567.015,632.551,0.363
569.555,635.051,0.079
572.020,637.551,0.323
574.506,640.051,-0.117
577.027,642.551,0.138
579.493,645.051,0.153
582.009,647.551,0.449
584.514,650.051,0.431
586.991,652.551,0.107
589.464,655.051,-0.051
591.965,657.551,0.172
594.465,660.051,-0.306
596.958,662.551,0.083
599.406,665.051,0.226
601.943,667.551,-0.070
604.444,670.051,0.047
606.938,672.551,0.074
609.413,675.051,-0.172
611.934,677.551,-0.110
614.417,680.051,-0.069
616.912,682.551,0.133
619.406,685.051,-0.172
621.882,687.551,-0.022
624.392,690.051,-0.252
626.856,692.551,-0.302
629.348,695.051,-0.303
631.856,697.551,-0.304
634.356,700.051,-0.305
636.836,702.551,-0.306
637.828,703.551,-0.307