File: Wood/Calibration_Data/FZJ/FZJ_MCC_N2_60K_R8.csv
Time (s),Temperature (K),HRR (W/g)
2.46,347.98,-3.71
12.86,349.98,3.86
16.66,351.98,2.44
19.44,353.98,3.46
21.91,355.98,1.17
24.18,357.98,0.93
26.33,359.98,1.55
28.40,361.98,0.72
30.44,363.98,0.87
32.39,365.98,0.64
34.34,367.98,0.27
36.27,369.98,1.16
38.20,371.98,0.06
40.09,373.98,0.01
41.97,375.98,0.71
43.86,377.98,0.22
45.75,379.98,0.13
47.58,381.98,-0.03
49.48,383.98,0.41
51.34,385.98,0.02
53.18,387.98,-0.11
55.06,389.98,0.08
56.94,391.98,-0.81
58.79,393.98,0.19
60.67,395.98,-0.01
62.57,397.98,-0.41
64.49,399.98,0.67
66.31,401.98,0.56
68.23,403.98,-0.19
70.08,405.98,-1.08
72.01,407.98,0.13
73.92,409.98,0.40
75.81,411.98,-0.41
77.72,413.98,0.13
79.65,415.98,-0.31
81.56,417.98,0.12
83.45,419.98,0.80
85.40,421.98,-0.24
87.33,423.98,0.80
89.27,425.98,0.10
91.22,427.98,-0.33
93.15,429.98,-0.09
95.06,431.98,0.20
97.05,433.98,0.15
98.98,435.98,0.43
100.92,437.98,-0.12
102.88,439.98,0.72
104.84,441.98,0.70
106.83,443.98,0.04
108.77,445.98,0.61
110.70,447.98,1.04
112.68,449.98,-0.42
114.63,451.98,0.20
116.58,453.98,1.57
118.55,455.98,0.16
120.50,457.98,0.30
122.49,459.98,1.37
124.44,461.98,0.22
126.42,463.98,-0.09
128.36,465.98,1.05
130.34,467.98,1.15
132.29,469.98,1.69
134.28,471.98,1.77
136.25,473.98,0.91
138.20,475.98,1.66
140.15,477.98,0.83
142.12,479.98,1.35
144.09,481.98,2.12
146.08,483.98,2.29
148.06,485.98,1.17
150.04,487.98,2.71
151.98,489.98,2.86
153.96,491.98,2.35
155.95,493.98,2.54
157.95,495.98,3.30
159.92,497.98,4.00
161.89,499.98,3.60
163.90,501.98,3.83
165.86,503.98,3.84
167.84,505.98,4.42
169.88,507.98,4.92
171.85,509.98,4.85
173.78,511.98,5.12
175.81,513.98,5.13
177.86,515.98,5.53
179.77,517.98,6.15
181.78,519.98,6.76
183.74,521.98,6.76
185.74,523.98,6.92
187.73,525.98,7.83
189.73,527.98,8.41
191.72,529.98,8.91
193.70,531.98,9.47
195.66,533.98,9.99
197.68,535.98,11.88
199.73,537.98,11.78
201.75,539.98,11.68
203.67,541.98,13.69
205.66,543.98,14.63
207.70,545.98,15.03
209.71,547.98,16.11
211.70,549.98,17.03
213.71,551.98,18.83
215.72,553.98,20.03
217.69,555.98,20.65
219.71,557.98,22.44
221.65,559.98,25.16
223.65,561.98,25.06
225.67,563.98,26.68
227.58,565.98,30.11
229.67,567.98,31.48
231.71,569.98,31.94
233.66,571.98,36.10
235.65,573.98,37.95
237.62,575.98,37.55
239.70,577.98,42.08
241.73,579.98,44.88
243.66,581.98,45.55
245.72,583.98,49.90
247.76,585.98,52.54
249.72,587.98,53.53
251.74,589.98,58.50
253.75,591.98,60.76
255.78,593.98,62.58
257.78,595.98,67.82
259.79,597.98,71.30
261.80,599.98,73.20
263.81,601.98,79.17
265.81,603.98,82.13
267.79,605.98,84.23
269.79,607.98,90.70
271.79,609.98,94.58
273.81,611.98,95.05
275.78,613.98,101.31
277.78,615.98,103.68
279.77,617.98,105.34
281.77,619.98,111.54
283.75,621.98,112.88
285.73,623.98,114.25
287.72,625.98,120.03
289.74,627.98,120.39
291.75,629.98,121.32
293.73,631.98,126.57
295.70,633.98,128.16
297.72,635.98,129.33
299.70,637.98,133.94
301.71,639.98,136.54
303.70,641.98,139.69
305.69,643.98,144.36
307.67,645.98,147.38
309.67,647.98,151.95
311.68,649.98,157.39
313.68,651.98,162.68
315.68,653.98,168.30
317.68,655.98,172.51
319.67,657.98,175.80
321.68,659.98,180.12
323.69,661.98,182.97
325.67,663.98,184.55
327.71,665.98,183.12
329.69,667.98,181.36
331.68,669.98,176.29
333.69,671.98,167.12
335.66,673.98,156.83
337.67,675.98,144.11
339.64,677.98,127.86
341.63,679.98,110.85
343.61,681.98,93.97
345.57,683.98,77.79
347.55,685.98,62.06
349.49,687.98,48.44
351.50,689.98,38.78
353.48,691.98,31.59
355.43,693.98,26.52
357.41,695.98,23.70
359.39,697.98,20.93
361.37,699.98,20.55
363.38,701.98,19.91
365.39,703.98,18.84
367.40,705.98,18.15
369.38,707.98,17.90
371.39,709.98,17.48
373.43,711.98,16.90
375.39,713.98,16.18
377.39,715.98,15.27
379.40,717.98,14.90
381.37,719.98,14.40
383.39,721.98,13.53
385.40,723.98,13.63
387.37,725.98,12.90
389.39,727.98,11.77
391.39,729.98,12.10
393.42,731.98,11.36
395.40,733.98,11.10
397.40,735.98,9.41
399.41,737.98,8.83
401.41,739.98,9.23
403.44,741.98,8.46
405.45,743.98,7.28
407.41,745.98,7.20
409.44,747.98,7.38
411.46,749.98,6.96
413.46,751.98,5.11
415.46,753.98,5.40
417.48,755.98,4.80
419.48,757.98,4.97
421.46,759.98,5.47
423.45,761.98,3.26
425.48,763.98,3.04
427.47,765.98,4.07
429.49,767.98,4.64
431.51,769.98,4.10
433.51,771.98,2.49
435.52,773.98,2.37
437.48,775.98,3.12
439.53,777.98,1.77
441.52,779.98,0.94
443.57,781.98,3.16
445.54,783.98,3.35
447.56,785.99,0.41
449.53,787.99,2.25
451.54,789.99,2.46
453.53,791.99,0.89
455.55,793.99,0.63
457.57,795.99,1.49
459.55,797.99,1.52
461.52,799.99,0.84
463.53,801.99,1.30
465.54,803.99,2.71
467.54,805.99,-0.23
469.56,807.99,0.03
471.58,809.99,1.27
473.58,811.99,1.86
475.57,813.99,1.65
477.60,815.99,-1.46
479.56,817.99,-0.50
481.56,819.99,0.46
483.57,821.99,0.84
485.54,823.99,0.58
487.55,825.99,-0.10
489.58,827.99,0.57
491.59,829.99,-0.79
493.58,831.99,0.05
495.58,833.99,-0.32
497.59,835.99,0.21
499.58,837.99,0.78
501.57,839.99,0.72
503.58,841.99,-0.65
505.60,843.99,0.32
507.57,845.99,0.01
509.58,847.99,-0.43
511.59,849.99,0.01
513.56,851.99,-0.10
515.57,853.99,0.19
517.59,855.99,0.03
519.60,857.99,-0.21
521.60,859.99,0.18
523.58,861.99,-0.14
525.59,863.99,-1.10
527.59,865.99,-1.10
529.62,867.99,-1.10
531.60,869.99,-1.11
533.59,871.99,-1.11
535.60,873.99,-1.11
537.59,875.99,-1.11
538.10,876.49,-1.12