File: Wood/Calibration_Data/FZJ/FZJ_Wood_MCC_N2_60K_R14.csv
Time (s),Temperature (K),HRR (W/g)
1.18,347.95,-0.74
12.12,349.95,6.15
16.14,351.95,4.52
18.99,353.95,3.24
21.50,355.95,3.00
23.75,357.95,1.30
25.91,359.95,0.99
27.99,361.95,0.95
30.02,363.95,0.75
32.01,365.95,0.43
33.97,367.95,0.40
35.90,369.95,0.64
37.82,371.95,0.20
39.72,373.95,-0.07
41.62,375.95,0.01
43.52,377.95,-0.44
45.39,379.95,-0.58
47.27,381.95,-0.27
49.12,383.95,-0.42
51.01,385.95,-0.36
52.86,387.95,-0.65
54.75,389.95,-0.55
56.61,391.95,-0.52
58.50,393.95,-0.37
60.37,395.95,-0.33
62.25,397.95,0.10
64.13,399.95,0.13
66.00,401.95,0.07
67.89,403.95,-0.16
69.82,405.95,-0.30
71.68,407.95,0.19
73.58,409.95,0.26
75.52,411.95,0.33
77.43,413.95,-0.37
79.33,415.95,0.48
81.26,417.95,0.14
83.18,419.95,-0.02
85.12,421.95,1.23
87.04,423.95,0.84
88.97,425.95,0.87
90.90,427.95,1.60
92.85,429.95,1.23
94.77,431.95,0.97
96.73,433.95,1.91
98.67,435.95,1.91
100.66,437.95,1.75
102.62,439.95,2.40
104.58,441.95,2.40
106.52,443.95,2.75
108.48,445.95,2.85
110.41,447.95,3.03
112.38,449.95,3.55
114.36,451.95,3.76
116.29,453.95,3.59
118.28,455.95,4.28
120.24,457.95,4.78
122.17,459.95,4.75
124.17,461.95,5.46
126.14,463.95,6.05
128.09,465.95,6.22
130.06,467.95,7.13
132.04,469.95,7.61
133.99,471.95,7.60
135.96,473.95,7.88
137.90,475.95,9.10
139.91,477.95,9.01
141.86,479.95,8.15
143.86,481.95,8.34
145.83,483.95,8.77
147.80,485.95,8.00
149.76,487.95,8.40
151.76,489.95,8.90
153.73,491.95,8.92
155.71,493.95,9.49
157.69,495.95,9.22
159.69,497.95,9.22
161.66,499.95,9.33
163.64,501.95,9.90
165.62,503.95,10.46
167.61,505.95,10.87
169.62,507.95,10.97
171.58,509.95,11.43
173.56,511.95,12.25
175.58,513.95,12.29
177.56,515.95,13.10
179.53,517.95,13.45
181.52,519.95,13.73
183.52,521.95,14.51
185.51,523.95,15.00
187.48,525.95,16.32
189.48,527.95,16.58
191.45,529.95,17.26
193.47,531.95,18.34
195.46,533.95,19.33
197.44,535.95,19.51
199.42,537.95,20.15
201.42,539.95,21.93
203.40,541.95,23.04
205.44,543.95,23.36
207.45,545.95,25.08
209.42,547.95,26.34
211.43,549.95,27.84
213.44,551.95,28.31
215.41,553.95,29.20
217.43,555.95,30.41
219.40,557.95,32.12
221.39,559.95,33.49
223.39,561.95,34.61
225.37,563.95,35.76
227.36,565.95,36.63
229.40,567.95,37.66
231.38,569.95,38.63
233.36,571.95,39.42
235.36,573.95,40.72
237.35,575.95,41.64
239.37,577.95,42.99
241.40,579.95,44.28
243.37,581.95,45.61
245.37,583.95,46.87
247.37,585.95,48.00
249.35,587.95,49.10
251.37,589.95,50.17
253.37,591.95,52.27
255.35,593.95,54.15
257.37,595.95,56.15
259.37,597.95,58.01
261.38,599.95,60.09
263.35,601.95,62.43
265.34,603.95,64.84
267.35,605.95,67.96
269.36,607.95,70.01
271.34,609.95,71.95
273.37,611.95,74.47
275.37,613.95,76.84
277.35,615.95,78.81
279.33,617.95,80.62
281.33,619.95,82.79
283.34,621.95,84.58
285.35,623.95,86.32
287.35,625.95,87.58
289.35,627.95,88.76
291.35,629.95,90.23
293.36,631.95,91.74
295.30,633.95,93.47
297.36,635.95,95.01
299.33,637.95,96.74
301.33,639.95,99.35
303.33,641.95,102.04
305.35,643.95,105.19
307.31,645.95,108.56
309.33,647.95,112.68
311.33,649.95,116.66
313.34,651.95,120.82
315.36,653.95,125.57
317.35,655.95,129.68
319.34,657.95,133.18
321.32,659.95,136.51
323.37,661.95,139.55
325.36,663.95,140.70
327.38,665.95,141.29
329.37,667.95,139.22
331.39,669.95,135.42
333.40,671.95,129.80
335.36,673.95,120.48
337.37,675.95,108.95
339.35,677.95,96.67
341.37,679.95,82.78
343.37,681.95,68.44
345.32,683.95,54.55
347.30,685.95,42.80
349.30,687.95,33.61
351.27,689.95,26.09
353.27,691.95,20.96
355.24,693.95,17.94
357.24,695.95,15.79
359.23,697.95,14.75
361.24,699.95,14.65
363.24,701.95,15.09
365.24,703.95,15.25
367.20,705.95,14.53
369.25,707.95,13.71
371.26,709.95,13.63
373.25,711.95,13.62
375.26,713.95,12.94
377.25,715.95,12.42
379.25,717.95,12.03
381.25,719.95,11.48
383.23,721.95,11.38
385.26,723.95,10.66
387.28,725.95,10.49
389.26,727.95,10.19
391.27,729.95,10.34
393.29,731.95,9.28
395.29,733.95,9.17
397.27,735.95,8.64
399.26,737.95,8.37
401.27,739.95,8.55
403.32,741.95,7.50
405.29,743.95,7.26
407.31,745.95,6.73
409.28,747.95,6.87
411.31,749.95,6.30
413.32,751.95,5.73
415.33,753.95,5.70
417.32,755.95,5.33
419.33,757.95,4.67
421.31,759.95,4.52
423.34,761.95,4.67
425.35,763.95,3.90
427.32,765.95,3.56
429.34,767.95,3.29
431.36,769.95,3.40
433.36,771.95,2.87
435.36,773.95,2.96
437.38,775.95,3.35
439.38,777.95,2.75
441.40,779.95,2.48
443.41,781.95,2.12
445.37,783.95,1.89
447.39,785.96,2.66
449.36,787.96,1.63
451.39,789.96,1.58
453.40,791.96,2.11
455.42,793.96,1.54
457.41,795.96,1.07
459.39,797.96,0.86
461.40,799.96,1.45
463.40,801.96,1.32
465.42,803.96,0.93
467.42,805.96,0.95
469.41,807.96,0.72
471.42,809.96,0.52
473.42,811.96,1.11
475.45,813.96,0.35
477.42,815.96,0.59
479.43,817.96,0.97
481.44,819.96,0.92
483.43,821.96,0.47
485.42,823.96,0.19
487.44,825.96,0.07
489.43,827.96,0.71
491.43,829.96,0.78
493.43,831.96,-0.03
495.42,833.96,0.14
497.43,835.96,-0.19
499.44,837.96,0.38
501.43,839.96,0.37
503.42,841.96,0.24
505.45,843.96,-0.06
507.45,845.96,0.05
509.42,847.96,0.88
511.41,849.96,0.43
513.42,851.96,-0.25
515.40,853.96,-0.40
517.42,855.96,0.24
519.41,857.96,-0.08
521.40,859.96,-0.13
523.41,861.96,-0.40
525.40,863.96,-0.05
527.42,865.96,-0.05
529.42,867.96,-0.10
531.47,869.96,0.52
533.43,871.96,0.04
535.44,873.96,-0.24
537.40,875.96,-0.10
539.43,877.96,0.00
541.39,879.96,0.11
543.43,881.96,0.02
545.42,883.96,-0.13
547.42,885.96,-0.10
549.41,887.96,-0.18
551.40,889.96,0.52
553.37,891.96,0.35
555.40,893.96,-0.25
557.38,895.96,-0.06
559.37,897.96,-0.46
561.37,899.96,-0.67
563.35,901.96,0.14
565.38,903.96,0.08
567.39,905.96,-0.70
569.39,907.96,-0.29
571.36,909.96,0.28
573.35,911.96,-0.02
575.36,913.96,-0.07
577.35,915.96,-0.07
579.36,917.96,-0.06
581.36,919.96,-0.06
583.35,921.96,-0.06
585.35,923.96,-0.05
587.35,925.96,-0.05
587.84,926.46,-0.05