File: Wood/Calibration_Data/FZJ/FZJ_MCC_N2_60K_R14.csv
Time,Temperature,HRR
1.178,74.805,-0.744
12.120,76.805,6.148
16.141,78.805,4.518
18.995,80.805,3.243
21.497,82.805,2.996
23.751,84.805,1.296
25.914,86.805,0.994
27.993,88.805,0.950
30.022,90.805,0.749
32.006,92.805,0.435
33.965,94.805,0.401
35.903,96.805,0.642
37.821,98.805,0.199
39.725,100.805,-0.067
41.616,102.805,0.013
43.523,104.805,-0.437
45.388,106.805,-0.576
47.266,108.805,-0.267
49.116,110.805,-0.419
51.007,112.805,-0.356
52.864,114.805,-0.652
54.750,116.805,-0.552
56.609,118.805,-0.516
58.504,120.805,-0.372
60.366,122.805,-0.328
62.246,124.805,0.097
64.134,126.805,0.126
66.001,128.805,0.071
67.895,130.805,-0.163
69.823,132.805,-0.298
71.677,134.805,0.193
73.582,136.805,0.259
75.522,138.805,0.335
77.434,140.805,-0.366
79.328,142.805,0.483
81.255,144.805,0.135
83.180,146.805,-0.025
85.122,148.805,1.228
87.038,150.805,0.843
88.972,152.805,0.874
90.900,154.805,1.602
92.848,156.805,1.229
94.771,158.805,0.970
96.727,160.805,1.909
98.666,162.805,1.912
100.660,164.805,1.749
102.615,166.805,2.397
104.579,168.805,2.395
106.524,170.805,2.752
108.476,172.805,2.853
110.406,174.805,3.029
112.382,176.805,3.552
114.356,178.805,3.761
116.294,180.805,3.587
118.285,182.805,4.280
120.235,184.805,4.780
122.174,186.805,4.752
124.168,188.805,5.459
126.140,190.805,6.054
128.093,192.805,6.217
130.060,194.805,7.130
132.042,196.805,7.608
133.993,198.805,7.598
135.965,200.805,7.878
137.905,202.805,9.103
139.913,204.805,9.006
141.861,206.805,8.151
143.858,208.805,8.336
145.828,210.805,8.766
147.805,212.805,7.997
149.757,214.805,8.405
151.760,216.805,8.901
153.731,218.805,8.924
155.711,220.805,9.490
157.690,222.805,9.218
159.687,224.805,9.218
161.658,226.805,9.327
163.644,228.805,9.897
165.623,230.805,10.458
167.608,232.805,10.866
169.623,234.805,10.966
171.585,236.805,11.431
173.563,238.805,12.253
175.575,240.805,12.288
177.562,242.805,13.097
179.535,244.805,13.452
181.516,246.805,13.735
183.524,248.805,14.507
185.514,250.805,14.997
187.484,252.805,16.315
189.483,254.805,16.580
191.451,256.805,17.262
193.472,258.805,18.344
195.457,260.805,19.330
197.441,262.805,19.508
199.421,264.805,20.154
201.420,266.805,21.928
203.404,268.805,23.037
205.440,270.805,23.363
207.452,272.805,25.083
209.419,274.805,26.345
211.433,276.805,27.845
213.435,278.805,28.307
215.406,280.805,29.202
217.430,282.805,30.410
219.396,284.805,32.115
221.385,286.805,33.487
223.387,288.805,34.614
225.369,290.805,35.763
227.358,292.805,36.630
229.396,294.805,37.659
231.376,296.805,38.625
233.363,298.805,39.417
235.359,300.805,40.718
237.349,302.805,41.641
239.365,304.805,42.991
241.396,306.805,44.283
243.371,308.805,45.612
245.373,310.805,46.867
247.373,312.805,48.003
249.353,314.805,49.101
251.368,316.805,50.171
253.370,318.805,52.273
255.349,320.805,54.151
257.372,322.805,56.150
259.369,324.805,58.006
261.377,326.805,60.093
263.349,328.805,62.431
265.337,330.805,64.840
267.351,332.805,67.962
269.364,334.805,70.005
271.341,336.805,71.946
273.366,338.805,74.469
275.366,340.805,76.842
277.348,342.805,78.807
279.330,344.805,80.624
281.327,346.805,82.786
283.335,348.805,84.584
285.347,350.805,86.322
287.354,352.805,87.583
289.354,354.805,88.764
291.352,356.805,90.233
293.357,358.805,91.743
295.303,360.805,93.473
297.361,362.805,95.011
299.326,364.805,96.744
301.335,366.805,99.351
303.334,368.805,102.043
305.352,370.805,105.190
307.308,372.805,108.559
309.329,374.805,112.679
311.335,376.805,116.661
313.337,378.805,120.822
315.362,380.805,125.574
317.347,382.805,129.678
319.342,384.805,133.184
321.324,386.805,136.509
323.368,388.805,139.553
325.364,390.805,140.698
327.384,392.805,141.288
329.368,394.805,139.224
331.390,396.805,135.422
333.395,398.805,129.800
335.361,400.805,120.481
337.367,402.805,108.947
339.354,404.805,96.669
341.371,406.805,82.777
343.366,408.805,68.440
345.320,410.805,54.549
347.296,412.805,42.796
349.296,414.805,33.615
351.272,416.805,26.088
353.267,418.805,20.957
355.242,420.805,17.935
357.236,422.805,15.786
359.233,424.805,14.751
361.244,426.805,14.648
363.236,428.805,15.089
365.236,430.805,15.253
367.204,432.805,14.526
369.254,434.805,13.708
371.260,436.805,13.632
373.251,438.805,13.617
375.260,440.805,12.939
377.251,442.805,12.424
379.255,444.805,12.030
381.246,446.805,11.478
383.233,448.805,11.376
385.258,450.805,10.656
387.279,452.805,10.487
389.256,454.805,10.193
391.268,456.805,10.342
393.287,458.805,9.278
395.287,460.805,9.173
397.268,462.805,8.637
399.262,464.805,8.374
401.274,466.805,8.548
403.322,468.805,7.499
405.290,470.805,7.255
407.308,472.805,6.730
409.283,474.805,6.866
411.313,476.805,6.300
413.320,478.805,5.728
415.331,480.805,5.702
417.316,482.805,5.327
419.334,484.805,4.674
421.306,486.805,4.525
423.336,488.805,4.668
425.350,490.805,3.899
427.323,492.805,3.565
429.345,494.805,3.295
431.358,496.805,3.401
433.359,498.805,2.870
435.356,500.805,2.956
437.378,502.805,3.348
439.376,504.805,2.753
441.405,506.805,2.476
443.405,508.805,2.119
445.373,510.805,1.890
447.388,512.805,2.656
449.365,514.805,1.632
451.392,516.805,1.576
453.404,518.805,2.114
455.417,520.805,1.543
457.409,522.805,1.066
459.393,524.805,0.861
461.402,526.805,1.448
463.403,528.805,1.316
465.421,530.805,0.928
467.424,532.805,0.946
469.406,534.805,0.716
471.422,536.805,0.517
473.423,538.805,1.115
475.452,540.805,0.354
477.422,542.805,0.594
479.434,544.805,0.973
481.443,546.805,0.922
483.434,548.805,0.468
485.416,550.805,0.191
487.440,552.805,0.074
489.433,554.805,0.707
491.427,556.805,0.780
493.432,558.805,-0.027
495.423,560.805,0.141
497.428,562.805,-0.190
499.444,564.805,0.383
501.434,566.805,0.368
503.423,568.805,0.242
505.449,570.805,-0.058
507.449,572.805,0.050
509.419,574.805,0.879
511.405,576.805,0.434
513.416,578.805,-0.249
515.401,580.805,-0.396
517.424,582.805,0.244
519.406,584.805,-0.080
521.403,586.805,-0.128
523.406,588.805,-0.403
525.405,590.805,-0.050
527.418,592.805,-0.052
529.418,594.805,-0.101
531.475,596.805,0.524
533.430,598.805,0.041
535.438,600.805,-0.243
537.398,602.805,-0.101
539.434,604.805,0.002
541.389,606.805,0.115
543.430,608.805,0.016
545.423,610.805,-0.131
547.421,612.805,-0.100
549.408,614.805,-0.177
551.399,616.805,0.524
553.374,618.805,0.352
555.404,620.805,-0.245
557.376,622.805,-0.064
559.369,624.805,-0.461
561.372,626.805,-0.673
563.353,628.805,0.142
565.383,630.805,0.077
567.391,632.805,-0.696
569.392,634.805,-0.292
571.356,636.805,0.284
573.345,638.805,-0.023
575.358,640.805,-0.071
577.349,642.805,-0.067
579.364,644.805,-0.064
581.356,646.805,-0.060
583.345,648.805,-0.057
585.345,650.805,-0.053
587.348,652.805,-0.050
587.835,653.305,-0.049