File: Wood/Calibration_Data/FZJ/FZJ_MCC_N2_45K_R2.csv
Time,Temperature,HRR
0.000,75.160,-1.351
14.499,77.160,5.367
18.543,79.160,3.374
21.822,81.160,3.135
24.754,83.160,2.289
27.489,85.160,1.588
30.163,87.160,1.502
32.707,89.160,0.698
35.298,91.160,1.247
37.778,93.160,0.646
40.272,95.160,0.274
42.787,97.160,0.369
45.267,99.160,0.019
47.750,101.160,0.255
50.242,103.160,0.164
52.717,105.160,0.364
55.222,107.160,0.188
57.680,109.160,0.248
60.221,111.160,-0.658
62.678,113.160,-0.003
65.214,115.160,0.114
67.739,117.160,-0.436
70.243,119.160,0.186
72.765,121.160,-0.452
75.320,123.160,-0.104
77.852,125.160,-0.118
80.397,127.160,0.047
82.945,129.160,0.041
85.526,131.160,-0.113
88.103,133.160,0.268
90.689,135.160,-0.681
93.262,137.160,-0.501
95.850,139.160,-0.401
98.440,141.160,0.089
101.009,143.160,0.092
103.600,145.160,0.145
106.241,147.160,0.229
108.856,149.160,0.206
111.485,151.160,0.631
114.092,153.160,0.581
116.720,155.160,0.426
119.324,157.160,0.633
121.962,159.160,0.682
124.608,161.160,1.172
127.224,163.160,1.470
129.896,165.160,1.053
132.491,167.160,1.295
135.152,169.160,2.164
137.834,171.160,1.883
140.458,173.160,1.643
143.035,175.160,2.188
145.676,177.160,1.938
148.335,179.160,2.482
150.993,181.160,2.563
153.597,183.160,3.323
156.237,185.160,3.493
158.916,187.160,3.818
161.565,189.160,4.370
164.190,191.160,4.192
166.833,193.160,4.749
169.475,195.160,4.603
172.117,197.160,4.526
174.760,199.160,5.216
177.414,201.160,4.722
180.043,203.160,5.431
182.699,205.160,4.545
185.373,207.160,5.627
187.994,209.160,5.608
190.657,211.160,5.155
193.274,213.160,5.908
195.971,215.160,6.090
198.625,217.160,5.906
201.285,219.160,5.706
203.916,221.160,6.526
206.591,223.160,6.187
209.206,225.160,6.320
211.909,227.160,6.732
214.567,229.160,6.731
217.196,231.160,7.651
219.867,233.160,7.248
222.503,235.160,7.614
225.166,237.160,8.148
227.816,239.160,8.557
230.494,241.160,8.786
233.153,243.160,9.567
235.801,245.160,9.490
238.447,247.160,9.773
241.098,249.160,10.983
243.810,251.160,11.794
246.426,253.160,12.040
249.088,255.160,13.083
251.747,257.160,13.920
254.384,259.160,13.944
257.077,261.160,15.496
259.775,263.160,16.325
262.461,265.160,17.465
265.093,267.160,17.928
267.744,269.160,18.092
270.384,271.160,19.929
273.089,273.160,20.354
275.728,275.160,20.867
278.425,277.160,22.020
281.091,279.160,22.831
283.720,281.160,24.007
286.407,283.160,25.506
289.054,285.160,24.752
291.674,287.160,26.338
294.355,289.160,27.216
297.029,291.160,28.287
299.744,293.160,29.240
302.382,295.160,28.852
305.054,297.160,30.532
307.729,299.160,31.266
310.390,301.160,31.632
313.062,303.160,32.782
315.735,305.160,34.283
318.380,307.160,35.137
321.062,309.160,35.553
323.706,311.160,36.760
326.396,313.160,38.097
329.109,315.160,39.271
331.776,317.160,41.054
334.417,319.160,41.991
337.107,321.160,43.963
339.790,323.160,45.655
342.439,325.160,48.172
345.110,327.160,49.721
347.765,329.160,51.143
350.431,331.160,53.956
353.102,333.160,55.720
355.763,335.160,56.990
358.438,337.160,59.317
361.092,339.160,60.802
363.753,341.160,62.012
366.423,343.160,63.401
369.054,345.160,64.727
371.732,347.160,65.843
374.379,349.160,66.689
377.094,351.160,67.836
379.784,353.160,68.877
382.433,355.160,70.141
385.117,357.160,70.923
387.787,359.160,72.941
390.461,361.160,74.960
393.142,363.160,76.928
395.781,365.160,79.739
398.448,367.160,82.542
401.100,369.160,86.060
403.804,371.160,89.329
406.444,373.160,93.321
409.087,375.160,96.890
411.817,377.160,100.599
414.436,379.160,104.169
417.117,381.160,108.385
419.763,383.160,110.381
422.449,385.160,113.143
425.119,387.160,112.652
427.781,389.160,111.339
430.436,391.160,108.344
433.093,393.160,103.195
435.769,395.160,95.736
438.443,397.160,85.867
441.093,399.160,74.080
443.741,401.160,62.556
446.380,403.160,50.540
449.072,405.160,39.784
451.685,407.160,30.298
454.330,409.160,23.484
457.017,411.160,18.189
459.621,413.160,15.066
462.289,415.160,12.726
465.002,417.160,11.878
467.712,419.160,12.098
470.372,421.160,11.770
473.061,423.160,11.138
475.703,425.160,11.411
478.349,427.160,10.479
481.058,429.160,12.280
483.727,431.160,10.743
486.424,433.160,10.288
489.108,435.160,10.423
491.783,437.160,9.498
494.429,439.160,9.485
497.099,441.160,9.467
499.756,443.160,9.229
502.433,445.160,9.274
505.141,447.160,7.863
507.743,449.160,8.728
510.422,451.160,8.114
513.075,453.160,7.696
515.710,455.160,7.389
518.410,457.160,7.418
521.089,459.160,6.626
523.753,461.160,6.673
526.458,463.160,6.622
529.052,465.160,6.098
531.730,467.160,5.736
534.397,469.160,4.913
537.074,471.160,5.154
539.745,473.160,5.002
542.404,475.160,4.886
545.079,477.160,4.472
547.790,479.160,3.797
550.423,481.160,4.433
553.115,483.160,3.001
555.801,485.160,3.289
558.470,487.160,2.873
561.110,489.160,3.164
563.770,491.160,2.147
566.428,493.160,2.128
569.141,495.160,2.320
571.807,497.160,2.442
574.464,499.160,1.829
577.103,501.160,1.777
579.748,503.160,1.610
582.432,505.160,1.330
585.088,507.160,1.402
587.816,509.160,1.349
590.451,511.160,1.175
593.076,513.160,1.005
595.745,515.160,0.772
598.428,517.160,0.481
601.093,519.160,0.692
603.764,521.160,0.721
606.449,523.160,0.525
609.112,525.160,0.514
611.745,527.160,0.203
614.408,529.160,0.482
617.099,531.160,0.313
619.723,533.160,0.272
622.446,535.160,0.215
625.095,537.160,0.562
627.776,539.160,-0.445
630.422,541.160,0.527
633.083,543.160,0.267
635.738,545.160,0.032
638.397,547.160,-0.447
641.061,549.160,-0.141
643.734,551.160,0.160
646.408,553.160,-0.174
649.084,555.160,-0.342
651.749,557.160,-0.070
654.459,559.160,-0.012
657.098,561.160,-0.483
659.698,563.160,-0.022
662.375,565.160,0.103
665.105,567.160,0.220
667.745,569.160,-0.581
670.437,571.160,0.440
673.094,573.160,-0.374
675.765,575.160,0.253
678.399,577.160,0.025
681.077,579.160,0.284
683.757,581.160,-0.210
686.438,583.160,-0.219
689.109,585.160,0.416
691.828,587.160,-0.017
694.479,589.160,0.135
697.128,591.160,-0.235
699.795,593.160,1.084
702.520,595.160,1.087
705.207,597.160,1.089
707.832,599.160,1.092
710.532,601.160,1.095
712.468,602.660,1.097