File: Wood/Calibration_Data/FZJ/FZJ_MCC_N2_60K_R6.csv
Time,Temperature,HRR
0.000,74.833,-0.513
13.234,77.333,3.866
17.516,79.833,2.881
20.783,82.333,2.015
23.640,84.833,1.620
26.369,87.333,1.369
28.937,89.833,1.077
31.443,92.333,0.564
33.916,94.833,0.452
36.295,97.333,0.664
38.717,99.833,0.411
41.106,102.333,0.393
43.424,104.833,-0.173
45.788,107.333,0.122
48.138,109.833,-0.034
50.466,112.333,-0.044
52.792,114.833,-0.280
55.119,117.333,-0.089
57.471,119.833,0.077
59.819,122.333,-0.051
62.188,124.833,-0.044
64.511,127.333,0.075
66.862,129.833,0.163
69.240,132.333,0.288
71.607,134.833,0.268
73.987,137.333,0.212
76.383,139.833,-0.194
78.767,142.333,0.393
81.189,144.833,0.589
83.579,147.333,0.450
85.988,149.833,0.663
88.395,152.333,0.534
90.851,154.833,0.796
93.238,157.333,0.792
95.687,159.833,1.122
98.146,162.333,1.319
100.568,164.833,1.507
103.016,167.333,1.608
105.477,169.833,1.615
107.896,172.333,2.136
110.361,174.833,2.495
112.785,177.333,2.964
115.250,179.833,3.033
117.719,182.333,3.339
120.132,184.833,3.782
122.619,187.333,4.230
125.055,189.833,4.308
127.541,192.333,5.173
129.966,194.833,5.589
132.434,197.333,6.264
134.922,199.833,6.888
137.351,202.333,7.367
139.823,204.833,8.262
142.291,207.333,8.591
144.761,209.833,9.574
147.241,212.333,9.954
149.688,214.833,10.758
152.153,217.333,11.247
154.620,219.833,12.077
157.116,222.333,12.725
159.611,224.833,13.187
162.084,227.333,13.304
164.569,229.833,13.798
167.045,232.333,13.950
169.542,234.833,13.748
172.021,237.333,14.164
174.485,239.833,14.053
176.985,242.333,14.315
179.476,244.833,14.501
181.917,247.333,14.675
184.410,249.833,15.340
186.899,252.333,15.815
189.378,254.833,16.310
191.884,257.333,16.919
194.363,259.833,17.877
196.855,262.333,18.321
199.344,264.833,19.821
201.842,267.333,20.323
204.376,269.833,21.263
206.839,272.333,22.252
209.356,274.833,23.631
211.831,277.333,24.475
214.329,279.833,25.825
216.807,282.333,27.141
219.306,284.833,28.638
221.837,287.333,30.534
224.306,289.833,31.669
226.788,292.333,33.557
229.275,294.833,35.216
231.772,297.333,36.628
234.274,299.833,38.736
236.783,302.333,40.068
239.291,304.833,42.180
241.758,307.333,44.500
244.258,309.833,45.717
246.783,312.333,47.919
249.263,314.833,49.857
251.766,317.333,51.763
254.282,319.833,54.004
256.765,322.333,56.362
259.257,324.833,58.845
261.727,327.333,61.283
264.227,329.833,64.117
266.720,332.333,66.849
269.231,334.833,70.253
271.748,337.333,73.109
274.244,339.833,76.047
276.740,342.333,78.714
279.231,344.833,81.185
281.730,347.333,83.636
284.241,349.833,85.051
286.746,352.333,87.278
289.247,354.833,89.293
291.746,357.333,90.279
294.238,359.833,92.475
296.741,362.333,94.641
299.229,364.833,97.227
301.702,367.333,100.280
304.206,369.833,103.874
306.704,372.333,108.229
309.228,374.833,113.249
311.731,377.333,118.462
314.250,379.833,124.171
316.718,382.333,129.822
319.256,384.833,135.069
321.747,387.333,139.397
324.269,389.833,142.473
326.749,392.333,143.501
329.283,394.833,141.560
331.784,397.333,136.206
334.287,399.833,127.035
336.752,402.333,114.842
339.267,404.833,98.778
341.749,407.333,81.412
344.225,409.833,64.130
346.681,412.333,48.614
349.173,414.833,36.004
351.619,417.333,26.714
354.113,419.833,21.163
356.582,422.333,18.211
359.081,424.833,16.736
361.561,427.333,16.765
364.042,429.833,15.725
366.547,432.333,15.191
369.085,434.833,14.623
371.586,437.333,14.114
374.065,439.833,13.236
376.595,442.333,12.852
379.081,444.833,12.484
381.581,447.333,11.764
384.044,449.833,11.028
386.572,452.333,10.988
389.089,454.833,10.214
391.583,457.333,9.561
394.040,459.833,9.054
396.572,462.333,8.878
399.080,464.833,8.048
401.589,467.333,7.526
404.115,469.833,7.146
406.592,472.333,6.904
409.127,474.833,6.555
411.618,477.333,5.843
414.136,479.833,5.192
416.668,482.333,4.862
419.181,484.833,4.583
421.654,487.333,3.942
424.173,489.833,3.684
426.659,492.333,3.521
429.183,494.833,2.914
431.700,497.333,3.054
434.210,499.833,2.444
436.681,502.333,2.379
439.209,504.833,2.477
441.740,507.333,1.856
444.233,509.833,2.012
446.730,512.333,1.704
449.231,514.833,1.292
451.735,517.333,1.387
454.232,519.833,1.266
456.752,522.333,0.860
459.242,524.833,1.434
461.747,527.333,0.822
464.243,529.833,1.218
466.746,532.333,0.083
469.243,534.833,0.540
471.760,537.333,0.898
474.229,539.833,0.565
476.740,542.333,0.791
479.256,544.833,0.326
481.763,547.333,0.616
484.272,549.833,0.330
486.764,552.333,0.414
489.270,554.833,0.480
491.789,557.333,0.346
494.277,559.833,0.212
496.790,562.333,0.132
499.273,564.833,0.001
501.756,567.333,0.067
504.273,569.833,-0.044
506.785,572.333,-0.054
509.284,574.833,0.092
511.764,577.333,-0.086
514.234,579.833,-0.152
516.737,582.333,0.309
519.276,584.833,-0.290
521.772,587.333,0.043
524.255,589.833,-0.042
526.755,592.333,0.285
529.269,594.833,-0.331
531.781,597.333,-0.456
534.285,599.833,0.129
536.775,602.333,-0.477
539.274,604.833,-0.071
541.795,607.333,-0.348
544.277,609.833,0.237
546.780,612.333,-0.501
549.281,614.833,-0.355
551.768,617.333,-0.490
554.231,619.833,-0.366
556.732,622.333,-0.472
559.267,624.833,-0.234
561.751,627.333,-0.407
564.265,629.833,-0.345
566.766,632.333,-0.469
569.255,634.833,-0.551
571.773,637.333,-0.474
574.262,639.833,-0.531
576.737,642.333,-0.195
579.271,644.833,-0.551
581.744,647.333,-0.777
584.229,649.833,-0.430
586.772,652.333,-0.389
589.245,654.833,-1.316
591.730,657.333,-0.805
594.241,659.833,-0.553
596.730,662.333,-0.804
599.227,664.833,-0.983
601.712,667.333,-0.601
604.210,669.833,-0.744
606.728,672.333,-0.399
609.243,674.833,-0.766
611.735,677.333,-0.428
614.235,679.833,-0.900
616.742,682.333,-0.879
619.227,684.833,-0.515
621.708,687.333,-0.828
624.180,689.833,-0.455
626.679,692.333,0.198
629.152,694.833,0.200
631.655,697.333,0.201
634.150,699.833,0.203
636.645,702.333,0.204
637.650,703.333,0.205