File: Wood/Calibration_Data/FZJ/FZJ_Wood_MCC_N2_60K_R6.csv
Time (s),Temperature (K),HRR (W/g)
0.00,347.98,-0.51
13.23,350.48,3.87
17.52,352.98,2.88
20.78,355.48,2.02
23.64,357.98,1.62
26.37,360.48,1.37
28.94,362.98,1.08
31.44,365.48,0.56
33.92,367.98,0.45
36.30,370.48,0.66
38.72,372.98,0.41
41.11,375.48,0.39
43.42,377.98,-0.17
45.79,380.48,0.12
48.14,382.98,-0.03
50.47,385.48,-0.04
52.79,387.98,-0.28
55.12,390.48,-0.09
57.47,392.98,0.08
59.82,395.48,-0.05
62.19,397.98,-0.04
64.51,400.48,0.07
66.86,402.98,0.16
69.24,405.48,0.29
71.61,407.98,0.27
73.99,410.48,0.21
76.38,412.98,-0.19
78.77,415.48,0.39
81.19,417.98,0.59
83.58,420.48,0.45
85.99,422.98,0.66
88.39,425.48,0.53
90.85,427.98,0.80
93.24,430.48,0.79
95.69,432.98,1.12
98.15,435.48,1.32
100.57,437.98,1.51
103.02,440.48,1.61
105.48,442.98,1.61
107.90,445.48,2.14
110.36,447.98,2.50
112.78,450.48,2.96
115.25,452.98,3.03
117.72,455.48,3.34
120.13,457.98,3.78
122.62,460.48,4.23
125.06,462.98,4.31
127.54,465.48,5.17
129.97,467.98,5.59
132.43,470.48,6.26
134.92,472.98,6.89
137.35,475.48,7.37
139.82,477.98,8.26
142.29,480.48,8.59
144.76,482.98,9.57
147.24,485.48,9.95
149.69,487.98,10.76
152.15,490.48,11.25
154.62,492.98,12.08
157.12,495.48,12.72
159.61,497.98,13.19
162.08,500.48,13.30
164.57,502.98,13.80
167.04,505.48,13.95
169.54,507.98,13.75
172.02,510.48,14.16
174.48,512.98,14.05
176.99,515.48,14.31
179.48,517.98,14.50
181.92,520.48,14.67
184.41,522.98,15.34
186.90,525.48,15.81
189.38,527.98,16.31
191.88,530.48,16.92
194.36,532.98,17.88
196.86,535.48,18.32
199.34,537.98,19.82
201.84,540.48,20.32
204.38,542.98,21.26
206.84,545.48,22.25
209.36,547.98,23.63
211.83,550.48,24.47
214.33,552.98,25.83
216.81,555.48,27.14
219.31,557.98,28.64
221.84,560.48,30.53
224.31,562.98,31.67
226.79,565.48,33.56
229.27,567.98,35.22
231.77,570.48,36.63
234.27,572.98,38.74
236.78,575.48,40.07
239.29,577.98,42.18
241.76,580.48,44.50
244.26,582.98,45.72
246.78,585.48,47.92
249.26,587.98,49.86
251.77,590.48,51.76
254.28,592.98,54.00
256.77,595.48,56.36
259.26,597.98,58.84
261.73,600.48,61.28
264.23,602.98,64.12
266.72,605.48,66.85
269.23,607.98,70.25
271.75,610.48,73.11
274.24,612.98,76.05
276.74,615.48,78.71
279.23,617.98,81.19
281.73,620.48,83.64
284.24,622.98,85.05
286.75,625.48,87.28
289.25,627.98,89.29
291.75,630.48,90.28
294.24,632.98,92.48
296.74,635.48,94.64
299.23,637.98,97.23
301.70,640.48,100.28
304.21,642.98,103.87
306.70,645.48,108.23
309.23,647.98,113.25
311.73,650.48,118.46
314.25,652.98,124.17
316.72,655.48,129.82
319.26,657.98,135.07
321.75,660.48,139.40
324.27,662.98,142.47
326.75,665.48,143.50
329.28,667.98,141.56
331.78,670.48,136.21
334.29,672.98,127.04
336.75,675.48,114.84
339.27,677.98,98.78
341.75,680.48,81.41
344.22,682.98,64.13
346.68,685.48,48.61
349.17,687.98,36.00
351.62,690.48,26.71
354.11,692.98,21.16
356.58,695.48,18.21
359.08,697.98,16.74
361.56,700.48,16.76
364.04,702.98,15.73
366.55,705.48,15.19
369.08,707.98,14.62
371.59,710.48,14.11
374.07,712.98,13.24
376.59,715.48,12.85
379.08,717.98,12.48
381.58,720.48,11.76
384.04,722.98,11.03
386.57,725.48,10.99
389.09,727.98,10.21
391.58,730.48,9.56
394.04,732.98,9.05
396.57,735.48,8.88
399.08,737.98,8.05
401.59,740.48,7.53
404.11,742.98,7.15
406.59,745.48,6.90
409.13,747.98,6.55
411.62,750.48,5.84
414.14,752.98,5.19
416.67,755.48,4.86
419.18,757.98,4.58
421.65,760.48,3.94
424.17,762.98,3.68
426.66,765.48,3.52
429.18,767.98,2.91
431.70,770.48,3.05
434.21,772.98,2.44
436.68,775.48,2.38
439.21,777.98,2.48
441.74,780.48,1.86
444.23,782.98,2.01
446.73,785.48,1.70
449.23,787.98,1.29
451.74,790.48,1.39
454.23,792.98,1.27
456.75,795.48,0.86
459.24,797.98,1.43
461.75,800.48,0.82
464.24,802.98,1.22
466.75,805.48,0.08
469.24,807.98,0.54
471.76,810.48,0.90
474.23,812.98,0.57
476.74,815.48,0.79
479.26,817.98,0.33
481.76,820.48,0.62
484.27,822.98,0.33
486.76,825.48,0.41
489.27,827.98,0.48
491.79,830.48,0.35
494.28,832.98,0.21
496.79,835.48,0.13
499.27,837.98,0.00
501.76,840.48,0.07
504.27,842.98,-0.04
506.78,845.48,-0.05
509.28,847.98,0.09
511.76,850.48,-0.09
514.23,852.98,-0.15
516.74,855.48,0.31
519.28,857.98,-0.29
521.77,860.48,0.04
524.25,862.98,-0.04
526.76,865.48,0.28
529.27,867.98,-0.33
531.78,870.48,-0.46
534.28,872.98,0.13
536.77,875.48,-0.48
539.27,877.98,-0.07
541.80,880.48,-0.35
544.28,882.98,0.24
546.78,885.48,-0.50
549.28,887.98,-0.36
551.77,890.48,-0.49
554.23,892.98,-0.37
556.73,895.48,-0.47
559.27,897.98,-0.23
561.75,900.48,-0.41
564.27,902.98,-0.34
566.77,905.48,-0.47
569.26,907.98,-0.55
571.77,910.48,-0.47
574.26,912.98,-0.53
576.74,915.48,-0.20
579.27,917.98,-0.55
581.74,920.48,-0.78
584.23,922.98,-0.43
586.77,925.48,-0.39
589.24,927.98,-1.32
591.73,930.48,-0.81
594.24,932.98,-0.55
596.73,935.48,-0.80
599.23,937.98,-0.98
601.71,940.48,-0.60
604.21,942.98,-0.74
606.73,945.48,-0.40
609.24,947.98,-0.77
611.73,950.48,-0.43
614.23,952.98,-0.90
616.74,955.48,-0.88
619.23,957.98,-0.51
621.71,960.48,-0.83
624.18,962.98,-0.46
626.68,965.48,0.20
629.15,967.98,0.20
631.66,970.48,0.20
634.15,972.98,0.20
636.64,975.48,0.20
637.65,976.48,0.20