File: Wood/Calibration_Data/FZJ/FZJ_MCC_N2_60K_R3.csv
Time,Temperature,HRR
0.000,74.861,-2.320
11.788,76.861,13.609
15.899,78.861,12.429
18.764,80.861,9.030
21.268,82.861,5.184
23.537,84.861,4.112
25.706,86.861,5.449
27.797,88.861,4.539
29.799,90.861,3.759
31.804,92.861,2.381
33.722,94.861,0.692
35.648,96.861,2.673
37.544,98.861,1.450
39.473,100.861,-0.552
41.337,102.861,0.552
43.236,104.861,2.060
45.108,106.861,0.064
47.000,108.861,-1.502
48.857,110.861,-1.153
50.719,112.861,-0.539
52.568,114.861,0.295
54.445,116.861,-1.431
56.299,118.861,-1.274
58.194,120.861,-0.313
60.064,122.861,0.888
61.963,124.861,0.315
63.854,126.861,-0.108
65.731,128.861,-1.616
67.619,130.861,-1.289
69.482,132.861,0.516
71.408,134.861,0.209
73.303,136.861,0.075
75.243,138.861,0.454
77.111,140.861,-0.302
79.048,142.861,0.669
80.994,144.861,-0.291
82.909,146.861,0.410
84.864,148.861,0.132
86.773,150.861,-0.596
88.713,152.861,-1.093
90.661,154.861,0.016
92.593,156.861,0.003
94.547,158.861,0.244
96.486,160.861,-1.319
98.424,162.861,-0.982
100.386,164.861,2.065
102.355,166.861,1.732
104.287,168.861,0.622
106.261,170.861,-0.524
108.239,172.861,1.337
110.201,174.861,0.987
112.145,176.861,0.746
114.123,178.861,-0.012
116.055,180.861,-1.494
118.018,182.861,1.385
119.979,184.861,6.259
121.951,186.861,0.338
123.914,188.861,-0.913
125.869,190.861,1.594
127.831,192.861,2.077
129.793,194.861,2.805
131.761,196.861,2.249
133.724,198.861,1.728
135.691,200.861,1.206
137.672,202.861,3.716
139.625,204.861,2.018
141.602,206.861,3.004
143.563,208.861,3.393
145.538,210.861,2.434
147.523,212.861,2.596
149.506,214.861,3.287
151.480,216.861,3.258
153.462,218.861,1.254
155.468,220.861,6.806
157.421,222.861,4.128
159.403,224.861,1.098
161.417,226.861,3.232
163.374,228.861,3.410
165.361,230.861,3.780
167.336,232.861,2.700
169.327,234.861,2.997
171.317,236.861,5.520
173.310,238.861,2.080
175.276,240.861,2.352
177.255,242.861,3.391
179.262,244.861,3.967
181.258,246.861,3.351
183.238,248.861,4.773
185.241,250.861,6.962
187.225,252.861,4.417
189.207,254.861,6.777
191.216,256.861,6.386
193.190,258.861,6.358
195.170,260.861,8.984
197.135,262.861,7.963
199.143,264.861,8.580
201.139,266.861,12.796
203.147,268.861,10.820
205.164,270.861,6.287
207.141,272.861,13.201
209.124,274.861,15.559
211.148,276.861,12.085
213.128,278.861,14.548
215.126,280.861,18.001
217.119,282.861,16.994
219.110,284.861,18.271
221.122,286.861,20.633
223.112,288.861,20.385
225.079,290.861,20.175
227.065,292.861,26.207
229.054,294.861,26.198
231.046,296.861,26.581
233.022,298.861,30.045
234.998,300.861,28.631
237.035,302.861,34.260
239.041,304.861,34.550
241.086,306.861,34.316
243.059,308.861,38.996
245.055,310.861,39.563
247.049,312.861,38.641
249.069,314.861,43.006
251.072,316.861,44.994
253.055,318.861,48.691
255.074,320.861,50.442
257.047,322.861,53.570
259.044,324.861,57.095
261.026,326.861,58.661
263.046,328.861,64.375
265.055,330.861,64.744
267.049,332.861,67.895
269.051,334.861,71.513
271.032,336.861,69.468
273.015,338.861,77.472
275.023,340.861,79.874
277.005,342.861,81.539
279.039,344.861,83.898
281.016,346.861,85.048
283.034,348.861,87.479
285.052,350.861,91.580
287.042,352.861,94.653
289.021,354.861,94.241
291.031,356.861,94.324
293.027,358.861,98.443
294.998,360.861,99.715
297.037,362.861,100.326
299.038,364.861,101.142
301.026,366.861,103.609
303.018,368.861,108.007
305.016,370.861,108.490
306.971,372.861,111.101
308.998,374.861,115.102
310.996,376.861,117.808
313.018,378.861,124.761
315.005,380.861,127.852
317.035,382.861,131.798
319.005,384.861,138.774
321.037,386.861,143.356
323.000,388.861,146.556
325.036,390.861,150.647
327.029,392.861,154.651
328.999,394.861,153.037
331.020,396.861,154.164
333.032,398.861,151.679
335.003,400.861,147.005
337.005,402.861,137.950
338.993,404.861,129.004
341.031,406.861,113.593
343.035,408.861,97.930
345.030,410.861,82.122
347.009,412.861,64.348
349.004,414.861,48.073
351.018,416.861,36.219
352.956,418.861,27.294
354.986,420.861,18.775
356.965,422.861,14.414
358.972,424.861,12.532
360.928,426.861,11.857
362.953,428.861,11.362
364.955,430.861,12.485
366.947,432.861,12.583
368.951,434.861,11.464
370.961,436.861,10.008
372.945,438.861,12.979
374.965,440.861,11.065
376.973,442.861,10.740
378.941,444.861,11.809
380.966,446.861,12.552
382.953,448.861,11.378
384.938,450.861,10.364
386.954,452.861,8.815
388.967,454.861,9.395
390.935,456.861,9.379
392.949,458.861,8.864
394.956,460.861,7.385
396.942,462.861,9.241
398.929,464.861,8.808
400.947,466.861,7.880
402.989,468.861,8.935
404.973,470.861,7.703
406.971,472.861,6.368
408.964,474.861,5.877
410.982,476.861,5.956
412.992,478.861,6.150
414.979,480.861,5.676
416.986,482.861,3.288
418.996,484.861,6.200
421.003,486.861,4.561
422.979,488.861,1.182
425.007,490.861,2.044
426.988,492.861,3.347
429.015,494.861,4.562
431.026,496.861,3.854
433.016,498.861,2.601
435.049,500.861,2.879
437.054,502.861,1.388
439.042,504.861,0.363
441.061,506.861,3.942
443.096,508.861,1.661
445.069,510.861,0.963
447.049,512.861,1.775
449.054,514.861,1.695
451.032,516.861,1.087
453.047,518.861,2.052
455.049,520.861,1.005
457.033,522.861,1.086
459.072,524.861,0.840
461.057,526.861,0.972
463.050,528.861,0.933
465.050,530.861,0.126
467.040,532.861,1.037
469.044,534.861,0.527
471.052,536.861,-0.227
473.046,538.861,-0.090
475.037,540.861,1.002
477.063,542.861,-1.352
479.042,544.861,0.016
481.048,546.861,1.186
483.040,548.861,0.812
485.015,550.861,0.339
487.047,552.861,-1.190
489.020,554.861,2.182
491.049,556.861,1.339
493.057,558.861,0.085
495.046,560.861,0.044
497.038,562.861,-1.358
499.045,564.861,-1.184
501.041,566.861,-0.515
503.008,568.861,0.831
505.045,570.861,0.172
507.080,572.861,-0.523
509.070,574.861,0.326
511.091,576.861,1.735
513.064,578.861,1.243
515.040,580.861,-1.681
517.047,582.861,-1.790
519.038,584.861,-0.524
521.035,586.861,0.870
523.021,588.861,-0.591
525.036,590.861,2.580
527.036,592.861,2.589
529.056,594.861,2.598
531.038,596.861,2.607
533.023,598.861,2.616
535.047,600.861,2.624
537.048,602.861,2.633
537.524,603.361,2.635