File: Wood/Calibration_Data/FZJ/FZJ_MCC_N2_60K_R4.csv
Time (s),Temperature (K),HRR (W/g)
3.38,348.18,-16.74
13.18,350.18,14.73
16.91,352.18,12.53
19.70,354.18,9.68
22.12,356.18,8.85
24.34,358.18,5.01
26.52,360.18,5.42
28.57,362.18,3.42
30.63,364.18,2.65
32.59,366.18,3.83
34.54,368.18,3.43
36.46,370.18,5.26
38.35,372.18,0.80
40.26,374.18,1.71
42.15,376.18,2.60
44.00,378.18,2.36
45.88,380.18,0.16
47.75,382.18,-0.17
49.62,384.18,-0.46
51.50,386.18,0.46
53.34,388.18,-0.52
55.19,390.18,-0.76
57.07,392.18,0.38
58.96,394.18,-0.21
60.81,396.18,-1.43
62.70,398.18,0.26
64.57,400.18,1.72
66.45,402.18,1.99
68.34,404.18,-1.72
70.24,406.18,-1.38
72.14,408.18,0.81
74.03,410.18,-0.37
75.93,412.18,-0.48
77.86,414.18,2.64
79.77,416.18,1.49
81.68,418.18,1.76
83.60,420.18,-1.57
85.53,422.18,0.70
87.44,424.18,2.90
89.40,426.18,1.42
91.32,428.18,-2.28
93.25,430.18,-0.53
95.20,432.18,2.44
97.14,434.18,-1.17
99.07,436.18,0.37
101.05,438.18,0.28
103.00,440.18,0.43
104.97,442.18,2.04
106.91,444.18,0.80
108.87,446.18,-0.72
110.82,448.18,1.98
112.76,450.18,1.53
114.70,452.18,2.21
116.67,454.18,1.57
118.63,456.18,2.19
120.61,458.18,3.47
122.55,460.18,-0.06
124.55,462.18,2.15
126.53,464.18,2.25
128.45,466.18,0.59
130.40,468.18,-0.43
132.38,470.18,1.78
134.35,472.18,2.79
136.32,474.18,2.22
138.25,476.18,2.82
140.26,478.18,3.59
142.20,480.18,3.42
144.20,482.18,4.66
146.18,484.18,5.01
148.15,486.18,4.24
150.13,488.18,3.00
152.10,490.18,6.65
154.05,492.18,4.83
156.03,494.18,5.89
158.01,496.18,5.19
159.98,498.18,5.31
161.97,500.18,4.42
163.98,502.18,4.44
165.96,504.18,5.49
167.95,506.18,5.43
169.92,508.18,5.97
171.91,510.18,5.74
173.91,512.18,5.08
175.89,514.18,7.81
177.87,516.18,6.99
179.86,518.18,4.55
181.83,520.18,6.38
183.82,522.18,6.34
185.82,524.18,4.53
187.81,526.18,5.53
189.81,528.18,6.45
191.78,530.18,7.22
193.76,532.18,8.71
195.77,534.18,9.13
197.75,536.18,8.78
199.73,538.18,9.06
201.73,540.18,12.00
203.73,542.18,10.63
205.74,544.18,13.89
207.75,546.18,13.53
209.71,548.18,13.37
211.72,550.18,14.47
213.71,552.18,14.18
215.71,554.18,16.14
217.70,556.18,15.93
219.67,558.18,17.54
221.71,560.18,20.19
223.69,562.18,21.30
225.69,564.18,23.97
227.68,566.18,23.43
229.67,568.18,24.20
231.66,570.18,29.72
233.64,572.18,30.37
235.66,574.18,29.33
237.67,576.18,31.96
239.66,578.18,33.45
241.65,580.18,35.64
243.63,582.18,37.81
245.66,584.18,38.93
247.65,586.18,41.40
249.65,588.18,45.03
251.65,590.18,44.74
253.64,592.18,48.18
255.66,594.18,49.95
257.64,596.18,52.95
259.63,598.18,55.33
261.64,600.18,58.77
263.63,602.18,61.34
265.60,604.18,65.19
267.60,606.18,68.36
269.61,608.18,72.04
271.62,610.18,72.85
273.61,612.18,76.31
275.61,614.18,79.11
277.61,616.18,83.18
279.61,618.18,85.58
281.60,620.18,88.55
283.60,622.18,90.37
285.59,624.18,92.49
287.61,626.18,93.91
289.62,628.18,96.51
291.62,630.18,96.17
293.63,632.18,99.76
295.61,634.18,101.45
297.61,636.18,102.23
299.59,638.18,104.24
301.59,640.18,103.54
303.58,642.18,105.02
305.60,644.18,110.26
307.58,646.18,110.66
309.61,648.18,114.07
311.57,650.18,118.46
313.58,652.18,121.20
315.55,654.18,123.09
317.57,656.18,130.57
319.59,658.18,134.63
321.60,660.18,136.04
323.63,662.18,143.90
325.62,664.18,151.48
327.59,666.18,149.86
329.60,668.18,152.27
331.62,670.18,155.13
333.63,672.18,153.71
335.62,674.18,150.86
337.66,676.18,148.43
339.64,678.18,130.21
341.61,680.18,122.00
343.61,682.18,110.81
345.62,684.18,92.60
347.61,686.18,73.86
349.60,688.18,56.23
351.59,690.18,45.44
353.58,692.18,31.29
355.58,694.18,19.63
357.57,696.18,14.37
359.58,698.18,12.68
361.54,700.18,11.76
363.57,702.18,12.59
365.56,704.18,11.46
367.58,706.18,11.85
369.57,708.18,13.49
371.57,710.18,8.23
373.54,712.18,11.50
375.56,714.18,13.17
377.57,716.18,11.04
379.59,718.18,12.70
381.56,720.18,11.44
383.54,722.18,10.75
385.58,724.18,10.37
387.56,726.18,8.58
389.56,728.18,9.83
391.57,730.18,11.08
393.58,732.18,9.50
395.59,734.18,7.33
397.59,736.18,8.50
399.59,738.18,8.28
401.59,740.18,7.90
403.56,742.18,7.01
405.58,744.18,5.99
407.61,746.18,7.33
409.59,748.18,6.52
411.61,750.18,4.24
413.62,752.18,4.01
415.63,754.18,5.36
417.62,756.18,4.36
419.64,758.18,4.73
421.65,760.18,3.30
423.63,762.18,2.59
425.63,764.18,4.89
427.63,766.18,3.32
429.63,768.18,1.01
431.65,770.18,2.50
433.67,772.18,3.30
435.67,774.18,2.34
437.66,776.18,1.58
439.67,778.18,1.73
441.67,780.18,2.13
443.69,782.18,1.72
445.71,784.18,1.29
447.69,786.18,0.73
449.67,788.18,0.49
451.68,790.18,0.73
453.67,792.18,0.94
455.65,794.18,-0.11
457.68,796.18,0.24
459.70,798.18,1.61
461.71,800.18,0.29
463.71,802.18,-0.47
465.69,804.18,-0.07
467.68,806.18,-0.65
469.69,808.18,0.04
471.71,810.18,0.81
473.70,812.18,0.97
475.69,814.18,0.86
477.71,816.18,0.29
479.68,818.18,-0.87
481.71,820.18,-1.15
483.72,822.18,1.34
485.70,824.18,-1.02
487.70,826.18,-1.87
489.72,828.18,0.91
491.71,830.18,1.39
493.71,832.18,0.22
495.71,834.18,-1.05
497.70,836.18,0.46
499.72,838.18,0.56
501.72,840.18,-0.65
503.72,842.18,-0.14
505.73,844.18,0.63
507.75,846.18,-0.81
509.73,848.18,-1.90
511.73,850.18,0.14
513.72,852.18,0.32
515.70,854.18,-0.34
517.70,856.18,-0.65
519.72,858.18,-0.34
521.72,860.18,1.35
523.72,862.18,1.98
525.71,864.18,2.95
527.72,866.18,2.96
529.74,868.18,2.96
531.71,870.18,2.97
533.73,872.18,2.98
535.70,874.18,2.99
537.72,876.18,2.99
538.22,876.68,3.00