File: Wood/Calibration_Data/FZJ/FZJ_Wood_MCC_N2_30K_R1.csv
Time (s),Temperature (K),HRR (W/g)
0.50,347.97,0.73
15.94,349.97,3.53
21.10,351.97,2.21
25.35,353.97,1.31
29.39,355.97,0.56
33.21,357.97,-0.11
37.03,359.97,0.48
40.82,361.97,0.43
44.63,363.97,0.59
48.32,365.97,-0.95
52.06,367.97,0.10
55.88,369.97,0.06
59.62,371.97,-0.20
63.49,373.97,-0.29
67.31,375.97,0.13
71.10,377.97,-0.67
74.97,379.97,-0.01
78.82,381.97,0.23
82.63,383.97,-0.09
86.50,385.97,0.06
90.32,387.97,-0.11
94.17,389.97,-0.26
98.04,391.97,-0.17
101.90,393.97,0.34
105.79,395.97,-0.56
109.68,397.97,0.08
113.62,399.97,0.35
117.53,401.97,0.10
121.43,403.97,-0.25
125.32,405.97,-0.06
129.19,407.97,0.17
133.17,409.97,0.33
137.05,411.97,0.12
141.08,413.97,-0.27
144.93,415.97,0.51
148.92,417.97,0.40
152.84,419.97,0.24
156.83,421.97,0.65
160.73,423.97,0.06
164.69,425.97,0.22
168.67,427.97,0.29
172.64,429.97,0.28
176.63,431.97,0.41
180.49,433.97,0.88
184.58,435.97,0.81
188.52,437.97,1.30
192.46,439.97,1.20
196.53,441.97,1.36
200.46,443.97,1.94
204.43,445.97,1.73
208.38,447.97,1.58
212.34,449.97,2.33
216.33,451.97,2.12
220.23,453.97,2.06
224.31,455.97,2.73
228.27,457.97,2.24
232.20,459.97,2.29
236.23,461.97,2.67
240.17,463.97,2.34
244.12,465.97,2.95
248.11,467.97,2.83
252.08,469.97,3.01
256.10,471.97,3.53
259.99,473.97,3.34
264.07,475.97,3.22
268.00,477.97,3.70
271.97,479.97,3.54
275.97,481.97,4.19
279.99,483.97,4.56
283.95,485.97,3.77
287.92,487.97,3.66
291.93,489.97,4.57
295.90,491.97,4.57
299.90,493.97,4.72
303.86,495.97,4.84
307.92,497.97,4.88
311.89,499.97,5.16
315.85,501.97,5.41
319.88,503.97,6.06
323.83,505.97,5.69
327.81,507.97,6.31
331.84,509.97,7.11
335.85,511.97,6.48
339.78,513.97,7.07
343.82,515.97,7.76
347.84,517.97,8.02
351.76,519.97,7.91
355.78,521.97,8.80
359.78,523.97,9.81
363.83,525.97,9.47
367.70,527.97,10.69
371.77,529.97,10.59
375.73,531.97,11.00
379.80,533.97,12.12
383.75,535.97,12.38
387.75,537.97,12.83
391.75,539.97,13.20
395.76,541.97,14.24
399.76,543.97,14.10
403.77,545.97,15.24
407.76,547.97,14.89
411.76,549.97,16.21
415.76,551.97,14.99
419.73,553.97,17.91
423.72,555.97,17.67
427.79,557.97,17.24
431.74,559.97,19.09
435.76,561.97,19.71
439.80,563.97,18.23
443.76,565.97,20.50
447.74,567.97,20.50
451.74,569.97,20.04
455.68,571.97,22.54
459.76,573.97,22.60
463.78,575.97,21.99
467.79,577.97,23.96
471.77,579.97,24.75
475.78,581.97,24.25
479.82,583.97,26.82
483.75,585.97,27.63
487.82,587.97,27.78
491.79,589.97,30.58
495.79,591.97,30.96
499.78,593.97,32.41
503.85,595.97,33.77
507.84,597.97,35.03
511.81,599.97,36.23
515.81,601.97,37.67
519.79,603.97,38.82
523.87,605.97,39.22
527.85,607.97,41.47
531.92,609.97,41.42
535.88,611.97,42.86
539.88,613.97,43.59
543.86,615.97,44.15
547.90,617.97,45.03
551.94,619.97,45.51
555.92,621.97,46.07
559.95,623.97,47.63
563.94,625.97,48.63
567.93,627.97,50.08
571.92,629.97,51.82
575.94,631.97,53.49
579.96,633.97,55.65
583.99,635.97,57.64
588.01,637.97,60.28
592.03,639.97,62.87
596.03,641.97,64.84
599.94,643.97,67.25
604.03,645.97,70.07
608.06,647.97,72.73
612.06,649.97,73.50
616.09,651.97,74.27
620.09,653.97,74.12
624.04,655.97,72.20
628.06,657.97,68.73
632.05,659.97,64.59
636.01,661.97,57.84
640.01,663.97,50.94
644.05,665.97,42.74
648.03,667.97,34.96
652.00,669.97,27.11
656.04,671.97,21.02
659.96,673.97,15.61
663.95,675.97,12.53
668.02,677.97,9.64
671.99,679.97,9.19
676.04,681.97,7.72
679.99,683.97,7.48
683.99,685.97,6.89
687.99,687.97,6.84
692.01,689.97,6.54
696.05,691.97,6.38
700.00,693.97,6.10
703.97,695.97,6.44
708.01,697.97,5.83
712.10,699.97,5.37
716.04,701.97,5.64
720.08,703.97,5.96
724.07,705.97,4.91
728.10,707.97,5.26
732.14,709.97,4.80
736.08,711.97,4.61
740.09,713.97,5.12
744.14,715.97,4.49
748.15,717.97,4.20
752.14,719.97,3.68
756.12,721.97,3.50
760.17,723.97,3.22
764.17,725.97,3.57
768.18,727.97,3.29
772.19,729.97,3.47
776.17,731.97,2.77
780.19,733.97,2.48
784.21,735.97,2.97
788.25,737.97,2.20
792.30,739.97,2.19
796.30,741.97,1.83
800.28,743.97,1.47
804.26,745.97,1.73
808.33,747.97,1.35
812.39,749.97,1.32
816.36,751.97,1.46
820.45,753.97,1.31
824.42,755.97,1.03
828.47,757.97,0.94
832.47,759.97,1.18
836.47,761.97,0.80
840.53,763.97,0.88
844.52,765.97,0.80
848.48,767.97,0.25
852.57,769.97,0.17
856.60,771.97,0.34
860.62,773.97,0.63
864.62,775.97,0.36
868.58,777.97,-0.10
872.57,779.97,0.00
876.64,781.97,0.66
880.65,783.97,-0.08
884.61,785.97,0.74
888.64,787.97,0.14
892.65,789.97,0.47
896.70,791.97,-0.07
900.68,793.97,0.30
904.72,795.97,-0.44
908.69,797.97,-0.09
912.71,799.97,-0.15
916.75,801.97,0.45
920.67,803.97,-0.45
924.76,805.97,-0.61
928.75,807.97,0.16
932.75,809.97,-0.48
936.75,811.97,0.01
940.78,813.97,0.05
944.83,815.97,-0.99
948.81,817.97,0.05
952.90,819.97,-0.56
956.80,821.97,0.43
960.78,823.97,-0.16
964.82,825.97,-0.72
968.84,827.97,0.15
972.86,829.97,-0.39
976.91,831.97,0.00
980.85,833.97,0.08
984.91,835.97,0.03
988.83,837.97,0.27
992.85,839.97,0.00
996.85,841.97,0.16
1000.82,843.97,0.05
1004.77,845.97,-0.05
1008.76,847.97,-0.10
1012.84,849.97,-0.38
1016.76,851.97,0.49
1020.81,853.97,-0.05
1024.82,855.97,-0.37
1028.84,857.97,0.28
1032.87,859.97,0.59
1036.85,861.97,0.53
1040.83,863.97,0.22
1044.72,865.97,0.10
1048.77,867.97,0.53
1052.74,869.97,2.05
1056.67,871.97,2.05
1060.68,873.97,2.06
1062.68,874.97,2.06