File: Wood/Calibration_Data/FZJ/FZJ_MCC_N2_60K_R2.csv
Time,Temperature,HRR
5.351,88.247,-26.543
14.009,90.247,13.977
17.427,92.247,8.069
20.123,94.247,6.875
22.543,96.247,5.276
24.755,98.247,5.051
26.876,100.247,3.698
28.921,102.247,3.834
30.936,104.247,2.093
32.863,106.247,1.246
34.773,108.247,1.291
36.686,110.247,2.406
38.547,112.247,1.677
40.461,114.247,1.377
42.303,116.247,0.852
44.185,118.247,-0.178
46.043,120.247,-1.439
47.871,122.247,2.406
49.724,124.247,0.809
51.588,126.247,-3.210
53.450,128.247,0.415
55.295,130.247,0.505
57.178,132.247,-0.740
59.007,134.247,-0.713
60.898,136.247,-0.573
62.789,138.247,4.618
64.674,140.247,-1.427
66.547,142.247,-2.977
68.434,144.247,1.345
70.348,146.247,3.449
72.238,148.247,-0.595
74.141,150.247,-0.914
76.039,152.247,0.867
77.940,154.247,0.442
79.888,156.247,-0.630
81.823,158.247,-0.703
83.753,160.247,-1.978
85.662,162.247,-0.663
87.600,164.247,1.552
89.550,166.247,-0.349
91.461,168.247,-0.384
93.404,170.247,0.413
95.354,172.247,1.837
97.294,174.247,1.475
99.226,176.247,1.705
101.153,178.247,0.649
103.090,180.247,0.758
105.016,182.247,1.400
107.007,184.247,2.070
108.936,186.247,1.276
110.919,188.247,-0.348
112.844,190.247,5.607
114.815,192.247,-0.779
116.762,194.247,-0.242
118.743,196.247,4.131
120.693,198.247,2.616
122.630,200.247,2.308
124.603,202.247,0.999
126.563,204.247,3.395
128.521,206.247,3.864
130.459,208.247,2.979
132.445,210.247,1.354
134.424,212.247,2.880
136.390,214.247,5.276
138.361,216.247,2.901
140.313,218.247,3.172
142.320,220.247,4.295
144.275,222.247,1.709
146.257,224.247,2.414
148.236,226.247,6.497
150.230,228.247,1.711
152.159,230.247,2.238
154.167,232.247,2.720
156.151,234.247,6.496
158.113,236.247,7.389
160.114,238.247,-1.920
162.111,240.247,2.993
164.107,242.247,8.028
166.074,244.247,1.943
168.032,246.247,2.536
170.032,248.247,6.614
172.006,250.247,3.817
173.999,252.247,5.121
175.996,254.247,2.618
177.955,256.247,5.975
179.984,258.247,5.357
181.934,260.247,8.541
183.973,262.247,7.091
185.903,264.247,7.320
187.923,266.247,9.987
189.904,268.247,14.631
191.942,270.247,11.109
193.919,272.247,12.285
195.930,274.247,12.130
197.916,276.247,12.005
199.907,278.247,16.902
201.888,280.247,17.086
203.893,282.247,14.209
205.872,284.247,20.354
207.894,286.247,19.944
209.872,288.247,23.474
211.855,290.247,21.883
213.855,292.247,21.858
215.869,294.247,27.224
217.860,296.247,27.864
219.836,298.247,28.868
221.827,300.247,29.553
223.822,302.247,32.808
225.820,304.247,34.824
227.873,306.247,35.843
229.854,308.247,38.387
231.841,310.247,38.697
233.851,312.247,41.911
235.816,314.247,45.209
237.831,316.247,47.062
239.854,318.247,51.006
241.837,320.247,51.743
243.833,322.247,52.908
245.824,324.247,55.692
247.835,326.247,60.689
249.850,328.247,63.070
251.834,330.247,64.948
253.816,332.247,68.718
255.823,334.247,69.670
257.843,336.247,72.141
259.847,338.247,77.502
261.835,340.247,77.480
263.819,342.247,82.653
265.817,344.247,83.545
267.829,346.247,87.947
269.841,348.247,91.056
271.826,350.247,89.900
273.853,352.247,92.939
275.834,354.247,96.133
277.840,356.247,99.362
279.839,358.247,98.682
281.822,360.247,96.949
283.866,362.247,102.508
285.826,364.247,103.623
287.809,366.247,104.877
289.830,368.247,107.456
291.826,370.247,111.652
293.834,372.247,113.211
295.838,374.247,114.479
297.830,376.247,117.497
299.829,378.247,120.779
301.864,380.247,127.446
303.820,382.247,132.963
305.849,384.247,134.712
307.846,386.247,137.028
309.857,388.247,144.071
311.873,390.247,148.367
313.859,392.247,149.142
315.868,394.247,151.638
317.882,396.247,155.617
319.858,398.247,151.593
321.879,400.247,146.679
323.881,402.247,142.267
325.877,404.247,130.687
327.877,406.247,118.813
329.874,408.247,103.706
331.845,410.247,85.046
333.871,412.247,69.349
335.831,414.247,57.003
337.847,416.247,41.071
339.806,418.247,27.022
341.868,420.247,22.893
343.812,422.247,16.821
345.824,424.247,13.261
347.807,426.247,13.198
349.861,428.247,11.141
351.823,430.247,8.480
353.834,432.247,10.326
355.861,434.247,12.696
357.852,436.247,11.524
359.851,438.247,10.439
361.839,440.247,10.646
363.841,442.247,11.212
365.843,444.247,10.897
367.855,446.247,10.941
369.845,448.247,10.537
371.872,450.247,8.585
373.847,452.247,8.884
375.878,454.247,11.564
377.861,456.247,9.452
379.872,458.247,10.986
381.870,460.247,9.703
383.902,462.247,6.711
385.873,464.247,7.364
387.880,466.247,7.274
389.914,468.247,5.746
391.881,470.247,7.378
393.909,472.247,8.740
395.887,474.247,5.919
397.906,476.247,5.758
399.912,478.247,4.843
401.922,480.247,6.656
403.945,482.247,5.596
405.959,484.247,4.435
407.950,486.247,5.324
409.922,488.247,2.726
411.962,490.247,3.505
413.971,492.247,4.285
415.956,494.247,5.378
417.988,496.247,0.492
419.997,498.247,5.568
422.010,500.247,4.406
424.028,502.247,-1.965
425.990,504.247,-1.988
428.027,506.247,4.790
430.064,508.247,0.902
432.024,510.247,-1.693
434.037,512.247,1.788
436.015,514.247,-0.231
438.047,516.247,1.634
440.043,518.247,2.418
442.055,520.247,0.443
444.030,522.247,0.260
446.052,524.247,-0.360
448.064,526.247,0.872
450.046,528.247,1.230
452.068,530.247,-0.030
454.038,532.247,-2.142
456.050,534.247,0.308
458.064,536.247,0.317
460.082,538.247,0.949
462.065,540.247,1.237
464.078,542.247,0.440
466.069,544.247,1.197
468.065,546.247,-1.230
470.100,548.247,0.695
472.096,550.247,1.506
474.088,552.247,-1.436
476.102,554.247,-0.869
478.112,556.247,0.042
480.111,558.247,1.234
482.097,560.247,0.491
484.104,562.247,-0.193
486.135,564.247,-0.058
488.125,566.247,-1.638
490.122,568.247,0.864
492.122,570.247,1.077
494.121,572.247,-0.790
496.118,574.247,-0.767
498.114,576.247,1.058
500.108,578.247,-1.554
502.105,580.247,-1.200
504.122,582.247,-1.431
506.102,584.247,-1.072
508.129,586.247,-0.270
510.118,588.247,-1.874
512.125,590.247,-11.302
514.128,592.247,-11.331
516.137,594.247,-11.360
518.150,596.247,-11.389
520.159,598.247,-11.419
522.164,600.247,-11.448
524.139,602.247,-11.477
525.135,603.247,-11.492