File: Wood/Calibration_Data/FZJ/FZJ_MCC_N2_30K_R1.csv
Time,Temperature,HRR
0.500,74.818,0.732
15.939,76.818,3.529
21.100,78.818,2.211
25.348,80.818,1.313
29.387,82.818,0.555
33.207,84.818,-0.109
37.033,86.818,0.482
40.817,88.818,0.433
44.626,90.818,0.586
48.315,92.818,-0.954
52.060,94.818,0.104
55.884,96.818,0.064
59.619,98.818,-0.203
63.493,100.818,-0.286
67.308,102.818,0.130
71.095,104.818,-0.674
74.967,106.818,-0.009
78.816,108.818,0.230
82.629,110.818,-0.092
86.498,112.818,0.058
90.320,114.818,-0.111
94.166,116.818,-0.259
98.040,118.818,-0.171
101.904,120.818,0.337
105.794,122.818,-0.564
109.683,124.818,0.082
113.616,126.818,0.352
117.529,128.818,0.105
121.427,130.818,-0.250
125.319,132.818,-0.057
129.194,134.818,0.166
133.174,136.818,0.328
137.052,138.818,0.122
141.076,140.818,-0.267
144.932,142.818,0.511
148.920,144.818,0.403
152.841,146.818,0.243
156.832,148.818,0.647
160.731,150.818,0.064
164.688,152.818,0.224
168.667,154.818,0.286
172.645,156.818,0.281
176.632,158.818,0.410
180.494,160.818,0.875
184.579,162.818,0.813
188.523,164.818,1.304
192.464,166.818,1.198
196.534,168.818,1.361
200.457,170.818,1.935
204.430,172.818,1.729
208.381,174.818,1.578
212.342,176.818,2.327
216.328,178.818,2.120
220.228,180.818,2.065
224.313,182.818,2.731
228.268,184.818,2.242
232.202,186.818,2.292
236.228,188.818,2.668
240.169,190.818,2.336
244.120,192.818,2.949
248.111,194.818,2.831
252.077,196.818,3.015
256.099,198.818,3.534
259.992,200.818,3.338
264.072,202.818,3.219
267.998,204.818,3.701
271.965,206.818,3.537
275.972,208.818,4.191
279.993,210.818,4.556
283.949,212.818,3.768
287.922,214.818,3.662
291.934,216.818,4.568
295.897,218.818,4.568
299.896,220.818,4.722
303.858,222.818,4.837
307.920,224.818,4.876
311.890,226.818,5.164
315.847,228.818,5.408
319.885,230.818,6.060
323.826,232.818,5.688
327.815,234.818,6.308
331.837,236.818,7.105
335.851,238.818,6.484
339.780,240.818,7.070
343.816,242.818,7.758
347.835,244.818,8.020
351.760,246.818,7.910
355.778,248.818,8.798
359.776,250.818,9.806
363.832,252.818,9.466
367.703,254.818,10.695
371.772,256.818,10.594
375.729,258.818,11.002
379.802,260.818,12.119
383.749,262.818,12.376
387.749,264.818,12.828
391.746,266.818,13.199
395.757,268.818,14.239
399.757,270.818,14.104
403.768,272.818,15.237
407.758,274.818,14.886
411.757,276.818,16.215
415.762,278.818,14.985
419.727,280.818,17.907
423.723,282.818,17.667
427.789,284.818,17.238
431.742,286.818,19.090
435.762,288.818,19.714
439.797,290.818,18.232
443.757,292.818,20.499
447.739,294.818,20.503
451.739,296.818,20.043
455.679,298.818,22.544
459.763,300.818,22.603
463.780,302.818,21.986
467.786,304.818,23.964
471.774,306.818,24.755
475.781,308.818,24.253
479.818,310.818,26.820
483.752,312.818,27.635
487.817,314.818,27.779
491.795,316.818,30.580
495.792,318.818,30.965
499.783,320.818,32.413
503.847,322.818,33.772
507.840,324.818,35.032
511.806,326.818,36.229
515.809,328.818,37.672
519.791,330.818,38.823
523.874,332.818,39.218
527.849,334.818,41.471
531.923,336.818,41.419
535.878,338.818,42.860
539.882,340.818,43.592
543.863,342.818,44.146
547.901,344.818,45.030
551.940,346.818,45.508
555.923,348.818,46.073
559.946,350.818,47.632
563.936,352.818,48.634
567.930,354.818,50.081
571.916,356.818,51.822
575.944,358.818,53.492
579.958,360.818,55.655
583.990,362.818,57.642
588.013,364.818,60.282
592.028,366.818,62.867
596.032,368.818,64.839
599.935,370.818,67.248
604.033,372.818,70.070
608.057,374.818,72.732
612.058,376.818,73.504
616.094,378.818,74.267
620.087,380.818,74.123
624.041,382.818,72.200
628.062,384.818,68.729
632.046,386.818,64.586
636.015,388.818,57.843
640.005,390.818,50.941
644.055,392.818,42.737
648.033,394.818,34.960
651.996,396.818,27.108
656.040,398.818,21.019
659.959,400.818,15.607
663.952,402.818,12.534
668.021,404.818,9.638
671.986,406.818,9.187
676.040,408.818,7.721
679.990,410.818,7.477
683.986,412.818,6.886
687.993,414.818,6.840
692.012,416.818,6.544
696.052,418.818,6.383
700.005,420.818,6.101
703.967,422.818,6.442
708.005,424.818,5.831
712.098,426.818,5.369
716.040,428.818,5.635
720.082,430.818,5.957
724.069,432.818,4.905
728.098,434.818,5.260
732.142,436.818,4.795
736.079,438.818,4.608
740.093,440.818,5.116
744.143,442.818,4.488
748.154,444.818,4.203
752.144,446.818,3.678
756.125,448.818,3.495
760.170,450.818,3.221
764.166,452.818,3.570
768.183,454.818,3.285
772.191,456.818,3.470
776.169,458.818,2.769
780.192,460.818,2.482
784.211,462.818,2.971
788.245,464.818,2.198
792.296,466.818,2.191
796.296,468.818,1.827
800.277,470.818,1.473
804.259,472.818,1.728
808.335,474.818,1.347
812.389,476.818,1.317
816.357,478.818,1.458
820.445,480.818,1.306
824.415,482.818,1.030
828.473,484.818,0.939
832.466,486.818,1.177
836.473,488.818,0.802
840.528,490.818,0.881
844.522,492.818,0.796
848.484,494.818,0.248
852.573,496.818,0.169
856.603,498.818,0.340
860.620,500.818,0.628
864.617,502.818,0.361
868.579,504.818,-0.101
872.571,506.818,0.000
876.636,508.818,0.656
880.654,510.818,-0.083
884.609,512.818,0.737
888.643,514.818,0.141
892.646,516.818,0.465
896.698,518.818,-0.073
900.679,520.818,0.299
904.720,522.818,-0.441
908.694,524.818,-0.088
912.709,526.818,-0.153
916.753,528.818,0.450
920.674,530.818,-0.446
924.761,532.818,-0.607
928.748,534.818,0.163
932.753,536.818,-0.482
936.750,538.818,0.007
940.783,540.818,0.049
944.831,542.818,-0.990
948.808,544.818,0.048
952.899,546.818,-0.558
956.797,548.818,0.427
960.784,550.818,-0.157
964.821,552.818,-0.719
968.842,554.818,0.146
972.859,556.818,-0.388
976.908,558.818,0.003
980.845,560.818,0.081
984.906,562.818,0.032
988.830,564.818,0.273
992.852,566.818,0.001
996.847,568.818,0.156
1000.823,570.818,0.051
1004.766,572.818,-0.046
1008.761,574.818,-0.104
1012.842,576.818,-0.377
1016.757,578.818,0.492
1020.808,580.818,-0.049
1024.823,582.818,-0.372
1028.841,584.818,0.277
1032.870,586.818,0.588
1036.848,588.818,0.528
1040.830,590.818,0.216
1044.719,592.818,0.097
1048.766,594.818,0.527
1052.738,596.818,2.046
1056.673,598.818,2.053
1060.676,600.818,2.059
1062.680,601.818,2.063