File: Wood/Calibration_Data/FZJ/FZJ_MCC_N2_60K_R12.csv
Time,Temperature,HRR
0.000,74.824,-0.786
13.117,77.324,6.488
17.469,79.824,5.214
20.714,82.324,3.460
23.603,84.824,2.460
26.291,87.324,1.866
28.848,89.824,0.765
31.335,92.324,1.657
33.815,94.824,0.708
36.198,97.324,0.844
38.560,99.824,0.630
40.965,102.324,0.425
43.325,104.824,0.216
45.661,107.324,0.530
47.989,109.824,0.620
50.334,112.324,-0.252
52.686,114.824,-0.325
54.981,117.324,0.228
57.355,119.824,-0.155
59.699,122.324,0.142
62.037,124.824,-0.564
64.417,127.324,0.284
66.751,129.824,0.351
69.133,132.324,0.600
71.482,134.824,0.420
73.882,137.324,0.036
76.260,139.824,0.213
78.641,142.324,0.276
81.048,144.824,0.353
83.467,147.324,1.118
85.911,149.824,0.647
88.322,152.324,1.078
90.728,154.824,1.440
93.138,157.324,1.213
95.618,159.824,1.618
98.062,162.324,2.618
100.472,164.824,2.774
102.948,167.324,2.640
105.401,169.824,2.876
107.858,172.324,3.162
110.254,174.824,3.539
112.712,177.324,4.083
115.185,179.824,3.835
117.613,182.324,3.958
120.099,184.824,4.530
122.568,187.324,5.057
124.990,189.824,5.607
127.458,192.324,5.887
129.894,194.824,6.963
132.388,197.324,7.124
134.838,199.824,7.409
137.286,202.324,9.349
139.764,204.824,9.426
142.223,207.324,9.697
144.684,209.824,9.967
147.145,212.324,10.601
149.617,214.824,11.468
152.091,217.324,10.589
154.558,219.824,10.974
157.022,222.324,10.366
159.511,224.824,11.607
162.021,227.324,10.596
164.479,229.824,11.054
166.973,232.324,10.781
169.462,234.824,11.430
171.920,237.324,11.542
174.420,239.824,12.853
176.883,242.324,13.085
179.407,244.824,13.436
181.887,247.324,14.891
184.382,249.824,15.527
186.863,252.324,16.356
189.333,254.824,17.167
191.834,257.324,18.820
194.321,259.824,19.965
196.835,262.324,20.065
199.309,264.824,22.223
201.794,267.324,23.159
204.306,269.824,24.505
206.805,272.324,25.782
209.306,274.824,25.989
211.810,277.324,28.012
214.270,279.824,29.687
216.789,282.324,31.444
219.299,284.824,32.480
221.807,287.324,33.804
224.270,289.824,35.259
226.774,292.324,36.527
229.268,294.824,37.821
231.750,297.324,39.320
234.250,299.824,41.057
236.752,302.324,41.332
239.247,304.824,43.662
241.763,307.324,44.767
244.254,309.824,46.132
246.756,312.324,47.558
249.224,314.824,49.682
251.750,317.324,51.614
254.239,319.824,53.984
256.729,322.324,56.464
259.249,324.824,58.539
261.729,327.324,61.559
264.261,329.824,64.672
266.734,332.324,68.111
269.217,334.824,70.654
271.744,337.324,73.773
274.233,339.824,76.735
276.720,342.324,79.741
279.229,344.824,81.942
281.724,347.324,83.946
284.206,349.824,86.003
286.734,352.324,86.550
289.214,354.824,88.601
291.740,357.324,90.316
294.211,359.824,91.985
296.725,362.324,94.587
299.229,364.824,96.918
301.732,367.324,100.585
304.214,369.824,104.048
306.747,372.324,108.920
309.227,374.824,113.987
311.716,377.324,119.728
314.241,379.824,125.588
316.723,382.324,131.592
319.232,384.824,136.932
321.744,387.324,142.185
324.255,389.824,145.456
326.754,392.324,146.556
329.266,394.824,144.791
331.772,397.324,138.829
334.258,399.824,128.827
336.751,402.324,114.436
339.255,404.824,96.536
341.774,407.324,76.844
344.225,409.824,58.857
346.722,412.324,42.445
349.193,414.824,30.307
351.684,417.324,22.898
354.173,419.824,17.896
356.650,422.324,16.400
359.136,424.824,16.542
361.623,427.324,14.644
364.110,429.824,15.036
366.643,432.324,15.200
369.155,434.824,14.429
371.669,437.324,14.193
374.151,439.824,13.422
376.655,442.324,13.273
379.156,444.824,12.315
381.656,447.324,12.077
384.169,449.824,11.936
386.648,452.324,10.826
389.143,454.824,10.545
391.663,457.324,10.306
394.158,459.824,9.987
396.677,462.324,9.482
399.162,464.824,8.235
401.671,467.324,8.117
404.183,469.824,7.685
406.681,472.324,7.574
409.192,474.824,6.942
411.708,477.324,6.503
414.214,479.824,5.914
416.729,482.324,5.340
419.251,484.824,5.344
421.757,487.324,4.769
424.239,489.824,4.346
426.738,492.324,3.429
429.261,494.824,4.015
431.742,497.324,4.365
434.252,499.824,2.945
436.799,502.324,3.255
439.320,504.824,2.952
441.841,507.324,3.191
444.340,509.824,2.785
446.795,512.324,2.503
449.303,514.824,2.452
451.781,517.324,2.145
454.309,519.824,2.116
456.798,522.324,2.431
459.342,524.824,2.039
461.827,527.324,1.797
464.331,529.824,1.617
466.817,532.324,1.825
469.320,534.824,1.370
471.859,537.324,1.385
474.339,539.824,0.748
476.847,542.324,1.520
479.364,544.824,0.861
481.831,547.324,0.909
484.332,549.824,0.779
486.835,552.324,0.878
489.335,554.824,0.549
491.835,557.324,0.728
494.346,559.824,0.396
496.835,562.324,0.231
499.313,564.824,1.015
501.842,567.324,0.125
504.373,569.824,0.118
506.844,572.324,0.053
509.337,574.824,0.456
511.842,577.324,-0.044
514.314,579.824,-0.346
516.830,582.324,0.002
519.334,584.824,-0.149
521.852,587.324,-0.435
524.314,589.824,-0.233
526.824,592.324,0.104
529.329,594.824,0.522
531.864,597.324,0.057
534.367,599.824,0.501
536.851,602.324,-0.230
539.342,604.824,0.583
541.845,607.324,-0.330
544.333,609.824,0.039
546.845,612.324,0.010
549.318,614.824,0.385
551.847,617.324,-0.153
554.328,619.824,-0.152
556.812,622.324,0.058
559.306,624.824,0.403
561.813,627.324,0.043
564.324,629.824,-0.393
566.813,632.324,0.257
569.298,634.824,-0.012
571.804,637.324,-0.038
574.277,639.824,0.036
576.810,642.324,0.413
579.290,644.824,-0.044
581.793,647.324,-0.023
584.289,649.824,0.596
586.774,652.324,0.335
589.256,654.824,-0.487
591.774,657.324,0.101
594.241,659.824,-0.267
596.749,662.324,-0.132
599.222,664.824,0.077
601.745,667.324,-0.269
604.188,669.824,-0.101
606.690,672.324,-0.212
609.210,674.824,0.222
611.702,677.324,0.036
614.180,679.824,-0.102
616.683,682.324,0.299
619.165,684.824,0.089
621.646,687.324,0.431
624.140,689.824,-0.222
626.634,692.324,0.276
629.122,694.824,0.278
631.626,697.324,0.281
634.091,699.824,0.283
636.600,702.324,0.286
637.607,703.324,0.287