File: Wood/Calibration_Data/FZJ/FZJ_MCC_N2_60K_R5.csv
Time (s),Temperature (K),HRR (W/g)
0.00,347.98,1.06
12.60,349.98,7.39
16.44,351.98,5.96
19.28,353.98,4.11
21.74,355.98,3.76
23.98,357.98,3.36
26.15,359.98,2.80
28.22,361.98,2.41
30.25,363.98,1.93
32.23,365.98,1.94
34.16,367.98,1.47
36.11,369.98,0.94
38.04,371.98,1.10
39.93,373.98,1.04
41.82,375.98,1.20
43.69,377.98,0.97
45.58,379.98,0.59
47.42,381.98,0.64
49.33,383.98,0.87
51.19,385.98,0.72
53.05,387.98,0.72
54.89,389.98,0.43
56.80,391.98,0.34
58.64,393.98,0.40
60.52,395.98,0.50
62.43,397.98,-0.18
64.29,399.98,0.33
66.20,401.98,0.31
68.07,403.98,-0.33
69.94,405.98,-0.10
71.84,407.98,-0.25
73.75,409.98,0.05
75.63,411.98,0.05
77.56,413.98,-0.01
79.45,415.98,0.35
81.41,417.98,-0.10
83.33,419.98,-0.07
85.26,421.98,0.42
87.19,423.98,-0.01
89.12,425.98,-0.08
91.05,427.98,0.03
93.01,429.98,-0.31
94.95,431.98,0.27
96.89,433.98,0.32
98.82,435.98,-0.41
100.77,437.98,0.13
102.73,439.98,0.09
104.70,441.98,0.14
106.69,443.98,0.03
108.62,445.98,0.09
110.59,447.98,0.09
112.53,449.98,0.29
114.50,451.98,0.01
116.45,453.98,0.86
118.40,455.98,0.56
120.40,457.98,-0.55
122.35,459.98,0.68
124.30,461.98,0.78
126.28,463.98,0.30
128.25,465.98,0.33
130.20,467.98,0.26
132.16,469.98,0.29
134.12,471.98,1.20
136.11,473.98,0.81
138.06,475.98,0.83
140.05,477.98,1.24
141.98,479.98,0.62
143.97,481.98,0.98
145.94,483.98,1.12
147.90,485.98,1.86
149.88,487.98,2.01
151.85,489.98,-3.65
153.86,491.98,-4.86
155.83,493.98,2.13
157.81,495.98,2.18
159.80,497.98,1.50
161.78,499.98,3.94
163.77,501.98,4.24
165.76,503.98,3.50
167.74,505.98,3.87
169.75,507.98,5.19
171.71,509.98,3.41
173.72,511.98,3.44
175.70,513.98,7.10
177.67,515.98,6.61
179.66,517.98,3.57
181.67,519.98,7.33
183.65,521.98,5.12
185.63,523.98,4.84
187.63,525.98,6.26
189.61,527.98,5.88
191.59,529.98,7.40
193.59,531.98,8.54
195.60,533.98,8.72
197.57,535.98,9.79
199.58,537.98,9.17
201.58,539.98,10.66
203.53,541.98,12.00
205.57,543.98,12.43
207.56,545.98,13.27
209.52,547.98,13.10
211.57,549.98,13.76
213.52,551.98,15.43
215.53,553.98,16.76
217.54,555.98,17.84
219.51,557.98,18.51
221.52,559.98,20.00
223.52,561.98,22.71
225.51,563.98,23.34
227.50,565.98,24.84
229.49,567.98,25.26
231.46,569.98,26.66
233.50,571.98,29.69
235.47,573.98,30.91
237.50,575.98,31.17
239.50,577.98,32.01
241.51,579.98,35.44
243.51,581.98,37.14
245.52,583.98,38.30
247.52,585.98,41.59
249.51,587.98,44.29
251.52,589.98,46.03
253.50,591.98,47.32
255.52,593.98,50.84
257.54,595.98,52.34
259.51,597.98,54.36
261.51,599.98,59.74
263.51,601.98,61.80
265.48,603.98,65.31
267.49,605.98,68.44
269.51,607.98,70.40
271.50,609.98,73.43
273.49,611.98,76.75
275.50,613.98,80.32
277.50,615.98,83.76
279.51,617.98,85.25
281.52,619.98,86.87
283.51,621.98,89.39
285.53,623.98,91.28
287.51,625.98,94.69
289.52,627.98,95.36
291.54,629.98,97.01
293.49,631.98,98.99
295.50,633.98,100.95
297.52,635.98,102.99
299.53,637.98,104.99
301.49,639.98,106.41
303.53,641.98,109.21
305.54,643.98,112.83
307.53,645.98,113.83
309.53,647.98,118.87
311.51,649.98,122.66
313.52,651.98,126.17
315.50,653.98,131.77
317.53,655.98,135.55
319.52,657.98,141.25
321.53,659.98,145.38
323.53,661.98,147.79
325.54,663.98,151.93
327.53,665.98,153.84
329.53,667.98,153.17
331.55,669.98,151.19
333.54,671.98,146.71
335.54,673.98,139.83
337.57,675.98,130.50
339.52,677.98,117.21
341.53,679.98,101.36
343.53,681.98,86.29
345.54,683.98,69.81
347.47,685.98,55.51
349.49,687.98,42.15
351.45,689.98,32.47
353.45,691.98,24.98
355.41,693.98,20.19
357.42,695.98,16.95
359.42,697.98,14.87
361.40,699.98,14.03
363.39,701.98,13.91
365.41,703.98,13.38
367.42,705.98,14.52
369.39,707.98,14.74
371.39,709.98,11.51
373.42,711.98,12.33
375.41,713.98,13.52
377.42,715.98,12.10
379.43,717.98,12.12
381.43,719.98,12.17
383.43,721.98,11.11
385.38,723.98,11.66
387.46,725.98,11.07
389.46,727.98,10.64
391.45,729.98,9.53
393.47,731.98,10.43
395.46,733.98,8.83
397.44,735.98,6.21
399.45,737.98,9.50
401.47,739.98,8.35
403.45,741.98,6.93
405.48,743.98,7.45
407.45,745.98,5.99
409.49,747.98,6.53
411.51,749.98,6.92
413.53,751.98,7.33
415.52,753.98,4.81
417.53,755.98,5.06
419.54,757.98,4.44
421.55,759.98,4.49
423.53,761.98,3.72
425.53,763.98,5.27
427.53,765.98,4.57
429.54,767.98,3.68
431.56,769.98,4.00
433.57,771.98,3.05
435.59,773.98,2.60
437.56,775.98,2.41
439.58,777.98,2.26
441.60,779.98,3.52
443.64,781.98,3.20
445.62,783.98,2.17
447.62,785.98,1.77
449.62,787.98,1.07
451.64,789.98,1.72
453.62,791.98,2.60
455.59,793.98,1.57
457.62,795.98,1.65
459.64,797.98,1.20
461.63,799.98,1.84
463.63,801.98,1.61
465.64,803.98,0.78
467.63,805.98,1.34
469.63,807.98,0.98
471.63,809.98,1.29
473.61,811.98,1.16
475.64,813.98,0.88
477.65,815.98,1.75
479.66,817.98,1.51
481.66,819.98,1.21
483.68,821.98,0.65
485.66,823.98,0.65
487.65,825.98,-0.29
489.67,827.98,0.72
491.67,829.98,0.65
493.67,831.98,-0.14
495.68,833.98,0.58
497.66,835.98,1.23
499.69,837.98,0.08
501.69,839.98,-0.73
503.68,841.98,-0.44
505.69,843.98,0.72
507.69,845.98,0.22
509.70,847.98,-0.25
511.72,849.98,-0.00
513.68,851.98,-0.16
515.65,853.98,0.59
517.67,855.98,-0.11
519.68,857.98,-0.26
521.70,859.98,0.32
523.69,861.98,0.04
525.71,863.98,-4.17
527.70,865.98,-4.18
529.71,867.98,-4.20
531.73,869.98,-4.21
533.71,871.98,-4.23
535.71,873.98,-4.24
537.70,875.98,-4.25
538.20,876.48,-4.26