File: Wood/Calibration_Data/FZJ/FZJ_MCC_N2_60K_R13.csv
Time (s),Temperature (K),HRR (W/g)
2.06,348.02,-2.83
13.94,350.52,6.75
18.11,353.02,4.55
21.29,355.52,3.61
24.13,358.02,1.93
26.81,360.52,1.30
29.38,363.02,0.97
31.88,365.52,0.54
34.31,368.02,0.59
36.71,370.52,0.67
39.07,373.02,-0.23
41.43,375.52,-0.09
43.78,378.02,0.09
46.13,380.52,0.14
48.46,383.02,-0.13
50.78,385.52,-0.20
53.11,388.02,0.12
55.48,390.52,0.25
57.82,393.02,-0.13
60.14,395.52,-0.31
62.51,398.02,-0.00
64.86,400.52,0.33
67.21,403.02,0.09
69.59,405.52,0.03
71.94,408.02,0.26
74.31,410.52,0.76
76.71,413.02,0.63
79.09,415.52,0.37
81.50,418.02,1.18
83.90,420.52,0.75
86.30,423.02,1.16
88.71,425.52,1.37
91.17,428.02,1.69
93.58,430.52,1.86
96.05,433.02,1.73
98.45,435.52,1.81
100.89,438.02,2.43
103.33,440.52,3.26
105.79,443.02,3.50
108.23,445.52,2.65
110.65,448.02,3.66
113.11,450.52,3.88
115.52,453.02,4.42
117.98,455.52,4.06
120.47,458.02,4.00
122.93,460.52,4.75
125.35,463.02,4.85
127.81,465.52,5.09
130.25,468.02,5.11
132.72,470.52,5.33
135.17,473.02,5.26
137.62,475.52,5.04
140.10,478.02,5.81
142.58,480.52,5.01
145.01,483.02,5.95
147.51,485.52,5.93
149.98,488.02,6.14
152.43,490.52,6.87
154.91,493.02,6.76
157.39,495.52,8.07
159.88,498.02,7.55
162.35,500.52,7.99
164.81,503.02,8.85
167.29,505.52,9.36
169.78,508.02,9.75
172.28,510.52,10.40
174.76,513.02,10.75
177.22,515.52,11.34
179.71,518.02,11.46
182.20,520.52,12.77
184.67,523.02,13.97
187.16,525.52,14.82
189.65,528.02,15.59
192.13,530.52,16.61
194.63,533.02,17.86
197.14,535.52,18.80
199.61,538.02,20.95
202.13,540.52,21.82
204.63,543.02,23.24
207.10,545.52,25.07
209.60,548.02,26.60
212.09,550.52,27.84
214.58,553.02,30.21
217.07,555.52,31.49
219.57,558.02,33.08
222.04,560.52,34.73
224.58,563.02,36.59
227.06,565.52,38.34
229.58,568.02,40.21
232.02,570.52,41.01
234.51,573.02,42.56
237.01,575.52,43.48
239.52,578.02,44.73
242.03,580.52,46.39
244.54,583.02,47.69
247.04,585.52,49.38
249.58,588.02,50.54
252.06,590.52,52.65
254.54,593.02,54.69
257.03,595.52,56.80
259.52,598.02,59.58
262.03,600.52,62.17
264.54,603.02,65.53
266.99,605.52,67.80
269.53,608.02,70.75
272.00,610.52,74.11
274.50,613.02,76.87
277.01,615.52,79.64
279.48,618.02,82.11
282.01,620.52,84.33
284.45,623.02,86.27
286.97,625.52,88.08
289.47,628.02,89.46
291.97,630.52,91.06
294.45,633.02,93.31
296.95,635.52,95.35
299.45,638.02,97.75
301.97,640.52,101.45
304.47,643.02,104.61
306.96,645.52,109.58
309.45,648.02,114.09
311.95,650.52,119.35
314.46,653.02,125.21
316.94,655.52,130.51
319.46,658.02,135.80
321.96,660.52,139.26
324.46,663.02,142.02
326.98,665.52,142.99
329.49,668.02,140.37
331.99,670.52,133.98
334.46,673.02,124.26
337.00,675.52,110.60
339.50,678.02,93.27
341.95,680.52,75.17
344.42,683.02,58.38
346.91,685.52,42.71
349.38,688.02,31.34
351.87,690.52,23.17
354.37,693.02,18.15
356.82,695.52,15.58
359.30,698.02,14.65
361.82,700.52,15.06
364.32,703.02,14.70
366.83,705.52,14.78
369.33,708.02,13.97
371.83,710.52,13.65
374.33,713.02,13.51
376.85,715.52,12.62
379.34,718.02,12.31
381.84,720.52,11.90
384.35,723.02,11.66
386.82,725.52,10.98
389.33,728.02,11.12
391.83,730.52,10.42
394.35,733.02,10.01
396.86,735.52,9.26
399.37,738.02,8.95
401.85,740.52,8.35
404.37,743.02,8.11
406.86,745.52,7.44
409.38,748.02,7.31
411.89,750.52,7.27
414.40,753.02,6.53
416.91,755.52,5.90
419.41,758.02,5.72
421.93,760.52,5.00
424.40,763.02,5.65
426.93,765.52,5.04
429.41,768.02,4.05
431.93,770.52,3.95
434.43,773.02,2.92
436.94,775.52,3.17
439.45,778.02,3.66
441.99,780.52,2.33
444.48,783.02,2.75
446.98,785.52,3.14
449.47,788.02,2.49
451.97,790.52,2.83
454.48,793.02,2.64
456.96,795.52,1.91
459.47,798.02,1.89
461.97,800.52,1.38
464.47,803.02,1.87
467.01,805.52,1.30
469.46,808.02,0.99
471.96,810.52,1.50
474.48,813.02,0.71
476.97,815.52,1.01
479.48,818.02,0.55
482.00,820.52,1.25
484.50,823.02,0.53
487.00,825.52,0.95
489.48,828.02,0.86
491.99,830.52,1.11
494.51,833.02,0.44
497.00,835.52,0.98
499.49,838.02,0.06
501.98,840.52,0.02
504.47,843.02,0.49
506.97,845.52,0.74
509.49,848.02,0.06
511.96,850.52,0.20
514.45,853.02,0.20
516.96,855.52,0.33
519.45,858.02,-0.05
521.96,860.52,0.43
524.46,863.02,-0.23
526.93,865.52,0.29
529.43,868.02,0.63
531.97,870.52,0.25
534.42,873.02,-0.24
536.96,875.52,0.45
539.46,878.02,-0.45
541.96,880.52,0.09
544.45,883.02,0.11
546.94,885.52,-0.08
549.41,888.02,0.10
551.95,890.52,0.08
554.42,893.02,0.08
556.90,895.52,0.27
559.41,898.02,0.52
561.90,900.52,-0.31
564.39,903.02,0.07
566.87,905.52,0.09
569.37,908.02,-0.09
571.86,910.52,0.07
574.38,913.02,0.13
576.87,915.52,-0.47
579.35,918.02,-0.57
581.86,920.52,-0.28
584.31,923.02,-0.59
586.85,925.52,-0.52
589.32,928.02,0.59
591.81,930.52,-0.35
594.32,933.02,0.22
596.79,935.52,0.15
599.30,938.02,0.03
601.79,940.52,-0.49
604.26,943.02,0.10
606.78,945.52,0.15
609.27,948.02,0.24
611.75,950.52,-0.34
614.24,953.02,-0.04
616.74,955.52,0.01
619.24,958.02,0.17
621.74,960.52,0.23
624.22,963.02,-0.27
626.71,965.52,-0.57
629.18,968.02,-0.57
631.68,970.52,-0.57
634.19,973.02,-0.57
636.69,975.52,-0.57
637.70,976.52,-0.56