File: Wood/Calibration_Data/FZJ/FZJ_MCC_N2_30K_R2.csv
Time,Temperature,HRR
4.448,75.078,-9.180
17.477,77.078,3.076
22.393,79.078,1.191
26.676,81.078,1.173
30.617,83.078,0.718
34.460,85.078,-0.360
38.242,87.078,1.114
42.003,89.078,0.151
45.772,91.078,-0.348
49.538,93.078,-0.205
53.319,95.078,0.153
57.120,97.078,-0.030
60.801,99.078,0.246
64.628,101.078,-0.555
68.427,103.078,-0.243
72.235,105.078,0.435
76.091,107.078,-0.437
79.871,109.078,-0.057
83.700,111.078,-0.230
87.519,113.078,-0.450
91.330,115.078,-0.004
95.187,117.078,0.169
99.074,119.078,-0.150
103.018,121.078,0.547
106.827,123.078,0.308
110.730,125.078,0.185
114.652,127.078,-0.212
118.470,129.078,0.407
122.372,131.078,0.364
126.265,133.078,-0.177
130.204,135.078,0.130
134.153,137.078,0.608
138.069,139.078,0.487
141.970,141.078,-0.264
145.878,143.078,0.246
149.863,145.078,0.651
153.827,147.078,0.338
157.797,149.078,0.454
161.672,151.078,0.021
165.639,153.078,0.370
169.653,155.078,0.932
173.555,157.078,0.606
177.528,159.078,1.138
181.533,161.078,1.289
185.440,163.078,1.269
189.461,165.078,1.359
193.391,167.078,1.263
197.377,169.078,1.834
201.395,171.078,1.948
205.320,173.078,2.101
209.284,175.078,1.460
213.195,177.078,3.171
217.223,179.078,2.894
221.211,181.078,3.112
225.195,183.078,2.834
229.166,185.078,3.962
233.157,187.078,3.981
237.108,189.078,4.319
241.175,191.078,5.027
245.115,193.078,4.642
249.002,195.078,5.001
253.045,197.078,5.154
257.020,199.078,5.298
260.979,201.078,5.294
264.963,203.078,6.486
268.938,205.078,5.236
272.877,207.078,5.867
276.868,209.078,5.499
280.892,211.078,5.933
284.869,213.078,6.025
288.846,215.078,5.607
292.803,217.078,6.130
296.765,219.078,6.140
300.809,221.078,6.335
304.796,223.078,6.062
308.783,225.078,5.725
312.774,227.078,5.839
316.730,229.078,6.335
320.710,231.078,5.555
324.655,233.078,6.294
328.718,235.078,6.696
332.647,237.078,6.282
336.694,239.078,7.165
340.739,241.078,7.191
344.701,243.078,7.476
348.718,245.078,7.947
352.665,247.078,8.411
356.663,249.078,8.804
360.675,251.078,9.118
364.671,253.078,9.888
368.628,255.078,10.043
372.574,257.078,11.355
376.617,259.078,11.100
380.637,261.078,12.171
384.627,263.078,12.123
388.662,265.078,12.828
392.613,267.078,13.852
396.589,269.078,13.683
400.667,271.078,14.425
404.642,273.078,15.339
408.659,275.078,15.757
412.668,277.078,16.247
416.682,279.078,16.886
420.661,281.078,17.085
424.647,283.078,17.494
428.653,285.078,18.058
432.649,287.078,18.588
436.666,289.078,19.177
440.658,291.078,19.520
444.628,293.078,20.740
448.663,295.078,20.383
452.636,297.078,21.291
456.656,299.078,21.735
460.620,301.078,23.217
464.633,303.078,23.456
468.645,305.078,24.231
472.670,307.078,25.019
476.660,309.078,25.439
480.698,311.078,26.831
484.700,313.078,28.271
488.687,315.078,28.702
492.738,317.078,30.515
496.757,319.078,32.050
500.707,321.078,32.847
504.775,323.078,34.843
508.784,325.078,35.976
512.826,327.078,37.578
516.847,329.078,38.371
520.761,331.078,40.091
524.833,333.078,41.304
528.802,335.078,41.414
532.832,337.078,42.523
536.848,339.078,43.892
540.859,341.078,44.383
544.828,343.078,45.025
548.851,345.078,45.793
552.880,347.078,46.422
556.883,349.078,47.871
560.885,351.078,48.408
564.870,353.078,49.774
568.937,355.078,50.246
572.866,357.078,52.857
576.892,359.078,53.869
580.917,361.078,56.471
584.953,363.078,57.986
588.978,365.078,60.414
592.933,367.078,62.767
596.942,369.078,64.877
600.941,371.078,67.172
605.000,373.078,69.241
608.953,375.078,70.019
612.966,377.078,71.537
617.036,379.078,71.700
620.998,381.078,70.193
625.059,383.078,68.435
629.048,385.078,65.252
633.056,387.078,59.762
637.074,389.078,54.483
641.001,391.078,47.280
644.976,393.078,40.120
648.960,395.078,32.527
652.996,397.078,25.528
657.019,399.078,19.475
660.977,401.078,15.379
664.931,403.078,11.671
668.989,405.078,9.935
672.966,407.078,8.067
677.004,409.078,7.771
681.027,411.078,7.346
685.031,413.078,6.656
689.051,415.078,6.892
693.015,417.078,5.961
697.020,419.078,6.360
701.039,421.078,6.269
705.051,423.078,5.604
709.049,425.078,5.726
713.106,427.078,5.393
717.081,429.078,5.377
721.121,431.078,5.495
725.128,433.078,5.125
729.138,435.078,4.663
733.171,437.078,4.506
737.211,439.078,4.613
741.146,441.078,4.674
745.214,443.078,4.195
749.196,445.078,4.578
753.238,447.078,3.755
757.248,449.078,4.718
761.278,451.078,3.772
765.234,453.078,3.508
769.255,455.078,3.408
773.225,457.078,2.921
777.313,459.078,3.154
781.337,461.078,2.581
785.284,463.078,2.187
789.240,465.078,2.475
793.258,467.078,2.363
797.266,469.078,1.701
801.295,471.078,1.601
805.356,473.078,2.067
809.354,475.078,1.673
813.399,477.078,1.438
817.372,479.078,1.286
821.428,481.078,1.272
825.439,483.078,0.730
829.442,485.078,1.092
833.444,487.078,0.338
837.406,489.078,0.576
841.454,491.078,0.462
845.454,493.078,0.634
849.459,495.078,0.484
853.480,497.078,0.410
857.569,499.078,0.738
861.569,501.078,0.122
865.453,503.078,0.644
869.516,505.078,-0.116
873.607,507.078,-0.050
877.599,509.078,0.186
881.511,511.078,-0.664
885.490,513.078,-0.058
889.534,515.078,-0.249
893.571,517.078,-0.397
897.511,519.078,-0.299
901.573,521.078,-0.198
905.542,523.078,-0.029
909.565,525.078,-0.184
913.488,527.078,-0.184
917.529,529.078,-0.039
921.575,531.078,-0.030
925.513,533.078,0.207
929.633,535.078,-0.557
933.642,537.078,-0.345
937.602,539.078,-0.006
941.587,541.078,-0.286
945.535,543.078,-0.289
949.535,545.078,-0.002
953.545,547.078,-0.296
957.604,549.078,0.212
961.621,551.078,-0.303
965.628,553.078,-0.101
969.597,555.078,-0.241
973.645,557.078,-0.377
977.643,559.078,-0.115
981.668,561.078,-0.165
985.670,563.078,-0.282
989.542,565.078,0.256
993.604,567.078,0.116
997.581,569.078,0.110
1001.612,571.078,-0.230
1005.555,573.078,0.314
1009.586,575.078,-0.077
1013.649,577.078,-0.158
1017.571,579.078,0.299
1021.560,581.078,0.288
1025.524,583.078,0.052
1029.517,585.078,-0.309
1033.515,587.078,0.045
1037.535,589.078,0.119
1041.546,591.078,0.530
1045.497,593.078,0.134
1049.465,595.078,1.710
1053.430,597.078,1.915
1057.519,599.078,1.923
1061.467,601.078,1.930
1062.465,601.578,1.932