File: Wood/Calibration_Data/FZJ/FZJ_MCC_N2_60K_R9.csv
Time,Temperature,HRR
2.834,74.906,-4.042
13.008,76.906,3.058
16.779,78.906,2.412
19.543,80.906,3.139
22.038,82.906,0.809
24.263,84.906,1.176
26.472,86.906,1.155
28.515,88.906,0.460
30.539,90.906,0.230
32.539,92.906,1.133
34.480,94.906,1.137
36.421,96.906,-0.061
38.324,98.906,-0.346
40.239,100.906,0.572
42.101,102.906,-0.038
44.005,104.906,0.063
45.871,106.906,0.163
47.749,108.906,-0.020
49.624,110.906,0.324
51.483,112.906,-0.362
53.341,114.906,0.287
55.229,116.906,0.450
57.098,118.906,-0.091
58.968,120.906,-0.194
60.830,122.906,0.466
62.741,124.906,0.087
64.612,126.906,-0.213
66.480,128.906,0.009
68.345,130.906,0.356
70.235,132.906,-0.662
72.165,134.906,-0.477
74.042,136.906,0.508
75.951,138.906,0.587
77.880,140.906,0.176
79.776,142.906,0.073
81.689,144.906,-0.677
83.609,146.906,0.399
85.537,148.906,0.354
87.460,150.906,-0.559
89.387,152.906,-0.328
91.339,154.906,0.429
93.280,156.906,-0.018
95.208,158.906,0.423
97.165,160.906,-0.093
99.100,162.906,-0.513
101.070,164.906,-0.032
103.002,166.906,-0.173
104.951,168.906,0.311
106.934,170.906,0.117
108.884,172.906,0.316
110.826,174.906,0.186
112.790,176.906,0.114
114.746,178.906,0.125
116.708,180.906,-0.009
118.646,182.906,-0.283
120.619,184.906,0.979
122.578,186.906,-0.152
124.557,188.906,-0.449
126.490,190.906,0.250
128.465,192.906,0.229
130.430,194.906,-0.041
132.380,196.906,0.530
134.362,198.906,1.463
136.316,200.906,0.272
138.284,202.906,0.324
140.234,204.906,1.024
142.211,206.906,0.780
144.216,208.906,0.603
146.170,210.906,1.218
148.159,212.906,0.654
150.115,214.906,1.655
152.078,216.906,0.804
154.073,218.906,0.691
156.037,220.906,0.864
158.016,222.906,1.127
160.022,224.906,1.055
161.976,226.906,0.834
163.982,228.906,1.868
165.957,230.906,1.852
167.940,232.906,1.178
169.923,234.906,1.843
171.887,236.906,2.230
173.920,238.906,2.454
175.900,240.906,2.850
177.838,242.906,2.655
179.859,244.906,2.867
181.837,246.906,3.565
183.838,248.906,3.665
185.830,250.906,3.468
187.791,252.906,4.704
189.781,254.906,4.856
191.762,256.906,5.029
193.757,258.906,6.240
195.774,260.906,7.116
197.765,262.906,7.314
199.743,264.906,7.764
201.734,266.906,8.821
203.712,268.906,9.813
205.731,270.906,10.738
207.732,272.906,10.892
209.716,274.906,12.140
211.731,276.906,13.646
213.729,278.906,13.821
215.722,280.906,14.755
217.707,282.906,16.425
219.700,284.906,17.944
221.706,286.906,18.741
223.686,288.906,20.030
225.706,290.906,22.103
227.678,292.906,22.940
229.701,294.906,24.110
231.647,296.906,26.126
233.638,298.906,26.919
235.654,300.906,28.991
237.634,302.906,31.647
239.640,304.906,32.531
241.621,306.906,34.630
243.598,308.906,36.646
245.624,310.906,38.750
247.622,312.906,40.696
249.629,314.906,42.622
251.669,316.906,45.375
253.654,318.906,47.536
255.628,320.906,49.921
257.618,322.906,53.614
259.625,324.906,56.851
261.632,326.906,58.132
263.610,328.906,61.439
265.608,330.906,65.199
267.615,332.906,67.557
269.617,334.906,70.442
271.631,336.906,73.332
273.631,338.906,75.930
275.630,340.906,79.518
277.650,342.906,81.373
279.641,344.906,83.416
281.604,346.906,86.396
283.605,348.906,88.487
285.608,350.906,90.514
287.632,352.906,92.661
289.650,354.906,94.667
291.627,356.906,96.581
293.648,358.906,98.322
295.619,360.906,100.777
297.640,362.906,102.510
299.641,364.906,104.992
301.625,366.906,107.582
303.633,368.906,110.159
305.582,370.906,112.548
307.620,372.906,116.283
309.624,374.906,119.970
311.615,376.906,123.409
313.618,378.906,127.674
315.606,380.906,131.224
317.646,382.906,134.186
319.617,384.906,137.921
321.651,386.906,140.959
323.627,388.906,142.350
325.639,390.906,143.403
327.648,392.906,142.466
329.625,394.906,139.464
331.619,396.906,135.201
333.649,398.906,128.636
335.625,400.906,120.101
337.623,402.906,109.513
339.635,404.906,97.281
341.617,406.906,84.281
343.563,408.906,71.928
345.555,410.906,59.100
347.510,412.906,47.476
349.510,414.906,37.888
351.505,416.906,28.827
353.467,418.906,24.007
355.441,420.906,20.032
357.458,422.906,17.583
359.453,424.906,15.608
361.450,426.906,14.859
363.418,428.906,14.658
365.410,430.906,14.035
367.413,432.906,13.886
369.429,434.906,13.070
371.415,436.906,12.225
373.420,438.906,12.152
375.424,440.906,11.921
377.403,442.906,12.016
379.436,444.906,10.040
381.421,446.906,9.580
383.428,448.906,10.505
385.407,450.906,9.783
387.422,452.906,8.870
389.398,454.906,8.901
391.424,456.906,8.711
393.416,458.906,7.424
395.432,460.906,8.167
397.441,462.906,7.938
399.446,464.906,6.663
401.461,466.906,6.420
403.441,468.906,5.790
405.433,470.906,6.326
407.433,472.906,5.617
409.464,474.906,4.804
411.457,476.906,5.163
413.454,478.906,3.827
415.491,480.906,4.047
417.477,482.906,4.562
419.479,484.906,3.405
421.483,486.906,3.920
423.504,488.906,2.970
425.491,490.906,2.954
427.478,492.906,3.504
429.523,494.906,2.946
431.528,496.906,2.193
433.515,498.906,1.952
435.505,500.906,2.237
437.522,502.906,2.033
439.521,504.906,2.300
441.551,506.906,2.353
443.570,508.906,1.714
445.572,510.906,1.874
447.549,512.906,1.930
449.522,514.906,1.060
451.549,516.906,1.371
453.574,518.906,1.236
455.556,520.906,1.160
457.562,522.906,1.293
459.544,524.906,0.875
461.551,526.906,1.241
463.543,528.906,1.898
465.559,530.906,0.277
467.566,532.906,0.010
469.549,534.906,1.460
471.559,536.906,0.896
473.575,538.906,0.255
475.580,540.906,0.850
477.561,542.906,0.499
479.573,544.906,0.072
481.592,546.906,0.207
483.573,548.906,0.609
485.555,550.906,0.069
487.551,552.906,0.376
489.574,554.906,0.456
491.550,556.906,0.451
493.602,558.906,0.156
495.567,560.906,0.229
497.590,562.906,0.309
499.597,564.906,0.550
501.583,566.906,-0.284
503.592,568.906,0.747
505.575,570.906,0.137
507.580,572.906,-0.053
509.571,574.906,-0.286
511.590,576.906,-0.584
513.552,578.906,-0.258
515.527,580.906,0.322
517.531,582.906,0.748
519.529,584.906,-0.111
521.556,586.906,-0.558
523.554,588.906,0.282
525.551,590.906,-1.234
527.545,592.906,-1.238
529.551,594.906,-1.242
531.554,596.906,-1.246
533.551,598.906,-1.250
535.531,600.906,-1.254
537.565,602.906,-1.258
538.044,603.406,-1.259