File: PMMA/Validation_Results/Aalto-Model_2-PMMA-Gasification/Aalto_II_Gasification-25kW-MLR.csv
s,g/m2/s
t,MLR
0,0
5.1,0.0487
10.1,0.0545
15.1,0.0676
20,0.0954
25,0.1479
30,0.2299
35,0.338
40,0.4582
45,0.5686
50,0.6506
55,0.6972
60,0.7156
65,0.719
70,0.7185
75,0.7202
80.1,0.7265
85.1,0.7385
90.1,0.7567
95.1,0.782
100.1,0.8149
105.1,0.8561
110.1,0.9059
115.1,0.9647
120.1,1.0327
125.1,1.11
130.1,1.1963
135.1,1.2913
140.1,1.3946
145.1,1.5056
150.1,1.6235
155.1,1.7475
160.1,1.8768
165.1,2.0104
170.1,2.1476
175.1,2.2875
180.1,2.4293
185.1,2.5723
190.1,2.7158
195.1,2.8594
200.1,3.0024
205.1,3.1443
210.1,3.2849
215.1,3.4237
220.1,3.5604
225.1,3.6946
230.1,3.8261
235.1,3.9545
240.1,4.0797
245.1,4.2013
250.1,4.3191
255.1,4.4329
260.1,4.5423
265.1,4.6473
270.1,4.7476
275.1,4.8431
280.1,4.9337
285.1,5.0193
290.1,5.0998
295.1,5.1755
300.1,5.2464
305,5.3114
310,5.3735
315,5.4317
320,5.4864
325,5.5382
330,5.5876
335,5.6353
340,5.6821
345,5.7286
350,5.7755
355,5.8235
360,5.8731
365,5.9248
370,5.979
375,6.0359
380,6.0955
385,6.1579
390,6.2228
395,6.29
400,6.359
405,6.4296
410,6.5012
415,6.5735
420,6.6463
425,6.719
430,6.7916
435,6.8637
440,6.9352
445,7.0062
450,7.0763
455,7.1456
460,7.214
465,7.2814
470,7.3479
475,7.4135
480,7.478
485,7.5415
490,7.604
495,7.6655
500,7.7259
505,7.7851
510,7.8434
515,7.9005
520,7.9565
525,8.0114
530,8.0651
535,8.1177
540,8.1692
545,8.2194
550,8.2687
555,8.3165
560,8.3634
565,8.409
570,8.4534
575,8.4968
580,8.539
585,8.58
590,8.6198
595,8.6585
600,8.6963
605,8.7328
610,8.7683
615,8.8028
620,8.8362
625,8.8687
630,8.9002
635,8.9307
640,8.9603
645,8.9891
650,9.017
655,9.0441
660,9.0704
665,9.0959
670,9.1208
675,9.1449
680,9.1682
685,9.1911
690,9.2133
695,9.2349
700,9.2559
705,9.2764
710,9.2964
715,9.3159
720,9.335
725,9.3536
730,9.3719
735,9.3897
740,9.4072
745,9.4244
750,9.4412
755,9.4577
760,9.4739
765,9.4899
770,9.5056
775,9.521
780,9.5362
785,9.5512
790,9.5659
795,9.5804
800,9.5947
805,9.6088
810,9.6227
815,9.6364
820,9.6498
825,9.663
830,9.676
835,9.6887
840,9.7011
845,9.7132
850,9.7251
855,9.7366
860,9.7478
865,9.7586
870,9.769
875,9.7789
880,9.7883
885,9.7972
890,9.8055
895,9.813
900,9.8199
905,9.8258
910,9.8307
915,9.8346
920,9.8372
925,9.8385
930,9.8383
935,9.8362
940,9.8322
945,9.8257
950,9.8168
955,9.8048
960,9.7891
965,9.7692
970,9.7446
975,9.7142
980,9.677
985,9.6317
990,9.5767
995,9.5099
1000,9.4287
1005,9.3296
1010,9.2078
1015,9.0566
1020,8.8673
1025,8.6257
1030,8.3113
1035,7.8911
1040,7.3071
1045,6.4558
1050,5.1437
1055,3.1109
1060,0.874
1065,0.0972
1070,0.0379
1075,0.0358
1080,0.0355
1085,0.0351
1090,0.0348
1095,0.0345
1100,0.0342
1105,0.0339
1110,0.0335
1115,0.0332
1120,0.0329
1125,0.0326
1130,0.0323
1135,0.0319
1140,3.16E-02
1145,3.13E-02
1150,3.10E-02
1155,3.07E-02
1160,3.04E-02
1165,3.01E-02
1170,2.98E-02
1175,2.95E-02
1180,2.92E-02
1185,0.0289
1190,0.0286
1195,0.0283
1200,0.028