File: PMMA/Validation_Results/Aalto-Model_2-PMMA-Gasification/Aalto_II_Gasification-50kW-MLR.csv
s,g/m2/s
t,MLR
0,0
2,0.0477
4,0.0578
6.1,0.1072
8.1,0.2447
10.1,0.5111
12.1,0.8668
14.1,1.1779
16.1,1.3447
18.1,1.4155
20,1.4918
22,1.6417
24,1.8923
26,2.2624
28,2.7589
30,3.3725
32,4.0787
34,4.8428
36,5.6285
38,6.4046
40,7.1485
42,7.8466
44,8.4929
46,9.0861
48,9.6287
50,10.1241
52,10.577
54,10.9918
56,11.3726
58,11.7237
60,12.0485
62,12.35
64,12.63
66,12.8931
68,13.1381
70,13.3706
72,13.5885
74,13.7947
76.1,13.9972
78.1,14.1876
80.1,14.3664
82.1,14.5377
84.1,14.7005
86.1,14.8579
88.1,15.0126
90.1,15.1582
92.1,15.2992
94.1,15.4378
96.1,15.5754
98.1,15.7055
100.1,15.8317
102.1,15.9554
104.1,16.0801
106.1,16.2023
108.1,16.3191
110.1,16.4338
112.1,16.5468
114.1,16.6595
116.1,16.7744
118.1,16.884
120.1,16.9917
122.1,17.0984
124.1,17.2048
126.1,17.3111
128.1,17.4186
130.1,17.5233
132.1,17.6267
134.1,17.7297
136.1,17.8326
138.1,17.9356
140.1,18.0389
142.1,18.1423
144.1,18.2445
146.1,18.3462
148.1,18.448
150.1,18.5498
152.1,18.6519
154.1,18.7542
156.1,18.8564
158.1,18.9583
160.1,19.0599
162.1,19.1614
164.1,19.2631
166.1,19.3646
168.1,19.4661
170.1,19.5673
172.1,19.6681
174.1,19.7682
176.1,19.8675
178.1,19.9665
180.1,20.0652
182.1,20.163
184.1,20.2592
186.1,20.3542
188.1,20.4485
190.1,20.5415
192.1,20.6323
194.1,20.7222
196.1,20.8098
198.1,20.8953
200.1,20.9795
202.1,21.0611
204.1,21.1401
206.1,21.2179
208.1,21.2929
210.1,21.366
212.1,21.4368
214.1,21.5063
216.1,21.5744
218.1,21.6403
220.1,21.7068
222.1,21.7728
224.1,21.8387
226.1,21.9066
228.1,21.9764
230.1,22.0482
232.1,22.1248
234.1,22.2052
236.1,22.2909
238.1,22.3837
240.1,22.4819
242.1,22.5884
244.1,22.702
246.1,22.823
248.1,22.9523
250.1,23.0873
252.1,23.2311
254.1,23.379
256.1,23.5347
258.1,23.6937
260.1,23.8585
262.1,24.0264
264.1,24.1982
266.1,24.3733
268.1,24.551
270.1,24.7317
272.1,24.9145
274.1,25.0997
276.1,25.2868
278.1,25.4758
280.1,25.6666
282.1,25.8586
284.1,26.0519
286.1,26.2462
288.1,26.4409
290.1,26.6361
292.1,26.8313
294.1,27.0261
296.1,27.2201
298.1,27.4131
300.1,27.6047
302,27.79
304,27.9736
306,28.16
308,28.3444
310,28.5267
312,28.707
314,28.8853
316,29.0617
318,29.2366
320,29.4102
322,29.5829
324,29.755
326,29.9271
328,30.0995
330,30.2728
332,30.4471
334,30.6231
336,30.8004
338,30.9789
340,31.158
342,31.3365
344,31.5127
346,31.6822
348,3.18E+01
350,3.20E+01
352,32.0587
354,32.0613
356,31.8974
358,31.3663
360,29.8448
362,24.1975
364,2.0196
366,0.1197
368,0.121
370,0.1215
372,0.1215
374,0.1214
376,0.1212
378,0.1209
380,0.1206
382,0.1202
384,0.1198
386,0.1194
388,0.1189
390,0.1185
392,0.118
394,0.1176
396,0.1171
398,0.1166
400,0.1161
402,0.1157
404,0.1152
406,0.1147
408,0.1142
410,0.1137
412,0.1132
414,0.1127
416,0.1122
418,0.1117
420,0.1112
422,0.1107
424,0.1102
426,0.1097
428,0.1092
430,0.1087
432,0.1082
434,0.1077
436,0.1072
438,0.1068
440,0.1063
442,0.1058
444,0.1053
446,0.1048
448,0.1043
450,0.1039
452,0.1034
454,0.1029
456,0.1024
458,0.102
460,0.1015
462,0.101
464,0.1006
466,0.1001
468,0.0996
470,0.0992
472,0.0987
474,0.0982
476,0.0978
478,0.0973
480,0.0969
482,0.0964
484,0.096
486,0.0955
488,0.0951
490,0.0946
492,0.0942
494,0.0938
496,0.0933
498,0.0929
500,0.0924