File: Non-charring/PMMA/UDRI/UDRI_TGA_N2_1.csv
Time,Temperature,Mass
[s],[K],[mg]
15.6,299.15,7.148
32.4,302.15,7.15
48.6,305.15,7.149
66,308.15,7.146
84,311.15,7.143
101.4,314.15,7.141
119.4,317.15,7.139
137.4,320.15,7.137
154.8,323.15,7.135
172.8,326.15,7.134
190.8,329.15,7.133
208.8,332.15,7.132
226.8,335.15,7.131
244.8,338.15,7.13
262.8,341.15,7.129
280.8,344.15,7.129
298.8,347.15,7.128
316.8,350.15,7.128
334.8,353.15,7.127
352.8,356.15,7.127
370.8,359.15,7.126
388.8,362.15,7.126
406.8,365.15,7.125
424.8,368.15,7.125
442.8,371.15,7.124
461.4,374.15,7.123
479.4,377.15,7.122
497.4,380.15,7.12
515.4,383.15,7.119
533.4,386.15,7.117
551.4,389.15,7.115
569.4,392.15,7.113
587.4,395.15,7.111
605.4,398.15,7.108
623.4,401.15,7.106
641.4,404.15,7.104
659.4,407.15,7.101
678,410.15,7.097
696,413.15,7.094
714,416.15,7.09
732,419.15,7.085
750,422.15,7.08
768,425.15,7.074
786,428.15,7.067
804,431.15,7.058
822,434.15,7.049
840,437.15,7.038
858,440.15,7.026
876,443.15,7.014
894,446.15,7.003
912,449.15,6.991
930.6,452.15,6.979
948.6,455.15,6.964
966.6,458.15,6.95
984.6,461.15,6.938
1002.6,464.15,6.926
1020.6,467.15,6.916
1038.6,470.15,6.908
1056.6,473.15,6.903
1074.6,476.15,6.899
1092.6,479.15,6.896
1110.6,482.15,6.893
1128.6,485.15,6.89
1146.6,488.15,6.887
1164.6,491.15,6.885
1182.6,494.15,6.882
1200.6,497.15,6.878
1218.6,500.15,6.874
1237.2,503.15,6.87
1255.2,506.15,6.865
1273.2,509.15,6.859
1291.2,512.15,6.853
1309.2,515.15,6.846
1327.2,518.15,6.837
1345.2,521.15,6.828
1363.2,524.15,6.817
1381.2,527.15,6.805
1399.2,530.15,6.79
1417.2,533.15,6.774
1435.2,536.15,6.756
1453.2,539.15,6.736
1471.2,542.15,6.713
1489.2,545.15,6.689
1507.2,548.15,6.663
1525.8,551.15,6.636
1543.8,554.15,6.609
1561.8,557.15,6.578
1579.8,560.15,6.542
1597.8,563.15,6.503
1615.8,566.15,6.46
1633.8,569.15,6.41
1651.8,572.15,6.353
1669.8,575.15,6.286
1687.8,578.15,6.208
1705.8,581.15,6.117
1723.8,584.15,6.012
1741.8,587.15,5.89
1759.8,590.15,5.748
1777.8,593.15,5.585
1796.4,596.15,5.399
1814.4,599.15,5.186
1832.4,602.15,4.945
1850.4,605.15,4.679
1868.4,608.15,4.387
1886.4,611.15,4.072
1904.4,614.15,3.742
1922.4,617.15,3.402
1940.4,620.15,3.057
1958.4,623.15,2.706
1976.4,626.15,2.359
1994.4,629.15,2.027
2013,632.15,1.712
2031,635.15,1.424
2049,638.15,1.165
2067,641.15,0.9391
2085,644.15,0.7499
2103,647.15,0.5911
2121,650.15,0.4635
2139,653.15,0.3629
2157,656.15,0.2866
2175,659.15,0.2286
2193.6,662.15,0.188
2211.6,665.15,0.1558
2229.6,668.15,0.1286
2247.6,671.15,0.1132
2265.6,674.15,0.1004
2283.6,677.15,0.0904
2301.6,680.15,0.08329
2319.6,683.15,0.07846
2338.2,686.15,0.07527
2356.2,689.15,0.07345
2374.2,692.15,0.07252
2392.2,695.15,0.0718
2410.2,698.15,0.07138
2428.2,701.15,0.07114
2446.2,704.15,0.07081
2464.8,707.15,0.07053
2482.8,710.15,0.07032
2500.8,713.15,0.07019
2518.8,716.15,0.06999
2536.8,719.15,0.06994
2554.8,722.15,0.06978
2572.8,725.15,0.06968
2591.4,728.15,0.06959
2609.4,731.15,0.06956
2627.4,734.15,0.06958
2645.4,737.15,0.06945
2663.4,740.15,0.06953
2681.4,743.15,0.06952
2700,746.15,0.06947
2718,749.15,0.06944
2736,752.15,0.06934
2754,755.15,0.06939
2772,758.15,0.06933
2790.6,761.15,0.06928
2808.6,764.15,0.06927
2826.6,767.15,0.06922
2844.6,770.15,0.06913
2862.6,773.15,0.06908
2880.6,776.15,0.06905
2899.2,779.15,0.0689
2917.2,782.15,0.06892
2935.2,785.15,0.06987
2953.2,788.15,0.07004
2971.2,791.15,0.0701
2989.8,794.15,0.07005
3007.8,797.15,0.06997
3025.8,800.15,0.0699
3043.8,803.15,0.06986
3061.8,806.15,0.0698
3080.4,809.15,0.06967
3098.4,812.15,0.06969
3116.4,815.15,0.06967
3134.4,818.15,0.06961
3152.4,821.15,0.06966
3171,824.15,0.06957
3189,827.15,0.06952
3207,830.15,0.06946
3225,833.15,0.06943
3243.6,836.15,0.06946
3261.6,839.15,0.0693
3279.6,842.15,0.06934
3297.6,845.15,0.06931
3315.6,848.15,0.06924
3334.2,851.15,0.06913
3352.2,854.15,0.06921
3370.2,857.15,0.0692
3388.2,860.15,0.06923
3406.8,863.15,0.06936
3424.8,866.15,0.06935
3442.8,869.15,0.06939
3460.8,872.15,0.06931
3478.8,875.15,0.06932
3497.4,878.15,0.0694
3515.4,881.15,0.06943
3533.4,884.15,0.06949
3551.4,887.15,0.06951
3570,890.15,0.06948
3588,893.15,0.06958
3606,896.15,0.06964
3624,899.15,0.06964
3642.6,902.15,0.06973
3660.6,905.15,0.06983
3678.6,908.15,0.06979
3696.6,911.15,0.06988
3715.2,914.15,0.06996
3733.2,917.15,0.07019
3751.2,920.15,0.07015
3769.2,923.15,0.07014
3787.8,926.15,0.07015
3805.8,929.15,0.07023
3823.8,932.15,0.07039
3841.8,935.15,0.07047
3860.4,938.15,0.0705
3878.4,941.15,0.07055
3896.4,944.15,0.07071
3914.4,947.15,0.07072
3933,950.15,0.07078
3951,953.15,0.07086
3969,956.15,0.07093
3987,959.15,0.07104
4005.6,962.15,0.0711
4023.6,965.15,0.07106
4041.6,968.15,0.07119
4059.6,971.15,0.07119
4078.2,974.15,0.07136
4096.2,977.15,0.0715
4114.2,980.15,0.0716
4132.8,983.15,0.07158
4150.8,986.15,0.07161
4168.8,989.15,0.07172
4186.8,992.15,0.07172
4205.4,995.15,0.07173
4223.4,998.15,0.07181
4241.4,1001.15,0.07191
4259.4,1004.15,0.072
4278,1007.15,0.07209
4296,1010.15,0.07211
4314,1013.15,0.07211
4332,1016.15,0.07223
4350.6,1019.15,0.0723
4368.6,1022.15,0.07236
4386.6,1025.15,0.0724
4404.6,1028.15,0.0725
4423.2,1031.15,0.07249
4441.2,1034.15,0.07249
4459.2,1037.15,0.07263
4477.8,1040.15,0.07275
4495.8,1043.15,0.07277
4513.8,1046.15,0.0729
4531.8,1049.15,0.07295
4550.4,1052.15,0.07302
4568.4,1055.15,0.07299
4586.4,1058.15,0.0732
4604.4,1061.15,0.07312
4623,1064.15,0.07324
4641,1067.15,0.07331
4659,1070.15,0.07339
4677,1073.15,0.07343
4695.6,1076.15,0.07354
4713.6,1079.15,0.07363
4731.6,1082.15,0.07374
4750.2,1085.15,0.07387
4768.2,1088.15,0.07401
4786.2,1091.15,0.07408
4804.2,1094.15,0.07407
4822.8,1097.15,0.07415
4840.8,1100.15,0.07415
4858.8,1103.15,0.0742
4877.4,1106.15,0.07427
4895.4,1109.15,0.07435
4913.4,1112.15,0.07444
4931.4,1115.15,0.07447
4950,1118.15,0.07455
4968.6,1121.15,0.07451
4980.6,1123.15,0.07457