File: PMMA/Calibration_Data/Sandia/Sandia_DSC_Ar_50K_2.csv
Time,Temperature,Heat Flow
[s],[K],[W/g]
1200.1,306.94,-3.07E-03
1303.854,308.64,-2.29E-02
1323.927,310.34,-5.69E-02
1337.325,312.04,-9.60E-02
1347.76,313.74,-0.14271
1356.46,315.44,-0.19062
1364.02,317.14,-0.23713
1370.71,318.84,-0.28432
1376.754,320.54,-0.33422
1382.33,322.24,-0.38872
1387.48,323.94,-0.44193
1392.34,325.64,-0.49564
1396.91,327.34,-0.54752
1401.24,329.04,-0.60278
1405.36,330.74,-0.66378
1409.31,332.44,-0.7156
1413.087,334.14,-0.77432
1416.72,335.84,-0.82948
1420.23,337.54,-0.88525
1423.626,339.24,-0.94192
1426.902,340.94,-1.00121
1430.1,342.64,-1.05847
1433.217,344.34,-1.11229
1436.26,346.04,-1.16642
1439.232,347.74,-1.22202
1442.14,349.44,-1.27392
1444.98,351.14,-1.32951
1447.77,352.84,-1.38531
1450.488,354.54,-1.4408
1453.16,356.24,-1.49644
1455.79,357.94,-1.55248
1458.37,359.64,-1.60696
1460.9,361.34,-1.66439
1463.39,363.04,-1.71953
1465.845,364.74,-1.77573
1468.26,366.44,-1.82949
1470.636,368.14,-1.88558
1472.98,369.84,-1.94302
1475.29,371.54,-1.99731
1477.57,373.24,-2.04915
1479.82,374.94,-2.1053
1482.06,376.64,-2.15841
1484.26,378.34,-2.2118
1486.44,380.04,-2.26523
1488.61,381.74,-2.3169
1490.75,383.44,-2.36282
1492.88,385.14,-2.41826
1494.98,386.84,-2.46889
1497.069,388.54,-2.52238
1499.14,390.24,-2.57297
1501.19,391.94,-2.62946
1503.23,393.64,-2.6886
1505.25,395.34,-2.744
1507.24,397.04,-2.80818
1509.23,398.74,-2.87151
1511.19,400.44,-2.94393
1513.15,402.14,-3.01768
1515.081,403.84,-3.08929
1517.004,405.54,-3.1646
1518.9,407.24,-3.24174
1520.79,408.94,-3.31474
1522.66,410.64,-3.39156
1524.525,412.34,-3.4644
1526.37,414.04,-3.53719
1528.2,415.74,-3.61175
1530.03,417.44,-3.68098
1531.842,419.14,-3.7488
1533.64,420.84,-3.8126
1535.43,422.54,-3.87541
1537.212,424.24,-3.93468
1538.98,425.94,-3.99343
1540.74,427.64,-4.05451
1542.5,429.34,-4.11584
1544.24,431.04,-4.17456
1545.98,432.74,-4.2289
1547.7,434.44,-4.28865
1549.42,436.14,-4.34183
1551.13,437.84,-4.3898
1552.84,439.54,-4.43687
1554.54,441.24,-4.48943
1556.229,442.94,-4.53724
1557.912,444.64,-4.58428
1559.59,446.34,-4.63138
1561.257,448.04,-4.67737
1562.92,449.74,-4.7221
1564.575,451.44,-4.76536
1566.222,453.14,-4.81406
1567.86,454.84,-4.86191
1569.49,456.54,-4.90133
1571.12,458.24,-4.94823
1572.73,459.94,-4.98939
1574.35,461.64,-5.03653
1575.951,463.34,-5.07949
1577.55,465.04,-5.12565
1579.14,466.74,-5.17635
1580.73,468.44,-5.22682
1582.31,470.14,-5.27906
1583.89,471.84,-5.33072
1585.458,473.54,-5.3813
1587.02,475.24,-5.43215
1588.59,476.94,-5.47949
1590.15,478.64,-5.53289
1591.7,480.34,-5.5793
1593.246,482.04,-5.62792
1594.79,483.74,-5.67863
1596.33,485.44,-5.72328
1597.87,487.14,-5.77273
1599.4,488.84,-5.82472
1600.93,490.54,-5.8769
1602.46,492.24,-5.92678
1603.98,493.94,-5.97876
1605.49,495.64,-6.03307
1607,497.34,-6.08424
1608.52,499.04,-6.14116
1610.02,500.74,-6.19978
1611.52,502.44,-6.25686
1613.02,504.14,-6.31777
1614.52,505.84,-6.37508
1616.01,507.54,-6.43124
1617.5,509.24,-6.49006
1618.98,510.94,-6.5483
1620.46,512.64,-6.60747
1621.93,514.34,-6.65809
1623.41,516.04,-6.71234
1624.878,517.74,-6.77378
1626.34,519.44,-6.83421
1627.8,521.14,-6.88617
1629.27,522.84,-6.93314
1630.73,524.54,-6.98258
1632.18,526.24,-7.03342
1633.63,527.94,-7.07745
1635.08,529.64,-7.12441
1636.53,531.34,-7.17308
1637.97,533.04,-7.2276
1639.42,534.74,-7.28789
1640.85,536.44,-7.33443
1642.29,538.14,-7.3834
1643.73,539.84,-7.42771
1645.16,541.54,-7.4784
1646.59,543.24,-7.53971
1648.01,544.94,-7.58243
1649.44,546.64,-7.62342
1650.86,548.34,-7.66511
1652.28,550.04,-7.69734
1653.7,551.74,-7.72701
1655.12,553.44,-7.75732
1656.54,555.14,-7.79012
1657.95,556.84,-7.81454
1659.37,558.54,-7.84518
1660.78,560.24,-7.87883
1662.19,561.94,-7.90494
1663.6,563.64,-7.92677
1665.01,565.34,-7.94456
1666.42,567.04,-7.9618
1667.82,568.74,-7.97015
1669.22,570.44,-7.97732
1670.62,572.14,-8.01012
1672.02,573.84,-8.02528
1673.43,575.54,-8.05525
1674.82,577.24,-8.08703
1676.22,578.94,-8.09526
1677.62,580.64,-8.11247
1679.01,582.34,-8.13816
1680.4,584.04,-8.15451
1681.8,585.74,-8.15779
1683.19,587.44,-8.16866
1684.58,589.14,-8.17394
1685.97,590.84,-8.17987
1687.36,592.54,-8.17738
1688.75,594.24,-8.16658
1690.13,595.94,-8.15999
1691.52,597.64,-8.1449
1692.91,599.34,-8.12691
1694.3,601.04,-8.10677
1695.68,602.74,-8.07739
1697.07,604.44,-8.04288
1698.46,606.14,-8.0116
1699.842,607.84,-7.97691
1701.23,609.54,-7.93059
1702.62,611.24,-7.87328
1704.003,612.94,-7.80637
1705.39,614.64,-7.73458
1706.77,616.34,-7.65439
1708.16,618.04,-7.55665
1709.55,619.74,-7.45226
1710.936,621.44,-7.34537
1712.33,623.14,-7.22032
1713.714,624.84,-7.09062
1715.11,626.54,-6.95585
1716.498,628.24,-6.80163
1717.89,629.94,-6.63757
1719.28,631.64,-6.46848
1720.68,633.34,-6.28085
1722.07,635.04,-6.08773
1723.46,636.74,-5.90355
1724.86,638.44,-5.71297
1726.26,640.14,-5.51764
1727.661,641.84,-5.32785
1729.06,643.54,-5.13434
1730.47,645.24,-4.95993
1731.873,646.94,-4.78132
1733.28,648.64,-4.59748
1734.69,650.34,-4.44579
1736.1,652.04,-4.30315
1737.51,653.74,-4.15496
1738.93,655.44,-4.02207
1740.34,657.14,-3.87709
1741.758,658.84,-3.73678
1743.17,660.54,-3.59448
1744.6,662.24,-3.45446
1746.02,663.94,-3.31494
1747.45,665.64,-3.19465
1748.87,667.34,-3.10568
1750.31,669.04,-3.00998
1751.74,670.74,-2.94172
1753.17,672.44,-2.90769
1754.6,674.14,-2.87627
1756.04,675.84,-2.8648
1757.48,677.54,-2.87622
1758.927,679.24,-2.90452
1760.37,680.94,-2.94921
1761.82,682.64,-3.02272
1763.27,684.34,-3.14076
1764.72,686.04,-3.34395
1766.18,687.74,-3.62871
1767.64,689.44,-4.01024
1769.09,691.14,-4.43851
1770.55,692.84,-4.85779
1772.01,694.54,-5.25809
1773.48,696.24,-5.62711
1774.94,697.94,-5.97803
1776.402,699.64,-6.30644
1777.87,701.34,-6.62664
1779.34,703.04,-6.92916
1780.82,704.74,-7.21957
1782.29,706.44,-7.50976
1783.77,708.14,-7.77825
1785.25,709.84,-8.02671
1786.728,711.54,-8.26525
1788.21,713.24,-8.48938
1789.7,714.94,-8.70615
1791.19,716.64,-8.91219
1792.68,718.34,-9.1036
1794.18,720.04,-9.27733
1795.68,721.74,-9.42933
1797.18,723.44,-9.56282
1798.68,725.14,-9.67005
1800.19,726.84,-9.7581
1801.7,728.54,-9.8286
1803.21,730.24,-9.90158
1804.73,731.94,-9.96264
1806.25,733.64,-10.01907
1807.77,735.34,-10.08628
1809.303,737.04,-10.15114
1810.83,738.74,-10.21126
1812.37,740.44,-10.26499
1813.91,742.14,-10.30966
1815.447,743.84,-10.36477
1816.99,745.54,-10.41564
1818.54,747.24,-10.46357
1820.09,748.94,-10.50155
1821.65,750.64,-10.54481
1823.21,752.34,-10.58481
1824.77,754.04,-10.6153
1826.34,755.74,-10.6412
1827.91,757.44,-10.66325
1829.48,759.14,-10.69104
1831.07,760.84,-10.71222
1832.649,762.54,-10.73214
1834.24,764.24,-10.76722
1835.83,765.94,-10.79567
1837.42,767.64,-10.80715
1839.02,769.34,-10.81824
1840.62,771.04,-10.83335
1842.23,772.74,-10.84337
1843.85,774.44,-10.85298
1845.46,776.14,-10.86168
1847.08,777.84,-10.87177
1848.705,779.54,-10.87895
1850.34,781.24,-10.88199
1851.966,782.94,-10.88738
1853.6,784.64,-10.89267
1855.245,786.34,-10.89271
1856.889,788.04,-10.89654
1858.53,789.74,-10.90067
1860.18,791.44,-10.90113
1861.84,793.14,-10.90482
1863.5,794.84,-10.90027
1865.169,796.54,-10.90245
1866.84,798.24,-10.91057
1868.52,799.94,-10.91962
1870.19,801.64,-10.91859
1871.874,803.34,-10.92887
1873.56,805.04,-10.93554
1875.25,806.74,-10.94303
1876.95,808.44,-10.94658
1878.642,810.14,-10.95817
1880.35,811.84,-10.96816
1882.05,813.54,-10.96809
1883.77,815.24,-10.97528
1883.9,815.34,-10.97639