File: PMMA/Calibration_Data/Sandia/Sandia_DSC_Ar_50K_3.csv
Time,Temperature,Heat Flow
[s],[K],[W/g]
1200.1,306.944,-2.32E-03
1303.16,308.644,1.39E-02
1323.43,310.344,7.19E-03
1336.947,312.044,-1.03E-02
1347.47,313.744,-3.31E-02
1356.21,315.444,-6.20E-02
1363.758,317.144,-9.20E-02
1370.49,318.844,-0.11922
1376.56,320.544,-0.1526
1382.16,322.244,-0.18654
1387.35,323.944,-0.22019
1392.23,325.644,-0.2589
1396.818,327.344,-0.29675
1401.17,329.044,-0.33463
1405.28,330.744,-0.37984
1409.25,332.444,-0.41283
1413.05,334.144,-0.45621
1416.69,335.844,-0.49128
1420.23,337.544,-0.53232
1423.64,339.244,-0.56983
1426.93,340.944,-0.6139
1430.157,342.644,-0.65419
1433.3,344.344,-0.69137
1436.37,346.044,-0.73176
1439.36,347.744,-0.7693
1442.28,349.444,-0.80722
1445.14,351.144,-0.84452
1447.94,352.844,-0.88589
1450.695,354.544,-0.92514
1453.39,356.244,-0.96783
1456.04,357.944,-1.00959
1458.64,359.644,-1.05087
1461.19,361.344,-1.09396
1463.71,363.044,-1.13365
1466.18,364.744,-1.17268
1468.6,366.444,-1.21556
1471,368.144,-1.25723
1473.36,369.844,-1.29905
1475.7,371.544,-1.33903
1478,373.244,-1.37865
1480.27,374.944,-1.42129
1482.52,376.644,-1.46098
1484.74,378.344,-1.4969
1486.947,380.044,-1.53587
1489.13,381.744,-1.57465
1491.3,383.444,-1.60594
1493.44,385.144,-1.64197
1495.57,386.844,-1.6753
1497.67,388.544,-1.70927
1499.75,390.244,-1.74442
1501.82,391.944,-1.78385
1503.88,393.644,-1.82523
1505.91,395.344,-1.86749
1507.929,397.044,-1.91687
1509.93,398.744,-1.96919
1511.91,400.444,-2.0292
1513.87,402.144,-2.08535
1515.82,403.844,-2.14655
1517.75,405.544,-2.21308
1519.67,407.244,-2.28406
1521.58,408.944,-2.34926
1523.47,410.644,-2.41634
1525.341,412.344,-2.4847
1527.207,414.044,-2.55111
1529.05,415.744,-2.61799
1530.89,417.444,-2.68126
1532.71,419.144,-2.74306
1534.53,420.844,-2.80389
1536.33,422.544,-2.86488
1538.118,424.244,-2.92219
1539.9,425.944,-2.98455
1541.67,427.644,-3.04507
1543.428,429.344,-3.10263
1545.19,431.044,-3.16104
1546.93,432.744,-3.21438
1548.669,434.444,-3.26647
1550.4,436.144,-3.31439
1552.12,437.844,-3.36028
1553.83,439.544,-3.41189
1555.53,441.244,-3.4634
1557.23,442.944,-3.51019
1558.93,444.644,-3.55167
1560.61,446.344,-3.59922
1562.28,448.044,-3.64192
1563.951,449.744,-3.68521
1565.61,451.444,-3.73213
1567.26,453.144,-3.77314
1568.91,454.844,-3.8152
1570.54,456.544,-3.8568
1572.171,458.244,-3.89481
1573.79,459.944,-3.93086
1575.41,461.644,-3.97285
1577.02,463.344,-4.01612
1578.62,465.044,-4.05717
1580.22,466.744,-4.10218
1581.81,468.444,-4.14847
1583.391,470.144,-4.19008
1584.97,471.844,-4.23315
1586.544,473.544,-4.27405
1588.11,475.244,-4.31158
1589.67,476.944,-4.35623
1591.24,478.644,-4.40001
1592.79,480.344,-4.43674
1594.341,482.044,-4.47756
1595.88,483.744,-4.51395
1597.43,485.444,-4.54936
1598.961,487.144,-4.58893
1600.494,488.844,-4.62447
1602.02,490.544,-4.6619
1603.55,492.244,-4.70154
1605.06,493.944,-4.73642
1606.58,495.644,-4.76652
1608.09,497.344,-4.80324
1609.6,499.044,-4.845
1611.1,500.744,-4.88668
1612.6,502.444,-4.93115
1614.1,504.144,-4.98113
1615.59,505.844,-5.02888
1617.08,507.544,-5.07654
1618.56,509.244,-5.13404
1620.04,510.944,-5.18798
1621.52,512.644,-5.2376
1623,514.344,-5.29434
1624.47,516.044,-5.34874
1625.94,517.744,-5.40296
1627.401,519.444,-5.45762
1628.862,521.144,-5.50829
1630.317,522.844,-5.55868
1631.77,524.544,-5.6039
1633.22,526.244,-5.65515
1634.67,527.944,-5.70479
1636.12,529.644,-5.7537
1637.56,531.344,-5.80728
1639,533.044,-5.86359
1640.44,534.744,-5.90688
1641.87,536.444,-5.95389
1643.307,538.144,-6.0003
1644.74,539.844,-6.04023
1646.16,541.544,-6.09266
1647.58,543.244,-6.13555
1649.01,544.944,-6.17347
1650.43,546.644,-6.2176
1651.84,548.344,-6.2495
1653.26,550.044,-6.27232
1654.67,551.744,-6.29335
1656.08,553.444,-6.31171
1657.491,555.144,-6.32778
1658.9,556.844,-6.34181
1660.3,558.544,-6.35506
1661.7,560.244,-6.37433
1663.107,561.944,-6.39425
1664.51,563.644,-6.39882
1665.91,565.344,-6.40183
1667.3,567.044,-6.40972
1668.7,568.744,-6.41449
1670.09,570.444,-6.41934
1671.483,572.144,-6.42065
1672.88,573.844,-6.42878
1674.27,575.544,-6.43828
1675.66,577.244,-6.43585
1677.05,578.944,-6.43584
1678.44,580.644,-6.44456
1679.823,582.344,-6.44265
1681.209,584.044,-6.43398
1682.59,585.744,-6.42636
1683.98,587.444,-6.41627
1685.36,589.144,-6.40953
1686.738,590.844,-6.39937
1688.12,592.544,-6.38962
1689.504,594.244,-6.38107
1690.884,595.944,-6.36329
1692.27,597.644,-6.34288
1693.65,599.344,-6.3292
1695.027,601.044,-6.31645
1696.41,602.744,-6.2938
1697.787,604.444,-6.26467
1699.17,606.144,-6.23851
1700.544,607.844,-6.20402
1701.92,609.544,-6.15303
1703.31,611.244,-6.09305
1704.69,612.944,-6.02878
1706.064,614.644,-5.95306
1707.45,616.344,-5.87626
1708.83,618.044,-5.78215
1710.207,619.744,-5.68625
1711.59,621.444,-5.57696
1712.97,623.144,-5.45911
1714.353,624.844,-5.33748
1715.74,626.544,-5.20399
1717.12,628.244,-5.06603
1718.5,629.944,-4.91187
1719.89,631.644,-4.75124
1721.28,633.344,-4.58811
1722.66,635.044,-4.41229
1724.05,636.744,-4.24353
1725.44,638.444,-4.06747
1726.833,640.144,-3.90138
1728.23,641.844,-3.72399
1729.62,643.544,-3.55877
1731.02,645.244,-3.39163
1732.41,646.944,-3.22839
1733.811,648.644,-3.06342
1735.21,650.344,-2.89277
1736.61,652.044,-2.73046
1738.02,653.744,-2.57034
1739.42,655.444,-2.43441
1740.828,657.144,-2.28629
1742.24,658.844,-2.12933
1743.648,660.544,-1.98705
1745.06,662.244,-1.86507
1746.48,663.944,-1.73466
1747.89,665.644,-1.62637
1749.315,667.344,-1.51811
1750.74,669.044,-1.42042
1752.16,670.744,-1.34406
1753.59,672.444,-1.29872
1755.02,674.144,-1.28169
1756.44,675.844,-1.29964
1757.877,677.544,-1.32364
1759.31,679.244,-1.36753
1760.74,680.944,-1.40393
1762.18,682.644,-1.47577
1763.62,684.344,-1.5687
1765.07,686.044,-1.71468
1766.517,687.744,-1.93313
1767.97,689.444,-2.23771
1769.41,691.144,-2.62731
1770.86,692.844,-3.06748
1772.31,694.544,-3.51033
1773.77,696.244,-3.91501
1775.22,697.944,-4.29549
1776.68,699.644,-4.65478
1778.14,701.344,-5.00001
1779.6,703.044,-5.32343
1781.055,704.744,-5.63063
1782.52,706.444,-5.94563
1783.99,708.144,-6.23177
1785.46,709.844,-6.50586
1786.93,711.544,-6.76353
1788.4,713.244,-7.00807
1789.87,714.944,-7.23396
1791.35,716.644,-7.44961
1792.82,718.344,-7.64416
1794.3,720.044,-7.81684
1795.78,721.744,-7.96473
1797.264,723.444,-8.09766
1798.75,725.144,-8.19821
1800.24,726.844,-8.28622
1801.73,728.544,-8.37099
1803.23,730.244,-8.46487
1804.73,731.944,-8.54472
1806.237,733.644,-8.60465
1807.75,735.344,-8.66859
1809.27,737.044,-8.73057
1810.79,738.744,-8.78182
1812.32,740.444,-8.82982
1813.85,742.144,-8.86813
1815.38,743.844,-8.91322
1816.92,745.544,-8.95239
1818.46,747.244,-8.99137
1820.01,748.944,-9.02466
1821.56,750.644,-9.0611
1823.11,752.344,-9.09728
1824.67,754.044,-9.12716
1826.229,755.744,-9.15041
1827.79,757.444,-9.17251
1829.37,759.144,-9.19713
1830.94,760.844,-9.21249
1832.52,762.544,-9.22663
1834.09,764.244,-9.24562
1835.68,765.944,-9.26429
1837.26,767.644,-9.26785
1838.85,769.344,-9.26506
1840.45,771.044,-9.27456
1842.05,772.744,-9.26951
1843.66,774.444,-9.26704
1845.27,776.144,-9.25988
1846.88,777.844,-9.25604
1848.5,779.544,-9.24356
1850.12,781.244,-9.23177
1851.75,782.944,-9.21487
1853.38,784.644,-9.20545
1855.01,786.344,-9.19201
1856.65,788.044,-9.18233
1858.296,789.744,-9.18105
1859.94,791.444,-9.17161
1861.6,793.144,-9.15541
1863.25,794.844,-9.14039
1864.91,796.544,-9.13293
1866.58,798.244,-9.11915
1868.25,799.944,-9.11739
1869.927,801.644,-9.10427
1871.61,803.344,-9.09939
1873.287,805.044,-9.0826
1874.97,806.744,-9.07259
1876.66,808.444,-9.06503
1878.36,810.144,-9.05682
1880.06,811.844,-9.04724
1881.76,813.544,-9.02852
1883.466,815.244,-9.024
1883.91,815.644,-9.02279