File: PMMA/Calibration_Data/Sandia/Sandia_DSC_Ar_1K_1.csv
Time,Temperature,Heat Flow
[s],[K],[W/g]
1202.3,307.031,0.00363
1624.67,309.031,0.0162
1795.12,311.031,0.0225
1941.42,313.031,0.0243
2077.69,315.031,0.0266
2208.444,317.031,0.0289
2336.56,319.031,0.0288
2462.42,321.031,0.0286
2586.9,323.031,0.0306
2710.36,325.031,0.0287
2832.762,327.031,0.0316
2954.07,329.031,0.033
3074.97,331.031,0.034
3195.462,333.031,0.0336
3314.99,335.031,0.0341
3434.24,337.031,0.0348
3553.38,339.031,0.0334
3671.52,341.031,0.036
3789.06,343.031,0.0355
3905.72,345.031,0.0313
4021.98,347.031,0.0337
4137.885,349.031,0.0356
4253.73,351.031,0.0327
4369.66,353.031,0.0343
4484.69,355.031,0.0317
4600.04,357.031,0.0341
4714.95,359.031,0.0326
4828.7,361.031,0.0315
4942.32,363.031,0.0328
5055.82,365.031,0.0323
5169.02,367.031,0.0351
5281.962,369.031,0.0311
5394.98,371.031,0.0308
5508.32,373.031,0.0292
5621.292,375.031,0.0311
5734.08,377.031,0.0294
5846.331,379.031,0.0297
5958.87,381.031,0.0297
6071.52,383.031,0.027
6184.035,385.031,0.0251
6296.41,387.031,0.0242
6408.08,389.031,0.025
6520.047,391.031,0.0244
6631.446,393.031,0.0176
6742.32,395.031,0.0152
6852.99,397.031,0.0119
6963.79,399.031,0.00641
7074.696,401.031,0.00258
7185.71,403.031,0.000187
7296.4,405.031,-0.003
7407.11,407.031,-0.0046
7518,409.031,-0.00799
7628.331,411.031,-0.00996
7738.098,413.031,-0.0125
7848.11,415.031,-0.0136
7958.286,417.031,-0.0166
8068.14,419.031,-0.0168
8177.71,421.031,-0.0184
8287.24,423.031,-0.019
8396.44,425.031,-0.0222
8506.41,427.031,-0.0211
8616.25,429.031,-0.0238
8726.63,431.031,-0.0253
8837.37,433.031,-0.027
8948.25,435.031,-0.0281
9058.93,437.031,-0.0306
9169.83,439.031,-0.0318
9280.82,441.031,-0.0346
9391.59,443.031,-0.0385
9502.53,445.031,-0.0411
9613.42,447.031,-0.0451
9724.56,449.031,-0.0437
9835,451.031,-0.0503
9945.53,453.031,-0.0534
10056.7,455.031,-0.0569
10167.3,457.031,-0.0594
10278,459.031,-0.0613
10388.5,461.031,-0.067
10498.812,463.031,-0.0679
10608.6,465.031,-0.0725
10717.797,467.031,-0.0729
10827.1,469.031,-0.0748
10936.527,471.031,-0.076
11046,473.031,-0.0795
11155.2,475.031,-0.0826
11263.3,477.031,-0.086
11371.5,479.031,-0.0868
11480.5,481.031,-0.0886
11589.8,483.031,-0.0888
11699,485.031,-0.0949
11808.576,487.031,-0.0973
11918.511,489.031,-0.097
12028.851,491.031,-0.0976
12139.6,493.031,-0.0974
12250.1,495.031,-0.10168
12359.5,497.031,-0.10432
12468.8,499.031,-0.10363
12577.8,501.031,-0.10412
12687.4,503.031,-0.10298
12798.3,505.031,-0.0978
12909,507.031,-0.0993
13019.2,509.031,-0.0972
13129.3,511.031,-0.1
13239.3,513.031,-0.10004
13350.3,515.031,-0.0965
13460.6,517.031,-0.0968
13570.4,519.031,-0.0975
13681.8,521.031,-0.0957
13794.8,523.031,-0.0914
13908.6,525.031,-0.091
14022.438,527.031,-0.091
14136.2,529.031,-0.0874
14249.9,531.031,-0.0859
14364,533.031,-0.0837
14477.7,535.031,-0.0832
14591.1,537.031,-0.0829
14704.707,539.031,-0.0777
14819,541.031,-0.0733
14933.6,543.031,-0.0703
15048.2,545.031,-0.0619
15163,547.031,-0.0634
15278.1,549.031,-0.0532
15393.1,551.031,-0.0477
15507.7,553.031,-0.0466
15622.3,555.031,-0.041
15737.4,557.031,-0.0383
15852.6,559.031,-0.0295
15967.8,561.031,-0.0231
16083.8,563.031,-0.0138
16199.8,565.031,-0.00883
16315.1,567.031,-0.00277
16429.7,569.031,0.00627
16544.769,571.031,0.0167
16660.5,573.031,0.0264
16776.222,575.031,0.0426
16892.7,577.031,0.0531
17008.9,579.031,0.069
17125.2,581.031,0.0876
17241.8,583.031,0.1035
17358.5,585.031,0.1265
17475.1,587.031,0.15441
17591.4,589.031,0.17903
17707.4,591.031,0.21115
17823.3,593.031,0.24115
17938.9,595.031,0.27791
18055.1,597.031,0.31848
18170.5,599.031,0.34447
18285.9,601.031,0.37446
18401.259,603.031,0.40227
18517,605.031,0.4051
18633.663,607.031,0.3843
18749.9,609.031,0.35766
18865.6,611.031,0.24212
18980.1,613.031,0.0473
19096.9,615.031,0.23365
19212.8,617.031,0.26026
19328.7,619.031,0.24026
19445,621.031,0.35612
19562,623.031,0.257
19678.8,625.031,0.19824
19795.4,627.031,0.1067
19912.4,629.031,0.10806
20029.6,631.031,0.0214
20146.3,633.031,-0.0962
20264.1,635.031,-0.0353
20382.6,637.031,-0.0507
20499.6,639.031,-0.0641
20616.4,641.031,-0.0793
20734.7,643.031,-0.0881
20855.5,645.031,-0.094
20975,647.031,-0.10438
21093.2,649.031,-0.10576
21211,651.031,-0.10124
21329.5,653.031,-0.0954
21447.9,655.031,-0.10238
21565.8,657.031,-0.0978
21684.2,659.031,-0.10492
21802.2,661.031,-0.10896
21920.724,663.031,-0.11921
22040.6,665.031,-0.13473
22160.6,667.031,-0.15756
22279.8,669.031,-0.16658
22398.8,671.031,-0.16516
22517.6,673.031,-0.16684
22638.6,675.031,-0.15476
22763.3,677.031,-0.1491
22886.6,679.031,-0.1486
23010.9,681.031,-0.13642
23133.6,683.031,-0.12946
23256.3,685.031,-0.12625
23377.2,687.031,-0.12559
23497.9,689.031,-0.11947
23618.8,691.031,-0.11685
23740.8,693.031,-0.10738
23863.8,695.031,-0.10447
23985.8,697.031,-0.10706
24108.012,699.031,-0.0978
24229.098,701.031,-0.10172
24349.7,703.031,-0.0934
24472.1,705.031,-0.0855
24599.166,707.031,-0.0733
24725.8,709.031,-0.0736
24853.3,711.031,-0.0645
24979.5,713.031,-0.0626
25107.9,715.031,-0.0453
25236.4,717.031,-0.0419
25362.543,719.031,-0.0434
25486.5,721.031,-0.0389
25609.8,723.031,-0.0322
25733.5,725.031,-0.0289
25858.8,727.031,-0.0221
25985.5,729.031,-0.00762
26114.505,731.031,0.00727
26245.4,733.031,0.00603
26372.1,735.031,0.0107
26499.3,737.031,0.0221
26626.3,739.031,0.0217
26753.4,741.031,0.038
26881.2,743.031,0.0479
27012.1,745.031,0.0766
27142,747.031,0.0644
27265,749.031,0.0575
27389.3,751.031,0.0761
27515.718,753.031,0.0919
27642.6,755.031,0.10002
27767.9,757.031,0.10844
27893.4,759.031,0.13118
28020.5,761.031,0.13329
28147.5,763.031,0.14247
28273.4,765.031,0.15686
28399.5,767.031,0.17188
28526.9,769.031,0.18328
28654.1,771.031,0.19731
28785.4,773.031,0.22476
28920.5,775.031,0.24513
29050.6,777.031,0.2313
29174.4,779.031,0.24059
29298.7,781.031,0.24991
29422.2,783.031,0.26816
29549.6,785.031,0.29232
29682.4,787.031,0.32662
29818.2,789.031,0.31378
29943.2,791.031,0.31346
30069.1,793.031,0.35418
30199,795.031,0.36438
30327.336,797.031,0.38627
30454.4,799.031,0.39728
30586.1,801.031,0.43083
30718.6,803.031,0.43825
30849.8,805.031,0.45557
30982.2,807.031,0.45421
31112.6,809.031,0.47982
31243.425,811.031,0.50042
31371.5,813.031,0.50609
31498.02,815.031,0.52208
31625.6,817.031,0.54341
31750.569,819.031,0.54456
31873.6,821.031,0.55824
32001.5,823.031,0.61091
32133.3,825.031,0.62155
32264,827.031,0.6358
32393.7,829.031,0.64885
32520.699,831.031,0.66423
32650.5,833.031,0.68315
32781.2,835.031,0.69264
32913.954,837.031,0.72365
33050.6,839.031,0.75531
33184,841.031,0.74943
33315,843.031,0.76502
33448.6,845.031,0.78976
33582.666,847.031,0.79872
33711.5,849.031,0.81482
33841.2,851.031,0.82288
33969.4,853.031,0.83229
34095.2,855.031,0.83191
34218.33,857.031,0.85695
34341.2,859.031,0.85306
34466,861.031,0.87697
34588.866,863.031,0.87356
34711.9,865.031,0.90103
34838.3,867.031,0.92178
34958.1,869.031,0.89329
35066.238,871.031,0.85137
35175.1,873.031,0.90399
35308.1,875.031,0.97206
35377.23,876.031,0.95709