File: PMMA/Calibration_Data/Sandia/Sandia_DSC_Ar_50K_1.csv
Time,Temperature,Heat Flow
[s],[K],[W/g]
1200.1,306.872,-7.36E-04
1303.65,308.572,-2.06E-02
1323.87,310.272,-5.85E-02
1337.42,311.972,-0.10327
1347.96,313.672,-0.15077
1356.75,315.372,-0.20058
1364.37,317.072,-0.25328
1371.15,318.772,-0.30289
1377.303,320.472,-0.35808
1382.94,322.172,-0.41737
1388.18,323.872,-0.47176
1393.1,325.572,-0.52976
1397.74,327.272,-0.58654
1402.13,328.972,-0.64813
1406.31,330.672,-0.70954
1410.32,332.372,-0.76923
1414.15,334.072,-0.83004
1417.85,335.772,-0.88801
1421.41,337.472,-0.94787
1424.87,339.172,-1.01016
1428.21,340.872,-1.06996
1431.462,342.572,-1.12622
1434.64,344.272,-1.18715
1437.74,345.972,-1.24541
1440.76,347.672,-1.30428
1443.7,349.372,-1.36402
1446.59,351.072,-1.4204
1449.43,352.772,-1.48097
1452.21,354.472,-1.53997
1454.93,356.172,-1.6032
1457.607,357.872,-1.66752
1460.235,359.572,-1.73093
1462.809,361.272,-1.79067
1465.34,362.972,-1.8506
1467.837,364.672,-1.91209
1470.29,366.372,-1.97243
1472.697,368.072,-2.03459
1475.085,369.772,-2.09707
1477.43,371.472,-2.15581
1479.75,373.172,-2.21306
1482.05,374.872,-2.27322
1484.31,376.572,-2.33429
1486.55,378.272,-2.39208
1488.765,379.972,-2.4454
1490.961,381.672,-2.49694
1493.14,383.372,-2.55339
1495.3,385.072,-2.6085
1497.435,386.772,-2.66264
1499.55,388.472,-2.7183
1501.65,390.172,-2.77297
1503.73,391.872,-2.82931
1505.79,393.572,-2.88628
1507.83,395.272,-2.9452
1509.86,396.972,-3.00832
1511.87,398.672,-3.07615
1513.86,400.372,-3.14086
1515.83,402.072,-3.20961
1517.78,403.772,-3.28368
1519.72,405.472,-3.36159
1521.64,407.172,-3.43633
1523.54,408.872,-3.5108
1525.44,410.572,-3.58513
1527.31,412.272,-3.66196
1529.18,413.972,-3.73865
1531.029,415.672,-3.81341
1532.86,417.372,-3.88548
1534.69,419.072,-3.95723
1536.5,420.772,-4.02657
1538.31,422.472,-4.09488
1540.1,424.172,-4.16601
1541.88,425.872,-4.23387
1543.65,427.572,-4.29868
1545.41,429.272,-4.36356
1547.16,430.972,-4.42697
1548.9,432.672,-4.48691
1550.64,434.372,-4.54366
1552.36,436.072,-4.60073
1554.08,437.772,-4.66218
1555.79,439.472,-4.72025
1557.49,441.172,-4.77859
1559.18,442.872,-4.83147
1560.87,444.572,-4.89018
1562.544,446.272,-4.94178
1564.21,447.972,-4.99727
1565.88,449.672,-5.05364
1567.53,451.372,-5.10615
1569.18,453.072,-5.16067
1570.82,454.772,-5.21411
1572.441,456.472,-5.26727
1574.07,458.172,-5.32089
1575.68,459.872,-5.37534
1577.28,461.572,-5.43093
1578.88,463.272,-5.48725
1580.481,464.972,-5.54867
1582.071,466.672,-5.60977
1583.652,468.372,-5.66804
1585.23,470.072,-5.73003
1586.79,471.772,-5.79066
1588.359,473.472,-5.84968
1589.92,475.172,-5.91047
1591.47,476.872,-5.96994
1593.02,478.572,-6.03096
1594.56,480.272,-6.09369
1596.102,481.972,-6.15308
1597.64,483.672,-6.21311
1599.16,485.372,-6.27302
1600.69,487.072,-6.33392
1602.21,488.772,-6.39648
1603.72,490.472,-6.45752
1605.23,492.172,-6.5196
1606.74,493.872,-6.58151
1608.25,495.572,-6.64716
1609.75,497.272,-6.71704
1611.24,498.972,-6.78776
1612.731,500.672,-6.86035
1614.22,502.372,-6.93403
1615.7,504.072,-7.00301
1617.18,505.772,-7.07367
1618.659,507.472,-7.14483
1620.129,509.172,-7.21423
1621.59,510.872,-7.28353
1623.06,512.572,-7.35325
1624.52,514.272,-7.42289
1625.97,515.972,-7.48559
1627.43,517.672,-7.55116
1628.88,519.372,-7.60955
1630.32,521.072,-7.67083
1631.76,522.772,-7.729
1633.2,524.472,-7.79004
1634.64,526.172,-7.84927
1636.07,527.872,-7.91035
1637.51,529.572,-7.97031
1638.93,531.272,-8.0362
1640.36,532.972,-8.10475
1641.78,534.672,-8.16671
1643.2,536.372,-8.21799
1644.61,538.072,-8.26906
1646.03,539.772,-8.33274
1647.438,541.472,-8.38762
1648.85,543.172,-8.4373
1650.25,544.872,-8.49094
1651.66,546.572,-8.54541
1653.06,548.272,-8.58567
1654.47,549.972,-8.62853
1655.862,551.672,-8.67929
1657.26,553.372,-8.71881
1658.658,555.072,-8.75305
1660.053,556.772,-8.78592
1661.45,558.472,-8.82394
1662.837,560.172,-8.85414
1664.226,561.872,-8.88438
1665.61,563.572,-8.90852
1667,565.272,-8.93149
1668.38,566.972,-8.93463
1669.77,568.672,-8.95505
1671.15,570.372,-8.98267
1672.53,572.072,-9.01632
1673.91,573.772,-9.03911
1675.29,575.472,-9.05456
1676.66,577.172,-9.06796
1678.04,578.872,-9.08058
1679.41,580.572,-9.09662
1680.79,582.272,-9.11267
1682.16,583.972,-9.11435
1683.53,585.672,-9.13023
1684.9,587.372,-9.13896
1686.27,589.072,-9.14694
1687.64,590.772,-9.15259
1689,592.472,-9.16002
1690.37,594.172,-9.16228
1691.74,595.872,-9.15457
1693.1,597.572,-9.14015
1694.47,599.272,-9.1242
1695.83,600.972,-9.09737
1697.2,602.672,-9.06388
1698.56,604.372,-9.02738
1699.93,606.072,-8.98979
1701.29,607.772,-8.9359
1702.65,609.472,-8.87197
1704.02,611.172,-8.79938
1705.38,612.872,-8.72068
1706.75,614.572,-8.63139
1708.11,616.272,-8.53336
1709.475,617.972,-8.42487
1710.84,619.672,-8.31293
1712.21,621.372,-8.18041
1713.58,623.072,-8.0434
1714.944,624.772,-7.89678
1716.312,626.472,-7.73898
1717.683,628.172,-7.56705
1719.05,629.872,-7.39722
1720.43,631.572,-7.20803
1721.8,633.272,-7.01888
1723.17,634.972,-6.83
1724.55,636.672,-6.63501
1725.93,638.372,-6.42971
1727.31,640.072,-6.23252
1728.69,641.772,-6.03995
1730.07,643.472,-5.85456
1731.453,645.172,-5.65747
1732.83,646.872,-5.45702
1734.22,648.572,-5.26177
1735.61,650.272,-5.07154
1737,651.972,-4.87331
1738.392,653.672,-4.67377
1739.78,655.372,-4.48826
1741.18,657.072,-4.29491
1742.58,658.772,-4.09533
1743.98,660.472,-3.91018
1745.379,662.172,-3.73641
1746.783,663.872,-3.57852
1748.19,665.572,-3.43767
1749.6,667.272,-3.32486
1751.01,668.972,-3.22898
1752.43,670.672,-3.16549
1753.84,672.372,-3.09812
1755.26,674.072,-3.04447
1756.68,675.772,-3.02042
1758.11,677.472,-3.01435
1759.54,679.172,-3.01593
1760.97,680.872,-3.04936
1762.401,682.572,-3.14486
1763.838,684.272,-3.33108
1765.278,685.972,-3.63632
1766.72,687.672,-4.01098
1768.16,689.372,-4.43004
1769.61,691.072,-4.84715
1771.05,692.772,-5.23629
1772.5,694.472,-5.59638
1773.95,696.172,-5.9272
1775.4,697.872,-6.23978
1776.85,699.572,-6.53459
1778.31,701.272,-6.8232
1779.77,702.972,-7.09053
1781.22,704.672,-7.34924
1782.687,706.372,-7.59953
1784.15,708.072,-7.83096
1785.62,709.772,-8.0497
1787.09,711.472,-8.25618
1788.57,713.172,-8.45292
1790.05,714.872,-8.63415
1791.53,716.572,-8.8138
1793.007,718.272,-8.97343
1794.5,719.972,-9.12987
1795.99,721.672,-9.2604
1797.48,723.372,-9.37124
1798.98,725.072,-9.45948
1800.48,726.772,-9.52341
1801.98,728.472,-9.58203
1803.49,730.172,-9.64035
1805,731.872,-9.68728
1806.52,733.572,-9.72899
1808.034,735.272,-9.77424
1809.56,736.972,-9.81928
1811.08,738.672,-9.85464
1812.62,740.372,-9.89104
1814.15,742.072,-9.92264
1815.69,743.772,-9.95652
1817.24,745.472,-9.99338
1818.78,747.172,-10.0195
1820.33,748.872,-10.04089
1821.89,750.572,-10.06901
1823.445,752.272,-10.08834
1825.01,753.972,-10.11184
1826.58,755.672,-10.12943
1828.15,757.372,-10.1437
1829.73,759.072,-10.16323
1831.32,760.772,-10.17205
1832.901,762.472,-10.1848
1834.5,764.172,-10.20216
1836.09,765.872,-10.21805
1837.69,767.572,-10.22863
1839.29,769.272,-10.23445
1840.9,770.972,-10.24694
1842.513,772.672,-10.25345
1844.127,774.372,-10.25765
1845.75,776.072,-10.27127
1847.373,777.772,-10.28173
1849,779.472,-10.2858
1850.64,781.172,-10.29013
1852.27,782.872,-10.29801
1853.91,784.572,-10.30808
1855.56,786.272,-10.3118
1857.21,787.972,-10.32187
1858.86,789.672,-10.33647
1860.52,791.372,-10.34407
1862.18,793.072,-10.34596
1863.85,794.772,-10.35061
1865.52,796.472,-10.3541
1867.2,798.172,-10.35864
1868.87,799.872,-10.36918
1870.55,801.572,-10.37691
1872.24,803.272,-10.38689
1873.929,804.972,-10.38491
1875.621,806.672,-10.39767
1877.32,808.372,-10.40354
1879.02,810.072,-10.41956
1880.73,811.772,-10.42502
1882.44,813.472,-10.43689
1883.93,814.872,-10.44392