File: PMMA/Calibration_Data/Sandia/Sandia_TGA_Ar_10K_1.csv
Time,Temperature,Mass,
[s],[K],[mg],
1209.15,307.216,4.91E+00,
1386.97,309.116,4.92E+00,
1429.46,311.016,4.92E+00,
1459.95,312.916,4.92E+00,
1484.83,314.816,4.92E+00,
1506.56,316.716,4.92E+00,
1526.13,318.616,4.92E+00,
1544.11,320.516,4.93E+00,
1560.96,322.416,4.93E+00,
1576.92,324.316,4.93E+00,
1592.14,326.216,4.93E+00,
1606.731,328.116,4.93E+00,
1620.86,330.016,4.93E+00,
1634.54,331.916,4.93E+00,
1647.76,333.816,4.93E+00,
1660.695,335.716,4.92E+00,
1673.331,337.616,4.92E+00,
1685.7,339.516,4.92E+00,
1697.89,341.416,4.92E+00,
1709.88,343.316,4.92E+00,
1721.67,345.216,4.92E+00,
1733.31,347.116,4.92E+00,
1744.83,349.016,4.92E+00,
1756.22,350.916,4.92E+00,
1767.44,352.816,4.92E+00,
1778.54,354.716,4.92E+00,
1789.54,356.616,4.92E+00,
1800.38,358.516,4.92E+00,
1811.1,360.416,4.91E+00,
1821.66,362.316,4.91E+00,
1832.196,364.216,4.91E+00,
1842.66,366.116,4.91E+00,
1852.95,368.016,4.91E+00,
1863.16,369.916,4.91E+00,
1873.32,371.816,4.91E+00,
1883.37,373.716,4.91E+00,
1893.39,375.616,4.91E+00,
1903.359,377.516,4.91E+00,
1913.28,379.416,4.90E+00,
1923.16,381.316,4.90E+00,
1933,383.216,4.90E+00,
1942.8,385.116,4.90E+00,
1952.56,387.016,4.90E+00,
1962.34,388.916,4.90E+00,
1972.05,390.816,4.90E+00,
1981.73,392.716,4.90E+00,
1991.36,394.616,4.90E+00,
2000.949,396.516,4.89E+00,
2010.534,398.416,4.89E+00,
2020.089,400.316,4.89E+00,
2029.59,402.216,4.89E+00,
2039.09,404.116,4.89E+00,
2048.57,406.016,4.89E+00,
2057.99,407.916,4.89E+00,
2067.39,409.816,4.89E+00,
2076.759,411.716,4.89E+00,
2086.12,413.616,4.88E+00,
2095.46,415.516,4.88E+00,
2104.76,417.416,4.88E+00,
2114.06,419.316,4.88E+00,
2123.36,421.216,4.88E+00,
2132.63,423.116,4.87E+00,
2141.901,425.016,4.87E+00,
2151.17,426.916,4.87E+00,
2160.45,428.816,4.87E+00,
2169.7,430.716,4.86E+00,
2178.96,432.616,4.86E+00,
2188.227,434.516,4.86E+00,
2197.51,436.416,4.85E+00,
2206.78,438.316,4.85E+00,
2216.06,440.216,4.84E+00,
2225.34,442.116,4.84E+00,
2234.6,444.016,4.83E+00,
2243.87,445.916,4.83E+00,
2253.144,447.816,4.82E+00,
2262.46,449.716,4.81387,
2271.78,451.616,4.80502,
2281.056,453.516,4.79581,
2290.34,455.416,4.78901,
2299.64,457.316,4.7805,
2308.94,459.216,4.775,
2318.24,461.116,4.76493,
2327.553,463.016,4.758,
2336.89,464.916,4.74782,
2346.24,466.816,4.74179,
2355.57,468.716,4.7343,
2364.91,470.616,4.72802,
2374.25,472.516,4.72102,
2383.63,474.416,4.71501,
2393,476.316,4.70793,
2402.39,478.216,4.70088,
2411.79,480.116,4.696,
2421.25,482.016,4.69175,
2430.68,483.916,4.68508,
2440.12,485.816,4.681,
2449.6,487.716,4.67706,
2459.09,489.616,4.674,
2468.577,491.516,4.67197,
2478.08,493.416,4.67106,
2487.62,495.316,4.669,
2497.15,497.216,4.66797,
2506.69,499.116,4.66482,
2516.274,501.016,4.665,
2525.85,502.916,4.663,
2535.43,504.816,4.663,
2545.06,506.716,4.661,
2554.668,508.616,4.661,
2564.29,510.516,4.659,
2573.907,512.416,4.659,
2583.564,514.316,4.65701,
2593.23,516.216,4.65517,
2602.93,518.116,4.652,
2612.63,520.016,4.65002,
2622.35,521.916,4.64869,
2632.08,523.816,4.646,
2641.85,525.716,4.644,
2651.66,527.616,4.642,
2661.444,529.516,4.63999,
2671.26,531.416,4.63801,
2681.067,533.316,4.63584,
2690.91,535.216,4.63294,
2700.76,537.116,4.629,
2710.65,539.016,4.62451,
2720.55,540.916,4.621,
2730.462,542.816,4.616,
2740.41,544.716,4.61202,
2750.36,546.616,4.60603,
2760.33,548.516,4.59972,
2770.33,550.416,4.59202,
2780.36,552.316,4.58486,
2790.39,554.216,4.57865,
2800.45,556.116,4.56986,
2810.52,558.016,4.56103,
2820.58,559.916,4.55105,
2830.66,561.816,4.542,
2840.763,563.716,4.53043,
2850.89,565.616,4.51878,
2861.019,567.516,4.50797,
2871.17,569.416,4.49601,
2881.314,571.316,4.48305,
2891.48,573.216,4.46999,
2901.654,575.116,4.45622,
2911.81,577.016,4.44413,
2921.97,578.916,4.4284,
2932.176,580.816,4.41321,
2942.37,582.716,4.39413,
2952.56,584.616,4.37667,
2962.74,586.516,4.35778,
2972.99,588.416,4.3405,
2983.27,590.316,4.32215,
2993.54,592.216,4.30202,
3003.79,594.116,4.27794,
3014.07,596.016,4.25274,
3024.36,597.916,4.22586,
3034.67,599.816,4.19805,
3044.99,601.716,4.16625,
3055.33,603.616,4.13108,
3065.69,605.516,4.09564,
3076.04,607.416,4.05294,
3086.39,609.316,4.00968,
3096.753,611.216,3.94798,
3107.151,613.116,3.89649,
3117.55,615.016,3.82993,
3127.95,616.916,3.76297,
3138.37,618.816,3.68917,
3148.83,620.716,3.60711,
3159.282,622.616,3.5178,
3169.737,624.516,3.42112,
3180.2,626.416,3.31758,
3190.7,628.316,3.20586,
3201.207,630.216,3.08835,
3211.707,632.116,2.96521,
3222.222,634.016,2.83314,
3232.75,635.916,2.69802,
3243.27,637.816,2.55738,
3253.82,639.716,2.41288,
3264.37,641.616,2.26199,
3274.92,643.516,2.11151,
3285.438,645.416,1.9522,
3295.97,647.316,1.79666,
3306.53,649.216,1.64124,
3317.1,651.116,1.48979,
3327.7,653.016,1.34267,
3338.298,654.916,1.20088,
3348.9,656.816,1.06972,
3359.472,658.716,0.94291,
3370.07,660.616,0.82688,
3380.66,662.516,0.72081,
3391.251,664.416,0.62679,
3401.83,666.316,0.54462,
3412.41,668.216,0.4687,
3422.97,670.116,0.40215,
3433.58,672.016,0.34541,
3444.16,673.916,0.30294,
3454.75,675.816,0.25995,
3465.354,677.716,0.22014,
3475.965,679.616,0.18494,
3486.57,681.516,0.16079,
3497.21,683.416,0.14031,
3507.86,685.316,0.12098,
3518.52,687.216,0.10406,
3529.215,689.116,0.08913,
3539.92,691.016,0.07826,
3550.67,692.916,0.06647,
3561.42,694.816,0.05656,
3572.23,696.716,0.04809,
3583.026,698.616,0.04354,
3593.86,700.516,0.0388,
3604.71,702.416,0.03484,
3615.59,704.316,0.03094,
3626.49,706.216,0.027,
3637.42,708.116,0.025,
3648.39,710.016,0.023,
3659.36,711.916,0.02301,
3670.35,713.816,0.024,
3681.38,715.716,0.02492,
3692.45,717.616,0.02487,
3703.55,719.516,0.024,
3714.68,721.416,0.023,
3725.85,723.316,0.02203,
3737.03,725.216,0.02202,
3748.26,727.116,0.02187,
3759.49,729.016,0.022,
3770.77,730.916,0.02,
3782.06,732.816,0.02,
3793.4,734.716,0.018,
3804.79,736.616,0.018,
3816.2,738.516,0.01799,
3827.61,740.416,0.02,
3839.04,742.316,0.02,
3850.51,744.216,0.02003,
3861.963,746.116,0.01979,
3873.44,748.016,0.0221,
3884.93,749.916,0.021,
3896.48,751.816,0.019,
3908.02,753.716,0.018,
3919.61,755.616,0.01891,
3931.22,757.516,0.019,
3942.86,759.416,0.01899,
3954.51,761.316,0.02001,
3966.21,763.216,0.02101,
3977.88,765.116,0.02208,
3989.57,767.016,0.022,
4001.25,768.916,0.02,
4012.94,770.816,0.021,
4024.647,772.716,0.021,
4036.34,774.616,0.021,
4048.07,776.516,0.02302,
4059.77,778.416,0.021,
4071.492,780.316,0.023,
4083.24,782.216,0.023,
4095.03,784.116,0.023,
4106.79,786.016,0.023,
4118.56,787.916,0.02286,
4130.35,789.816,0.02,
4142.14,791.716,0.021,
4153.97,793.616,0.021,
4165.77,795.516,0.02102,
4177.57,797.416,0.022,
4189.37,799.316,0.022,
4201.18,801.216,0.022,
4213.01,803.116,0.02201,
4224.84,805.016,0.022,
4236.67,806.916,0.02,
4248.46,808.816,0.021,
4260.249,810.716,0.021,
4272.06,812.616,0.023,
4283.868,814.516,0.02078,
4295.68,816.416,0.023,
4307.53,818.316,0.021,
4319.385,820.216,0.02295,
4331.24,822.116,0.021,
4343.08,824.016,0.022,
4354.959,825.916,0.023,
4366.83,827.816,0.023,
4378.67,829.716,0.02236,
4390.49,831.616,0.022,
4402.341,833.516,0.022,
4414.15,835.416,0.019,
4425.95,837.316,0.01939,
4437.74,839.216,0.019,
4449.5,841.116,0.018,
4461.3,843.016,0.018,
4473.12,844.916,0.02,
4484.91,846.816,0.018,
4496.75,848.716,0.02,
4508.63,850.616,0.02005,
4520.553,852.516,0.02,
4532.53,854.416,0.019,
4544.55,856.316,0.02102,
4556.54,858.216,0.02105,
4568.53,860.116,0.021,
4580.51,862.016,0.02101,
4592.49,863.916,0.022,
4604.43,865.816,0.021,
4616.36,867.716,0.021,
4628.439,869.616,0.02,