File: PMMA/Calibration_Data/Sandia/Sandia_DSC_Ar_10K_2.csv
Time,Temperature,Heat Flow
[s],[K],[W/g]
1200.35,308.35,9.84E-03
1384.52,310.25,-6.80E-03
1428.59,312.15,-1.70E-02
1460.457,314.05,-2.37E-02
1486.79,315.95,-3.43E-02
1509.69,317.85,-3.94E-02
1530.42,319.75,-4.95E-02
1549.53,321.65,-5.64E-02
1567.449,323.55,-6.55E-02
1584.37,325.45,-7.18E-02
1600.49,327.35,-7.76E-02
1615.98,329.25,-8.67E-02
1630.95,331.15,-9.50E-02
1645.38,333.05,-0.10218
1659.42,334.95,-0.11102
1673.049,336.85,-0.11939
1686.34,338.75,-0.13032
1699.35,340.65,-0.13641
1712.08,342.55,-0.14421
1724.61,344.45,-0.15235
1736.91,346.35,-0.15854
1749.01,348.25,-0.1685
1760.96,350.15,-0.17626
1772.748,352.05,-0.18404
1784.34,353.95,-0.19324
1795.81,355.85,-0.20358
1807.14,357.75,-0.21174
1818.31,359.65,-0.22114
1829.38,361.55,-0.23124
1840.27,363.45,-0.24181
1851.06,365.35,-0.25103
1861.752,367.25,-0.26196
1872.33,369.15,-0.26831
1882.854,371.05,-0.27839
1893.279,372.95,-0.28968
1903.626,374.85,-0.29818
1913.92,376.75,-0.31073
1924.14,378.65,-0.31847
1934.32,380.55,-0.32826
1944.45,382.45,-0.33965
1954.52,384.35,-0.34861
1964.56,386.25,-0.35812
1974.56,388.15,-0.36775
1984.52,390.05,-0.37329
1994.45,391.95,-0.38595
2004.31,393.85,-0.39481
2014.15,395.75,-0.40701
2023.93,397.65,-0.41722
2033.67,399.55,-0.42652
2043.38,401.45,-0.44111
2053.07,403.35,-0.45423
2062.677,405.25,-0.46846
2072.25,407.15,-0.48527
2081.78,409.05,-0.5016
2091.31,410.95,-0.51838
2100.792,412.85,-0.53406
2110.251,414.75,-0.54998
2119.686,416.65,-0.56551
2129.09,418.55,-0.57769
2138.47,420.45,-0.59129
2147.841,422.35,-0.60506
2157.19,424.25,-0.62093
2166.549,426.15,-0.63072
2175.89,428.05,-0.64113
2185.2,429.95,-0.65477
2194.53,431.85,-0.66903
2203.851,433.75,-0.67502
2213.18,435.65,-0.68345
2222.52,437.55,-0.69276
2231.86,439.45,-0.70218
2241.19,441.35,-0.7081
2250.53,443.25,-0.7145
2259.86,445.15,-0.72361
2269.18,447.05,-0.7314
2278.51,448.95,-0.74138
2287.85,450.85,-0.7507
2297.17,452.75,-0.75905
2306.49,454.65,-0.77042
2315.817,456.55,-0.78312
2325.15,458.45,-0.79641
2334.46,460.35,-0.81131
2343.77,462.25,-0.83137
2353.08,464.15,-0.84849
2362.39,466.05,-0.86721
2371.71,467.95,-0.88742
2381.05,469.85,-0.90594
2390.373,471.75,-0.9245
2399.69,473.65,-0.9414
2409.06,475.55,-0.96032
2418.41,477.45,-0.97507
2427.79,479.35,-0.99289
2437.17,481.25,-1.01017
2446.55,483.15,-1.03074
2455.94,485.05,-1.05845
2465.36,486.95,-1.08121
2474.772,488.85,-1.10384
2484.192,490.75,-1.12905
2493.618,492.65,-1.15044
2503.041,494.55,-1.17215
2512.5,496.45,-1.19451
2521.97,498.35,-1.21237
2531.442,500.25,-1.2324
2540.92,502.15,-1.24965
2550.42,504.05,-1.26723
2559.93,505.95,-1.28194
2569.44,507.85,-1.29828
2578.97,509.75,-1.31606
2588.51,511.65,-1.32993
2598.06,513.55,-1.34838
2607.6,515.45,-1.35727
2617.18,517.35,-1.37583
2626.78,519.25,-1.38979
2636.38,521.15,-1.40093
2645.97,523.05,-1.41601
2655.58,524.95,-1.42841
2665.2,526.85,-1.44159
2674.84,528.75,-1.44943
2684.49,530.65,-1.46647
2694.16,532.55,-1.47617
2703.85,534.45,-1.49163
2713.55,536.35,-1.50359
2723.27,538.25,-1.5116
2732.985,540.15,-1.52366
2742.74,542.05,-1.53041
2752.51,543.95,-1.54034
2762.3,545.85,-1.55055
2772.12,547.75,-1.55817
2781.98,549.65,-1.55938
2791.82,551.55,-1.56733
2801.7,553.45,-1.5709
2811.61,555.35,-1.57574
2821.55,557.25,-1.58573
2831.51,559.15,-1.59105
2841.48,561.05,-1.58823
2851.46,562.95,-1.59863
2861.487,564.85,-1.59742
2871.513,566.75,-1.60631
2881.56,568.65,-1.60681
2891.631,570.55,-1.61292
2901.71,572.45,-1.61683
2911.788,574.35,-1.62316
2921.91,576.25,-1.63251
2932.017,578.15,-1.63867
2942.14,580.05,-1.64522
2952.28,581.95,-1.65154
2962.44,583.85,-1.65786
2972.6,585.75,-1.65992
2982.8,587.65,-1.66059
2992.99,589.55,-1.654
3003.21,591.45,-1.65228
3013.46,593.35,-1.64754
3023.7,595.25,-1.63761
3033.978,597.15,-1.62633
3044.27,599.05,-1.60889
3054.56,600.95,-1.58137
3064.857,602.85,-1.55454
3075.177,604.75,-1.52519
3085.53,606.65,-1.48807
3095.88,608.55,-1.43905
3106.27,610.45,-1.38884
3116.68,612.35,-1.32488
3127.08,614.25,-1.2602
3137.48,616.15,-1.1752
3147.93,618.05,-1.0947
3158.4,619.95,-1.00088
3168.9,621.85,-0.89771
3179.44,623.75,-0.78732
3189.95,625.65,-0.6817
3200.499,627.55,-0.57843
3211.06,629.45,-0.50169
3221.62,631.35,-0.4431
3232.2,633.25,-0.41397
3242.79,635.15,-0.43271
3253.37,637.05,-0.49124
3263.95,638.95,-0.6556
3274.51,640.85,-1.0199
3285.04,642.75,-1.26045
3295.54,644.65,-1.27485
3306.09,646.55,-1.3375
3316.638,648.45,-1.31011
3327.2,650.35,-1.30449
3337.8,652.25,-1.36032
3348.39,654.15,-1.42489
3358.99,656.05,-1.52451
3369.618,657.95,-1.62351
3380.259,659.85,-1.73545
3390.89,661.75,-1.85746
3401.547,663.65,-1.95582
3412.218,665.55,-2.06877
3422.88,667.45,-2.14717
3433.55,669.35,-2.2318
3444.25,671.25,-2.31981
3454.96,673.15,-2.39483
3465.67,675.05,-2.46544
3476.4,676.95,-2.54132
3487.14,678.85,-2.59882
3497.895,680.75,-2.65276
3508.65,682.65,-2.70138
3519.42,684.55,-2.73556
3530.205,686.45,-2.77045
3541,688.35,-2.80697
3551.8,690.25,-2.84021
3562.6,692.15,-2.87059
3573.4,694.05,-2.90116
3584.21,695.95,-2.92916
3595.035,697.85,-2.9506
3605.86,699.75,-2.97056
3616.707,701.65,-2.99739
3627.54,703.55,-3.02095
3638.391,705.45,-3.0347
3649.26,707.35,-3.04458
3660.15,709.25,-3.06571
3671.02,711.15,-3.07865
3681.89,713.05,-3.09551
3692.775,714.95,-3.11852
3703.67,716.85,-3.13656
3714.58,718.75,-3.15273
3725.5,720.65,-3.16888
3736.43,722.55,-3.18318
3747.35,724.45,-3.19951
3758.325,726.35,-3.21241
3769.32,728.25,-3.22967
3780.33,730.15,-3.23953
3791.337,732.05,-3.25533
3802.365,733.95,-3.26105
3813.4,735.85,-3.27925
3824.45,737.75,-3.29568
3835.51,739.65,-3.3073
3846.58,741.55,-3.32545
3857.67,743.45,-3.34209
3868.776,745.35,-3.35701
3879.85,747.25,-3.37439
3890.92,749.15,-3.38747
3902.02,751.05,-3.40179
3913.14,752.95,-3.41887
3924.26,754.85,-3.43534
3935.382,756.75,-3.45196
3946.5,758.65,-3.47056
3957.61,760.55,-3.48523
3968.736,762.45,-3.49708
3979.87,764.35,-3.5104
3991.01,766.25,-3.52069
4002.15,768.15,-3.53403
4013.31,770.05,-3.54605
4024.47,771.95,-3.55521
4035.68,773.85,-3.56633
4046.86,775.75,-3.57944
4058.06,777.65,-3.59118
4069.28,779.55,-3.59512
4080.513,781.45,-3.60343
4091.74,783.35,-3.60929
4102.97,785.25,-3.6141
4114.239,787.15,-3.62108
4125.51,789.05,-3.62711
4136.82,790.95,-3.62984
4148.14,792.85,-3.63739
4159.47,794.75,-3.64416
4170.8,796.65,-3.65216
4182.12,798.55,-3.66072
4193.45,800.45,-3.6675
4204.785,802.35,-3.684
4216.122,804.25,-3.69032
4227.47,806.15,-3.70135
4238.81,808.05,-3.7158
4250.15,809.95,-3.72417
4261.49,811.85,-3.73813
4272.82,813.75,-3.74861
4284.17,815.65,-3.7598
4295.523,817.55,-3.76783
4306.845,819.45,-3.7796
4318.191,821.35,-3.78612
4329.558,823.25,-3.79143
4340.91,825.15,-3.79667
4352.283,827.05,-3.80034
4363.665,828.95,-3.80612
4375.03,830.85,-3.81111
4386.38,832.75,-3.81751
4397.77,834.65,-3.82416
4409.13,836.55,-3.83015
4420.509,838.45,-3.83865
4431.89,840.35,-3.84375
4443.27,842.25,-3.84411
4454.65,844.15,-3.84466
4466.05,846.05,-3.84586
4477.488,847.95,-3.84909
4488.91,849.85,-3.85024
4500.35,851.75,-3.84699
4511.8,853.65,-3.85043
4523.268,855.55,-3.8531
4534.74,857.45,-3.85
4546.22,859.35,-3.84702
4557.72,861.25,-3.84011
4569.23,863.15,-3.83846
4580.75,865.05,-3.83278
4592.27,866.95,-3.83426
4603.78,868.85,-3.82891
4615.296,870.75,-3.83499
4619.6,871.45,-3.83425