File: PMMA/Calibration_Data/Sandia/Sandia_TGA_Ar_50K_3.csv
Time,Temperature,Mass,
[s],[K],[mg],
1200.1,306.944,4.68E+00,
1303.16,308.644,4.67E+00,
1323.43,310.344,4.66E+00,
1336.947,312.044,4.66E+00,
1347.47,313.744,4.66E+00,
1356.21,315.444,4.65E+00,
1363.758,317.144,4.65E+00,
1370.49,318.844,4.65E+00,
1376.56,320.544,4.65E+00,
1382.16,322.244,4.65E+00,
1387.35,323.944,4.65E+00,
1392.23,325.644,4.65E+00,
1396.818,327.344,4.65E+00,
1401.17,329.044,4.65E+00,
1405.28,330.744,4.65E+00,
1409.25,332.444,4.65E+00,
1413.05,334.144,4.65E+00,
1416.69,335.844,4.65E+00,
1420.23,337.544,4.65E+00,
1423.64,339.244,4.65E+00,
1426.93,340.944,4.65E+00,
1430.157,342.644,4.64E+00,
1433.3,344.344,4.64E+00,
1436.37,346.044,4.64E+00,
1439.36,347.744,4.65E+00,
1442.28,349.444,4.64E+00,
1445.14,351.144,4.64E+00,
1447.94,352.844,4.64E+00,
1450.695,354.544,4.65E+00,
1453.39,356.244,4.64E+00,
1456.04,357.944,4.64E+00,
1458.64,359.644,4.64E+00,
1461.19,361.344,4.64E+00,
1463.71,363.044,4.64E+00,
1466.18,364.744,4.64E+00,
1468.6,366.444,4.64E+00,
1471,368.144,4.64E+00,
1473.36,369.844,4.64E+00,
1475.7,371.544,4.64E+00,
1478,373.244,4.64E+00,
1480.27,374.944,4.64E+00,
1482.52,376.644,4.64E+00,
1484.74,378.344,4.64E+00,
1486.947,380.044,4.64E+00,
1489.13,381.744,4.64E+00,
1491.3,383.444,4.64E+00,
1493.44,385.144,4.64E+00,
1495.57,386.844,4.64E+00,
1497.67,388.544,4.64E+00,
1499.75,390.244,4.64E+00,
1501.82,391.944,4.64E+00,
1503.88,393.644,4.64E+00,
1505.91,395.344,4.64E+00,
1507.929,397.044,4.64E+00,
1509.93,398.744,4.63E+00,
1511.91,400.444,4.63E+00,
1513.87,402.144,4.63E+00,
1515.82,403.844,4.63E+00,
1517.75,405.544,4.63E+00,
1519.67,407.244,4.63E+00,
1521.58,408.944,4.63E+00,
1523.47,410.644,4.63E+00,
1525.341,412.344,4.63E+00,
1527.207,414.044,4.63E+00,
1529.05,415.744,4.63E+00,
1530.89,417.444,4.62E+00,
1532.71,419.144,4.62E+00,
1534.53,420.844,4.62E+00,
1536.33,422.544,4.62E+00,
1538.118,424.244,4.62E+00,
1539.9,425.944,4.62E+00,
1541.67,427.644,4.62E+00,
1543.428,429.344,4.62E+00,
1545.19,431.044,4.62E+00,
1546.93,432.744,4.61E+00,
1548.669,434.444,4.61E+00,
1550.4,436.144,4.61E+00,
1552.12,437.844,4.61E+00,
1553.83,439.544,4.61E+00,
1555.53,441.244,4.61E+00,
1557.23,442.944,4.60E+00,
1558.93,444.644,4.60E+00,
1560.61,446.344,4.60E+00,
1562.28,448.044,4.60E+00,
1563.951,449.744,4.59E+00,
1565.61,451.444,4.59E+00,
1567.26,453.144,4.59E+00,
1568.91,454.844,4.58199,
1570.54,456.544,4.57764,
1572.171,458.244,4.57139,
1573.79,459.944,4.56608,
1575.41,461.644,4.55979,
1577.02,463.344,4.55473,
1578.62,465.044,4.54835,
1580.22,466.744,4.54283,
1581.81,468.444,4.53693,
1583.391,470.144,4.53212,
1584.97,471.844,4.52636,
1586.544,473.544,4.52164,
1588.11,475.244,4.51594,
1589.67,476.944,4.51107,
1591.24,478.644,4.50456,
1592.79,480.344,4.50055,
1594.341,482.044,4.49467,
1595.88,483.744,4.48802,
1597.43,485.444,4.48311,
1598.961,487.144,4.47581,
1600.494,488.844,4.47002,
1602.02,490.544,4.46254,
1603.55,492.244,4.45476,
1605.06,493.944,4.44506,
1606.58,495.644,4.43567,
1608.09,497.344,4.42601,
1609.6,499.044,4.4215,
1611.1,500.744,4.417,
1612.6,502.444,4.4129,
1614.1,504.144,4.409,
1615.59,505.844,4.40551,
1617.08,507.544,4.4032,
1618.56,509.244,4.40072,
1620.04,510.944,4.39795,
1621.52,512.644,4.39703,
1623,514.344,4.39503,
1624.47,516.044,4.39386,
1625.94,517.744,4.39193,
1627.401,519.444,4.3915,
1628.862,521.144,4.39003,
1630.317,522.844,4.38891,
1631.77,524.544,4.38962,
1633.22,526.244,4.38701,
1634.67,527.944,4.38498,
1636.12,529.644,4.38593,
1637.56,531.344,4.38438,
1639,533.044,4.38261,
1640.44,534.744,4.37957,
1641.87,536.444,4.37821,
1643.307,538.144,4.37601,
1644.74,539.844,4.37389,
1646.16,541.544,4.37315,
1647.58,543.244,4.37036,
1649.01,544.944,4.3672,
1650.43,546.644,4.36299,
1651.84,548.344,4.35899,
1653.26,550.044,4.35332,
1654.67,551.744,4.35002,
1656.08,553.444,4.34504,
1657.491,555.144,4.34004,
1658.9,556.844,4.33303,
1660.3,558.544,4.32801,
1661.7,560.244,4.32001,
1663.107,561.944,4.30994,
1664.51,563.644,4.30091,
1665.91,565.344,4.29095,
1667.3,567.044,4.27901,
1668.7,568.744,4.272,
1670.09,570.444,4.26304,
1671.483,572.144,4.25309,
1672.88,573.844,4.24397,
1674.27,575.544,4.23537,
1675.66,577.244,4.22614,
1677.05,578.944,4.21527,
1678.44,580.644,4.20376,
1679.823,582.344,4.19367,
1681.209,584.044,4.18294,
1682.59,585.744,4.17164,
1683.98,587.444,4.16118,
1685.36,589.144,4.14842,
1686.738,590.844,4.13567,
1688.12,592.544,4.12169,
1689.504,594.244,4.10796,
1690.884,595.944,4.0912,
1692.27,597.644,4.0733,
1693.65,599.344,4.05684,
1695.027,601.044,4.0374,
1696.41,602.744,4.01751,
1697.787,604.444,3.99528,
1699.17,606.144,3.97158,
1700.544,607.844,3.94703,
1701.92,609.544,3.92061,
1703.31,611.244,3.89085,
1704.69,612.944,3.8604,
1706.064,614.644,3.82683,
1707.45,616.344,3.7908,
1708.83,618.044,3.7597,
1710.207,619.744,3.7204,
1711.59,621.444,3.67715,
1712.97,623.144,3.63238,
1714.353,624.844,3.58807,
1715.74,626.544,3.53698,
1717.12,628.244,3.48533,
1718.5,629.944,3.43134,
1719.89,631.644,3.2185,
1721.28,633.344,3.15207,
1722.66,635.044,3.08337,
1724.05,636.744,3.01367,
1725.44,638.444,2.9427,
1726.833,640.144,2.86645,
1728.23,641.844,2.7884,
1729.62,643.544,2.70308,
1731.02,645.244,2.61995,
1732.41,646.944,2.54269,
1733.811,648.644,2.45748,
1735.21,650.344,2.36364,
1736.61,652.044,2.2738,
1738.02,653.744,2.18335,
1739.42,655.444,2.09159,
1740.828,657.144,1.9969,
1742.24,658.844,1.90659,
1743.648,660.544,1.81682,
1745.06,662.244,1.72536,
1746.48,663.944,1.63772,
1747.89,665.644,1.54536,
1749.315,667.344,1.44802,
1750.74,669.044,1.35449,
1752.16,670.744,1.26153,
1753.59,672.444,1.1639,
1755.02,674.144,1.06056,
1756.44,675.844,0.98868,
1757.877,677.544,0.9033,
1759.31,679.244,0.81437,
1760.74,680.944,0.73596,
1762.18,682.644,0.66232,
1763.62,684.344,0.59426,
1765.07,686.044,0.52197,
1766.517,687.744,0.45508,
1767.97,689.444,0.39776,
1769.41,691.144,0.3458,
1770.86,692.844,0.30328,
1772.31,694.544,0.2624,
1773.77,696.244,0.22791,
1775.22,697.944,0.19822,
1776.68,699.644,0.16948,
1778.14,701.344,0.14742,
1779.6,703.044,0.13092,
1781.055,704.744,0.12117,
1782.52,706.444,0.1119,
1783.99,708.144,0.10465,
1785.46,709.844,0.09633,
1786.93,711.544,0.08685,
1788.4,713.244,0.07764,
1789.87,714.944,0.06923,
1791.35,716.644,0.06101,
1792.82,718.344,0.05588,
1794.3,720.044,0.05,
1795.78,721.744,0.04766,
1797.264,723.444,0.04314,
1798.75,725.144,0.04211,
1800.24,726.844,0.03793,
1801.73,728.544,0.03599,
1803.23,730.244,0.03383,
1804.73,731.944,0.03286,
1806.237,733.644,0.03309,
1807.75,735.344,0.03194,
1809.27,737.044,0.032,
1810.79,738.744,0.03112,
1812.32,740.444,0.03101,
1813.85,742.144,0.03002,
1815.38,743.844,0.03102,
1816.92,745.544,0.03095,
1818.46,747.244,0.03015,
1820.01,748.944,0.03003,
1821.56,750.644,0.0309,
1823.11,752.344,0.03,
1824.67,754.044,0.032,
1826.229,755.744,0.03004,
1827.79,757.444,0.03093,
1829.37,759.144,0.03196,
1830.94,760.844,0.02999,
1832.52,762.544,0.031,
1834.09,764.244,0.031,
1835.68,765.944,0.03103,
1837.26,767.644,0.03006,
1838.85,769.344,0.03109,
1840.45,771.044,0.02945,
1842.05,772.744,0.03,
1843.66,774.444,0.03102,
1845.27,776.144,0.031,
1846.88,777.844,0.031,
1848.5,779.544,0.03101,
1850.12,781.244,0.03092,
1851.75,782.944,0.03046,
1853.38,784.644,0.031,
1855.01,786.344,0.03097,
1856.65,788.044,0.031,
1858.296,789.744,0.031,
1859.94,791.444,0.02999,
1861.6,793.144,0.03195,
1863.25,794.844,0.03042,
1864.91,796.544,0.03009,
1866.58,798.244,0.032,
1868.25,799.944,0.03005,
1869.927,801.644,0.031,
1871.61,803.344,0.02999,
1873.287,805.044,0.03203,
1874.97,806.744,0.03195,
1876.66,808.444,0.03102,
1878.36,810.144,0.03001,
1880.06,811.844,0.031,
1881.76,813.544,0.03147,
1883.466,815.244,0.03099,
1883.91,815.644,0.031,