File: PMMA/Calibration_Data/Sandia/Sandia_TGA_Ar_10K_2.csv
Time,Temperature,Mass,
[s],[K],[mg],
1200.35,308.35,4.84E+00,
1384.52,310.25,4.84E+00,
1428.59,312.15,4.83E+00,
1460.457,314.05,4.83E+00,
1486.79,315.95,4.83E+00,
1509.69,317.85,4.83E+00,
1530.42,319.75,4.83E+00,
1549.53,321.65,4.83E+00,
1567.449,323.55,4.83E+00,
1584.37,325.45,4.83E+00,
1600.49,327.35,4.82E+00,
1615.98,329.25,4.82E+00,
1630.95,331.15,4.82E+00,
1645.38,333.05,4.82E+00,
1659.42,334.95,4.83E+00,
1673.049,336.85,4.82E+00,
1686.34,338.75,4.82E+00,
1699.35,340.65,4.83E+00,
1712.08,342.55,4.83E+00,
1724.61,344.45,4.82E+00,
1736.91,346.35,4.82E+00,
1749.01,348.25,4.83E+00,
1760.96,350.15,4.83E+00,
1772.748,352.05,4.82E+00,
1784.34,353.95,4.83E+00,
1795.81,355.85,4.83E+00,
1807.14,357.75,4.82E+00,
1818.31,359.65,4.83E+00,
1829.38,361.55,4.83E+00,
1840.27,363.45,4.83E+00,
1851.06,365.35,4.83E+00,
1861.752,367.25,4.83E+00,
1872.33,369.15,4.83E+00,
1882.854,371.05,4.83E+00,
1893.279,372.95,4.83E+00,
1903.626,374.85,4.83E+00,
1913.92,376.75,4.83E+00,
1924.14,378.65,4.83E+00,
1934.32,380.55,4.83E+00,
1944.45,382.45,4.83E+00,
1954.52,384.35,4.83E+00,
1964.56,386.25,4.83E+00,
1974.56,388.15,4.83E+00,
1984.52,390.05,4.83E+00,
1994.45,391.95,4.83E+00,
2004.31,393.85,4.83E+00,
2014.15,395.75,4.83E+00,
2023.93,397.65,4.83E+00,
2033.67,399.55,4.82E+00,
2043.38,401.45,4.83E+00,
2053.07,403.35,4.83E+00,
2062.677,405.25,4.82E+00,
2072.25,407.15,4.82E+00,
2081.78,409.05,4.82E+00,
2091.31,410.95,4.82E+00,
2100.792,412.85,4.82E+00,
2110.251,414.75,4.82E+00,
2119.686,416.65,4.82E+00,
2129.09,418.55,4.82E+00,
2138.47,420.45,4.82E+00,
2147.841,422.35,4.81E+00,
2157.19,424.25,4.81E+00,
2166.549,426.15,4.81E+00,
2175.89,428.05,4.81E+00,
2185.2,429.95,4.81E+00,
2194.53,431.85,4.80E+00,
2203.851,433.75,4.80E+00,
2213.18,435.65,4.80E+00,
2222.52,437.55,4.79E+00,
2231.86,439.45,4.79E+00,
2241.19,441.35,4.78E+00,
2250.53,443.25,4.78E+00,
2259.86,445.15,4.77E+00,
2269.18,447.05,4.76E+00,
2278.51,448.95,4.76E+00,
2287.85,450.85,4.75E+00,
2297.17,452.75,4.74E+00,
2306.49,454.65,4.74E+00,
2315.817,456.55,4.72583,
2325.15,458.45,4.71706,
2334.46,460.35,4.70906,
2343.77,462.25,4.70214,
2353.08,464.15,4.69483,
2362.39,466.05,4.68624,
2371.71,467.95,4.67787,
2381.05,469.85,4.67293,
2390.373,471.75,4.66686,
2399.69,473.65,4.66101,
2409.06,475.55,4.65548,
2418.41,477.45,4.64905,
2427.79,479.35,4.64424,
2437.17,481.25,4.63806,
2446.55,483.15,4.633,
2455.94,485.05,4.62922,
2465.36,486.95,4.625,
2474.772,488.85,4.623,
2484.192,490.75,4.623,
2493.618,492.65,4.62056,
2503.041,494.55,4.61693,
2512.5,496.45,4.614,
2521.97,498.35,4.613,
2531.442,500.25,4.611,
2540.92,502.15,4.609,
2550.42,504.05,4.607,
2559.93,505.95,4.607,
2569.44,507.85,4.607,
2578.97,509.75,4.607,
2588.51,511.65,4.60743,
2598.06,513.55,4.60301,
2607.6,515.45,4.59999,
2617.18,517.35,4.60211,
2626.78,519.25,4.602,
2636.38,521.15,4.5989,
2645.97,523.05,4.595,
2655.58,524.95,4.59401,
2665.2,526.85,4.592,
2674.84,528.75,4.59,
2684.49,530.65,4.58977,
2694.16,532.55,4.58511,
2703.85,534.45,4.58015,
2713.55,536.35,4.575,
2723.27,538.25,4.57501,
2732.985,540.15,4.57,
2742.74,542.05,4.56894,
2752.51,543.95,4.56404,
2762.3,545.85,4.56,
2772.12,547.75,4.55821,
2781.98,549.65,4.54597,
2791.82,551.55,4.53989,
2801.7,553.45,4.5321,
2811.61,555.35,4.52515,
2821.55,557.25,4.518,
2831.51,559.15,4.51107,
2841.48,561.05,4.49885,
2851.46,562.95,4.4891,
2861.487,564.85,4.48008,
2871.513,566.75,4.46849,
2881.56,568.65,4.45499,
2891.631,570.55,4.44127,
2901.71,572.45,4.4289,
2911.788,574.35,4.41547,
2921.91,576.25,4.39978,
2932.017,578.15,4.38682,
2942.14,580.05,4.37302,
2952.28,581.95,4.35615,
2962.44,583.85,4.34415,
2972.6,585.75,4.32249,
2982.8,587.65,4.30546,
2992.99,589.55,4.28882,
3003.21,591.45,4.2755,
3013.46,593.35,4.2513,
3023.7,595.25,4.22521,
3033.978,597.15,4.20195,
3044.27,599.05,4.17257,
3054.56,600.95,4.1444,
3064.857,602.85,4.1102,
3075.177,604.75,4.07347,
3085.53,606.65,4.04007,
3095.88,608.55,3.99226,
3106.27,610.45,3.94531,
3116.68,612.35,3.88551,
3127.08,614.25,3.82822,
3137.48,616.15,3.76131,
3147.93,618.05,3.69112,
3158.4,619.95,3.60833,
3168.9,621.85,3.52137,
3179.44,623.75,3.42975,
3189.95,625.65,3.32998,
3200.499,627.55,3.21753,
3211.06,629.45,3.09878,
3221.62,631.35,2.97592,
3232.2,633.25,2.84665,
3242.79,635.15,2.72051,
3253.37,637.05,2.58148,
3263.95,638.95,2.44036,
3274.51,640.85,2.30356,
3285.04,642.75,2.14066,
3295.54,644.65,1.98811,
3306.09,646.55,1.83543,
3316.638,648.45,1.67057,
3327.2,650.35,1.51509,
3337.8,652.25,1.37173,
3348.39,654.15,1.2255,
3358.99,656.05,1.08782,
3369.618,657.95,0.96587,
3380.259,659.85,0.84996,
3390.89,661.75,0.74736,
3401.547,663.65,0.65141,
3412.218,665.55,0.56729,
3422.88,667.45,0.49937,
3433.55,669.35,0.43497,
3444.25,671.25,0.38751,
3454.96,673.15,0.33191,
3465.67,675.05,0.29161,
3476.4,676.95,0.25131,
3487.14,678.85,0.21499,
3497.895,680.75,0.19251,
3508.65,682.65,0.17269,
3519.42,684.55,0.15275,
3530.205,686.45,0.13406,
3541,688.35,0.12203,
3551.8,690.25,0.11003,
3562.6,692.15,0.10185,
3573.4,694.05,0.09097,
3584.21,695.95,0.08392,
3595.035,697.85,0.07589,
3605.86,699.75,0.06901,
3616.707,701.65,0.06389,
3627.54,703.55,0.059,
3638.391,705.45,0.05803,
3649.26,707.35,0.054,
3660.15,709.25,0.056,
3671.02,711.15,0.05336,
3681.89,713.05,0.055,
3692.775,714.95,0.055,
3703.67,716.85,0.055,
3714.58,718.75,0.057,
3725.5,720.65,0.056,
3736.43,722.55,0.057,
3747.35,724.45,0.055,
3758.325,726.35,0.05701,
3769.32,728.25,0.058,
3780.33,730.15,0.05798,
3791.337,732.05,0.057,
3802.365,733.95,0.05502,
3813.4,735.85,0.056,
3824.45,737.75,0.05607,
3835.51,739.65,0.055,
3846.58,741.55,0.05463,
3857.67,743.45,0.05497,
3868.776,745.35,0.057,
3879.85,747.25,0.057,
3890.92,749.15,0.0538,
3902.02,751.05,0.056,
3913.14,752.95,0.05794,
3924.26,754.85,0.05689,
3935.382,756.75,0.055,
3946.5,758.65,0.05601,
3957.61,760.55,0.05797,
3968.736,762.45,0.056,
3979.87,764.35,0.054,
3991.01,766.25,0.057,
4002.15,768.15,0.0578,
4013.31,770.05,0.057,
4024.47,771.95,0.058,
4035.68,773.85,0.05798,
4046.86,775.75,0.059,
4058.06,777.65,0.05697,
4069.28,779.55,0.057,
4080.513,781.45,0.057,
4091.74,783.35,0.05701,
4102.97,785.25,0.055,
4114.239,787.15,0.05748,
4125.51,789.05,0.05699,
4136.82,790.95,0.059,
4148.14,792.85,0.061,
4159.47,794.75,0.061,
4170.8,796.65,0.0529,
4182.12,798.55,0.05274,
4193.45,800.45,0.055,
4204.785,802.35,0.056,
4216.122,804.25,0.055,
4227.47,806.15,0.058,
4238.81,808.05,0.06004,
4250.15,809.95,0.053,
4261.49,811.85,0.053,
4272.82,813.75,0.05692,
4284.17,815.65,0.05093,
4295.523,817.55,0.053,
4306.845,819.45,0.05803,
4318.191,821.35,0.054,
4329.558,823.25,0.05807,
4340.91,825.15,0.0612,
4352.283,827.05,0.058,
4363.665,828.95,0.05602,
4375.03,830.85,0.056,
4386.38,832.75,0.05501,
4397.77,834.65,0.056,
4409.13,836.55,0.058,
4420.509,838.45,0.058,
4431.89,840.35,0.06,
4443.27,842.25,0.06,
4454.65,844.15,0.05393,
4466.05,846.05,0.05404,
4477.488,847.95,0.056,
4488.91,849.85,0.054,
4500.35,851.75,0.053,
4511.8,853.65,0.05498,
4523.268,855.55,0.05283,
4534.74,857.45,0.054,
4546.22,859.35,0.055,
4557.72,861.25,0.05603,
4569.23,863.15,0.05618,
4580.75,865.05,0.052,
4592.27,866.95,0.055,
4603.78,868.85,0.05383,
4615.296,870.75,0.05738,
4619.6,871.45,0.0539,