File: PMMA/Calibration_Data/Sandia/Sandia_TGA_Ar_50K_1.csv
Time,Temperature,Mass,
[s],[K],[mg],
1200.1,306.872,5.37E+00,
1303.65,308.572,5.37E+00,
1323.87,310.272,5.36E+00,
1337.42,311.972,5.36E+00,
1347.96,313.672,5.36E+00,
1356.75,315.372,5.36E+00,
1364.37,317.072,5.36E+00,
1371.15,318.772,5.36E+00,
1377.303,320.472,5.36E+00,
1382.94,322.172,5.35E+00,
1388.18,323.872,5.35E+00,
1393.1,325.572,5.36E+00,
1397.74,327.272,5.35E+00,
1402.13,328.972,5.35E+00,
1406.31,330.672,5.35E+00,
1410.32,332.372,5.35E+00,
1414.15,334.072,5.35E+00,
1417.85,335.772,5.35E+00,
1421.41,337.472,5.35E+00,
1424.87,339.172,5.35E+00,
1428.21,340.872,5.35E+00,
1431.462,342.572,5.35E+00,
1434.64,344.272,5.35E+00,
1437.74,345.972,5.35E+00,
1440.76,347.672,5.35E+00,
1443.7,349.372,5.35E+00,
1446.59,351.072,5.35E+00,
1449.43,352.772,5.35E+00,
1452.21,354.472,5.35E+00,
1454.93,356.172,5.35E+00,
1457.607,357.872,5.35E+00,
1460.235,359.572,5.35E+00,
1462.809,361.272,5.34E+00,
1465.34,362.972,5.35E+00,
1467.837,364.672,5.34E+00,
1470.29,366.372,5.34E+00,
1472.697,368.072,5.34E+00,
1475.085,369.772,5.34E+00,
1477.43,371.472,5.34E+00,
1479.75,373.172,5.34E+00,
1482.05,374.872,5.34E+00,
1484.31,376.572,5.34E+00,
1486.55,378.272,5.34E+00,
1488.765,379.972,5.34E+00,
1490.961,381.672,5.34E+00,
1493.14,383.372,5.34E+00,
1495.3,385.072,5.34E+00,
1497.435,386.772,5.34E+00,
1499.55,388.472,5.34E+00,
1501.65,390.172,5.34E+00,
1503.73,391.872,5.34E+00,
1505.79,393.572,5.34E+00,
1507.83,395.272,5.34E+00,
1509.86,396.972,5.34E+00,
1511.87,398.672,5.34E+00,
1513.86,400.372,5.34E+00,
1515.83,402.072,5.34E+00,
1517.78,403.772,5.34E+00,
1519.72,405.472,5.33E+00,
1521.64,407.172,5.33E+00,
1523.54,408.872,5.33E+00,
1525.44,410.572,5.33E+00,
1527.31,412.272,5.33E+00,
1529.18,413.972,5.33E+00,
1531.029,415.672,5.33E+00,
1532.86,417.372,5.33E+00,
1534.69,419.072,5.33E+00,
1536.5,420.772,5.32E+00,
1538.31,422.472,5.32E+00,
1540.1,424.172,5.32E+00,
1541.88,425.872,5.32E+00,
1543.65,427.572,5.32E+00,
1545.41,429.272,5.31E+00,
1547.16,430.972,5.31E+00,
1548.9,432.672,5.31E+00,
1550.64,434.372,5.31E+00,
1552.36,436.072,5.30E+00,
1554.08,437.772,5.30E+00,
1555.79,439.472,5.30E+00,
1557.49,441.172,5.29E+00,
1559.18,442.872,5.29E+00,
1560.87,444.572,5.28E+00,
1562.544,446.272,5.2719,
1564.21,447.972,5.2652,
1565.88,449.672,5.25619,
1567.53,451.372,5.24787,
1569.18,453.072,5.23662,
1570.82,454.772,5.22471,
1572.441,456.472,5.21323,
1574.07,458.172,5.20315,
1575.68,459.872,5.19699,
1577.28,461.572,5.18904,
1578.88,463.272,5.1821,
1580.481,464.972,5.17705,
1582.071,466.672,5.17022,
1583.652,468.372,5.16538,
1585.23,470.072,5.15999,
1586.79,471.772,5.1549,
1588.359,473.472,5.14901,
1589.92,475.172,5.14294,
1591.47,476.872,5.13622,
1593.02,478.572,5.13239,
1594.56,480.272,5.12575,
1596.102,481.972,5.119,
1597.64,483.672,5.1151,
1599.16,485.372,5.10842,
1600.69,487.072,5.10102,
1602.21,488.772,5.0973,
1603.72,490.472,5.08989,
1605.23,492.172,5.0846,
1606.74,493.872,5.08112,
1608.25,495.572,5.07562,
1609.75,497.272,5.07202,
1611.24,498.972,5.06856,
1612.731,500.672,5.06492,
1614.22,502.372,5.06312,
1615.7,504.072,5.061,
1617.18,505.772,5.05985,
1618.659,507.472,5.05801,
1620.129,509.172,5.05501,
1621.59,510.872,5.05492,
1623.06,512.572,5.05399,
1624.52,514.272,5.05307,
1625.97,515.972,5.05103,
1627.43,517.672,5.04969,
1628.88,519.372,5.04997,
1630.32,521.072,5.04801,
1631.76,522.772,5.04891,
1633.2,524.472,5.04701,
1634.64,526.172,5.04427,
1636.07,527.872,5.04408,
1637.51,529.572,5.04298,
1638.93,531.272,5.04088,
1640.36,532.972,5.03782,
1641.78,534.672,5.03685,
1643.2,536.372,5.03621,
1644.61,538.072,5.03179,
1646.03,539.772,5.02968,
1647.438,541.472,5.02748,
1648.85,543.172,5.0232,
1650.25,544.872,5.01782,
1651.66,546.572,5.01431,
1653.06,548.272,5.00909,
1654.47,549.972,5.00424,
1655.862,551.672,4.99932,
1657.26,553.372,4.99423,
1658.658,555.072,4.98732,
1660.053,556.772,4.97698,
1661.45,558.472,4.96631,
1662.837,560.172,4.95773,
1664.226,561.872,4.94767,
1665.61,563.572,4.93785,
1667,565.272,4.9276,
1668.38,566.972,4.9191,
1669.77,568.672,4.90965,
1671.15,570.372,4.89955,
1672.53,572.072,4.88866,
1673.91,573.772,4.87888,
1675.29,575.472,4.86609,
1676.66,577.172,4.85527,
1678.04,578.872,4.84264,
1679.41,580.572,4.83303,
1680.79,582.272,4.82104,
1682.16,583.972,4.80845,
1683.53,585.672,4.79571,
1684.9,587.372,4.78101,
1686.27,589.072,4.76631,
1687.64,590.772,4.75064,
1689,592.472,4.73449,
1690.37,594.172,4.71791,
1691.74,595.872,4.69935,
1693.1,597.572,4.67993,
1694.47,599.272,4.65847,
1695.83,600.972,4.63544,
1697.2,602.672,4.60965,
1698.56,604.372,4.58291,
1699.93,606.072,4.5544,
1701.29,607.772,4.52515,
1702.65,609.472,4.491,
1704.02,611.172,4.46047,
1705.38,612.872,4.42506,
1706.75,614.572,4.38248,
1708.11,616.272,4.34166,
1709.475,617.972,4.29679,
1710.84,619.672,4.24876,
1712.21,621.372,4.19589,
1713.58,623.072,4.08468,
1714.944,624.772,3.92097,
1716.312,626.472,3.85132,
1717.683,628.172,3.77802,
1719.05,629.872,3.7049,
1720.43,631.572,3.62464,
1721.8,633.272,3.54455,
1723.17,634.972,3.45852,
1724.55,636.672,3.37156,
1725.93,638.372,3.27879,
1727.31,640.072,3.19441,
1728.69,641.772,3.09979,
1730.07,643.472,3.0013,
1731.453,645.172,2.90149,
1732.83,646.872,2.79191,
1734.22,648.572,2.68631,
1735.61,650.272,2.58081,
1737,651.972,2.47197,
1738.392,653.672,2.36211,
1739.78,655.372,2.25557,
1741.18,657.072,2.14696,
1742.58,658.772,2.04297,
1743.98,660.472,1.9303,
1745.379,662.172,1.82531,
1746.783,663.872,1.71668,
1748.19,665.572,1.60569,
1749.6,667.272,1.49998,
1751.01,668.972,1.4058,
1752.43,670.672,1.30397,
1753.84,672.372,1.20264,
1755.26,674.072,1.10555,
1756.68,675.772,1.013,
1758.11,677.472,0.91833,
1759.54,679.172,0.83123,
1760.97,680.872,0.74943,
1762.401,682.572,0.66839,
1763.838,684.272,0.59636,
1765.278,685.972,0.52908,
1766.72,687.672,0.46693,
1768.16,689.372,0.4123,
1769.61,691.072,0.36375,
1771.05,692.772,0.32216,
1772.5,694.472,0.28012,
1773.95,696.172,0.24572,
1775.4,697.872,0.22208,
1776.85,699.572,0.19282,
1778.31,701.272,0.16875,
1779.77,702.972,0.14879,
1781.22,704.672,0.13549,
1782.687,706.372,0.12815,
1784.15,708.072,0.11928,
1785.62,709.772,0.11078,
1787.09,711.472,0.10204,
1788.57,713.172,0.09172,
1790.05,714.872,0.08221,
1791.53,716.572,0.07186,
1793.007,718.272,0.06592,
1794.5,719.972,0.06001,
1795.99,721.672,0.05718,
1797.48,723.372,0.05302,
1798.98,725.072,0.05098,
1800.48,726.772,0.04896,
1801.98,728.472,0.04621,
1803.49,730.172,0.04409,
1805,731.872,0.04179,
1806.52,733.572,0.04092,
1808.034,735.272,0.0422,
1809.56,736.972,0.0409,
1811.08,738.672,0.04,
1812.62,740.372,0.04,
1814.15,742.072,0.04004,
1815.69,743.772,0.04,
1817.24,745.472,0.04099,
1818.78,747.172,0.03998,
1820.33,748.872,0.03912,
1821.89,750.572,0.04099,
1823.445,752.272,0.04015,
1825.01,753.972,0.04094,
1826.58,755.672,0.039,
1828.15,757.372,0.04095,
1829.73,759.072,0.03899,
1831.32,760.772,0.03897,
1832.901,762.472,0.039,
1834.5,764.172,0.03902,
1836.09,765.872,0.04003,
1837.69,767.572,0.04005,
1839.29,769.272,0.03897,
1840.9,770.972,0.039,
1842.513,772.672,0.039,
1844.127,774.372,0.03794,
1845.75,776.072,0.04,
1847.373,777.772,0.04016,
1849,779.472,0.04001,
1850.64,781.172,0.04,
1852.27,782.872,0.04019,
1853.91,784.572,0.04103,
1855.56,786.272,0.03994,
1857.21,787.972,0.03999,
1858.86,789.672,0.03995,
1860.52,791.372,0.04092,
1862.18,793.072,0.04159,
1863.85,794.772,0.04097,
1865.52,796.472,0.04201,
1867.2,798.172,0.041,
1868.87,799.872,0.04107,
1870.55,801.572,0.041,
1872.24,803.272,0.04119,
1873.929,804.972,0.041,
1875.621,806.672,0.04194,
1877.32,808.372,0.04091,
1879.02,810.072,0.03928,
1880.73,811.772,0.04004,
1882.44,813.472,0.03999,
1883.93,814.872,0.03999,