File: PMMA/Calibration_Data/Sandia/Sandia_DSC_Ar_10K_1.csv
Time,Temperature,Heat Flow
[s],[K],[W/g]
1209.15,307.216,6.03E-04
1386.97,309.116,-2.52E-03
1429.46,311.016,-4.97E-03
1459.95,312.916,-7.28E-03
1484.83,314.816,-1.01E-02
1506.56,316.716,-1.32E-02
1526.13,318.616,-1.49E-02
1544.11,320.516,-1.66E-02
1560.96,322.416,-2.20E-02
1576.92,324.316,-2.42E-02
1592.14,326.216,-2.95E-02
1606.731,328.116,-3.27E-02
1620.86,330.016,-3.67E-02
1634.54,331.916,-4.11E-02
1647.76,333.816,-4.26E-02
1660.695,335.716,-4.78E-02
1673.331,337.616,-5.03E-02
1685.7,339.516,-5.59E-02
1697.89,341.416,-5.92E-02
1709.88,343.316,-6.20E-02
1721.67,345.216,-6.78E-02
1733.31,347.116,-7.16E-02
1744.83,349.016,-7.54E-02
1756.22,350.916,-8.04E-02
1767.44,352.816,-8.56E-02
1778.54,354.716,-9.41E-02
1789.54,356.616,-0.10159
1800.38,358.516,-0.10841
1811.1,360.416,-0.11835
1821.66,362.316,-0.12409
1832.196,364.216,-0.13205
1842.66,366.116,-0.13953
1852.95,368.016,-0.14487
1863.16,369.916,-0.15511
1873.32,371.816,-0.16096
1883.37,373.716,-0.17153
1893.39,375.616,-0.17733
1903.359,377.516,-0.18671
1913.28,379.416,-0.19292
1923.16,381.316,-0.20195
1933,383.216,-0.20949
1942.8,385.116,-0.2182
1952.56,387.016,-0.22775
1962.34,388.916,-0.23166
1972.05,390.816,-0.24298
1981.73,392.716,-0.25151
1991.36,394.616,-0.25804
2000.949,396.516,-0.26516
2010.534,398.416,-0.27504
2020.089,400.316,-0.28911
2029.59,402.216,-0.2998
2039.09,404.116,-0.31317
2048.57,406.016,-0.32479
2057.99,407.916,-0.34191
2067.39,409.816,-0.35434
2076.759,411.716,-0.37112
2086.12,413.616,-0.38316
2095.46,415.516,-0.39693
2104.76,417.416,-0.40685
2114.06,419.316,-0.41894
2123.36,421.216,-0.42624
2132.63,423.116,-0.44199
2141.901,425.016,-0.45217
2151.17,426.916,-0.46225
2160.45,428.816,-0.4714
2169.7,430.716,-0.47877
2178.96,432.616,-0.4872
2188.227,434.516,-0.49794
2197.51,436.416,-0.50257
2206.78,438.316,-0.51291
2216.06,440.216,-0.51722
2225.34,442.116,-0.52081
2234.6,444.016,-0.52885
2243.87,445.916,-0.52966
2253.144,447.816,-0.53332
2262.46,449.716,-0.538
2271.78,451.616,-0.54391
2281.056,453.516,-0.54907
2290.34,455.416,-0.56113
2299.64,457.316,-0.56793
2308.94,459.216,-0.5786
2318.24,461.116,-0.59173
2327.553,463.016,-0.60424
2336.89,464.916,-0.61565
2346.24,466.816,-0.6302
2355.57,468.716,-0.64677
2364.91,470.616,-0.65885
2374.25,472.516,-0.67378
2383.63,474.416,-0.68407
2393,476.316,-0.69537
2402.39,478.216,-0.70826
2411.79,480.116,-0.7232
2421.25,482.016,-0.73321
2430.68,483.916,-0.75176
2440.12,485.816,-0.76994
2449.6,487.716,-0.7904
2459.09,489.616,-0.80956
2468.577,491.516,-0.82672
2478.08,493.416,-0.84094
2487.62,495.316,-0.85868
2497.15,497.216,-0.86923
2506.69,499.116,-0.88498
2516.274,501.016,-0.8937
2525.85,502.916,-0.90716
2535.43,504.816,-0.91536
2545.06,506.716,-0.92705
2554.668,508.616,-0.94092
2564.29,510.516,-0.95311
2573.907,512.416,-0.96095
2583.564,514.316,-0.9718
2593.23,516.216,-0.97882
2602.93,518.116,-0.98801
2612.63,520.016,-0.99824
2622.35,521.916,-1.00411
2632.08,523.816,-1.01223
2641.85,525.716,-1.0201
2651.66,527.616,-1.02339
2661.444,529.516,-1.03216
2671.26,531.416,-1.03703
2681.067,533.316,-1.04384
2690.91,535.216,-1.04483
2700.76,537.116,-1.05007
2710.65,539.016,-1.05644
2720.55,540.916,-1.05783
2730.462,542.816,-1.05867
2740.41,544.716,-1.05739
2750.36,546.616,-1.06226
2760.33,548.516,-1.06238
2770.33,550.416,-1.06181
2780.36,552.316,-1.0602
2790.39,554.216,-1.05877
2800.45,556.116,-1.0543
2810.52,558.016,-1.04944
2820.58,559.916,-1.04855
2830.66,561.816,-1.04716
2840.763,563.716,-1.04216
2850.89,565.616,-1.03885
2861.019,567.516,-1.0361
2871.17,569.416,-1.03349
2881.314,571.316,-1.02964
2891.48,573.216,-1.02733
2901.654,575.116,-1.02462
2911.81,577.016,-1.02037
2921.97,578.916,-1.01399
2932.176,580.816,-1.01393
2942.37,582.716,-1.00985
2952.56,584.616,-1.00172
2962.74,586.516,-0.99459
2972.99,588.416,-0.98447
2983.27,590.316,-0.97379
2993.54,592.216,-0.9553
3003.79,594.116,-0.94171
3014.07,596.016,-0.91902
3024.36,597.916,-0.89009
3034.67,599.816,-0.86261
3044.99,601.716,-0.82847
3055.33,603.616,-0.78808
3065.69,605.516,-0.74411
3076.04,607.416,-0.69499
3086.39,609.316,-0.63623
3096.753,611.216,-0.56882
3107.151,613.116,-0.50002
3117.55,615.016,-0.42196
3127.95,616.916,-0.32978
3138.37,618.816,-0.23784
3148.83,620.716,-0.1364
3159.282,622.616,-2.83E-02
3169.737,624.516,8.04E-02
3180.2,626.416,0.18713
3190.7,628.316,0.27383
3201.207,630.216,0.33665
3211.707,632.116,0.35884
3222.222,634.016,0.38142
3232.75,635.916,0.39462
3243.27,637.816,0.41066
3253.82,639.716,0.37559
3264.37,641.616,0.20286
3274.92,643.516,-7.68E-02
3285.438,645.416,-0.12867
3295.97,647.316,-8.02E-02
3306.53,649.216,-5.36E-03
3317.1,651.116,2.17E-02
3327.7,653.016,7.15E-03
3338.298,654.916,-1.31E-02
3348.9,656.816,-9.11E-02
3359.472,658.716,-0.17487
3370.07,660.616,-0.27291
3380.66,662.516,-0.41159
3391.251,664.416,-0.53797
3401.83,666.316,-0.66806
3412.41,668.216,-0.77754
3422.97,670.116,-0.86836
3433.58,672.016,-0.94156
3444.16,673.916,-1.01308
3454.75,675.816,-1.07796
3465.354,677.716,-1.13915
3475.965,679.616,-1.18843
3486.57,681.516,-1.23571
3497.21,683.416,-1.26451
3507.86,685.316,-1.29368
3518.52,687.216,-1.31817
3529.215,689.116,-1.33453
3539.92,691.016,-1.34941
3550.67,692.916,-1.36576
3561.42,694.816,-1.37418
3572.23,696.716,-1.3816
3583.026,698.616,-1.38849
3593.86,700.516,-1.38304
3604.71,702.416,-1.38155
3615.59,704.316,-1.37073
3626.49,706.216,-1.36132
3637.42,708.116,-1.35033
3648.39,710.016,-1.34284
3659.36,711.916,-1.33713
3670.35,713.816,-1.33268
3681.38,715.716,-1.32552
3692.45,717.616,-1.3249
3703.55,719.516,-1.32523
3714.68,721.416,-1.3289
3725.85,723.316,-1.32777
3737.03,725.216,-1.32718
3748.26,727.116,-1.32595
3759.49,729.016,-1.32748
3770.77,730.916,-1.33113
3782.06,732.816,-1.32873
3793.4,734.716,-1.32392
3804.79,736.616,-1.32676
3816.2,738.516,-1.32758
3827.61,740.416,-1.32696
3839.04,742.316,-1.3319
3850.51,744.216,-1.33636
3861.963,746.116,-1.33386
3873.44,748.016,-1.33193
3884.93,749.916,-1.33394
3896.48,751.816,-1.33266
3908.02,753.716,-1.33144
3919.61,755.616,-1.33006
3931.22,757.516,-1.32983
3942.86,759.416,-1.32467
3954.51,761.316,-1.32453
3966.21,763.216,-1.32412
3977.88,765.116,-1.32078
3989.57,767.016,-1.31849
4001.25,768.916,-1.32028
4012.94,770.816,-1.32023
4024.647,772.716,-1.32081
4036.34,774.616,-1.32417
4048.07,776.516,-1.32222
4059.77,778.416,-1.3224
4071.492,780.316,-1.31896
4083.24,782.216,-1.31852
4095.03,784.116,-1.31474
4106.79,786.016,-1.31222
4118.56,787.916,-1.31033
4130.35,789.816,-1.30434
4142.14,791.716,-1.30645
4153.97,793.616,-1.30804
4165.77,795.516,-1.30208
4177.57,797.416,-1.29759
4189.37,799.316,-1.29905
4201.18,801.216,-1.29291
4213.01,803.116,-1.28547
4224.84,805.016,-1.27936
4236.67,806.916,-1.27053
4248.46,808.816,-1.27228
4260.249,810.716,-1.27453
4272.06,812.616,-1.27347
4283.868,814.516,-1.26753
4295.68,816.416,-1.25394
4307.53,818.316,-1.2451
4319.385,820.216,-1.23393
4331.24,822.116,-1.23034
4343.08,824.016,-1.22084
4354.959,825.916,-1.20302
4366.83,827.816,-1.18051
4378.67,829.716,-1.16864
4390.49,831.616,-1.15893
4402.341,833.516,-1.15511
4414.15,835.416,-1.14881
4425.95,837.316,-1.14827
4437.74,839.216,-1.14445
4449.5,841.116,-1.13608
4461.3,843.016,-1.13417
4473.12,844.916,-1.12981
4484.91,846.816,-1.12719
4496.75,848.716,-1.11854
4508.63,850.616,-1.1044
4520.553,852.516,-1.08489
4532.53,854.416,-1.06598
4544.55,856.316,-1.05543
4556.54,858.216,-1.0515
4568.53,860.116,-1.04427
4580.51,862.016,-1.04501
4592.49,863.916,-1.05154
4604.43,865.816,-1.05574
4616.36,867.716,-1.05237
4628.439,869.616,-1.04422