File: PMMA/Calibration_Data/Sandia/Sandia_TGA_Ar_50K_2.csv
Time,Temperature,Mass,
[s],[K],[mg],
1200.1,306.94,4.84E+00,
1303.854,308.64,4.84E+00,
1323.927,310.34,4.84E+00,
1337.325,312.04,4.84E+00,
1347.76,313.74,4.84E+00,
1356.46,315.44,4.84E+00,
1364.02,317.14,4.84E+00,
1370.71,318.84,4.84E+00,
1376.754,320.54,4.84E+00,
1382.33,322.24,4.84E+00,
1387.48,323.94,4.84E+00,
1392.34,325.64,4.84E+00,
1396.91,327.34,4.84E+00,
1401.24,329.04,4.84E+00,
1405.36,330.74,4.84E+00,
1409.31,332.44,4.84E+00,
1413.087,334.14,4.83E+00,
1416.72,335.84,4.84E+00,
1420.23,337.54,4.84E+00,
1423.626,339.24,4.84E+00,
1426.902,340.94,4.84E+00,
1430.1,342.64,4.84E+00,
1433.217,344.34,4.83E+00,
1436.26,346.04,4.83E+00,
1439.232,347.74,4.83E+00,
1442.14,349.44,4.83E+00,
1444.98,351.14,4.83E+00,
1447.77,352.84,4.83E+00,
1450.488,354.54,4.84E+00,
1453.16,356.24,4.84E+00,
1455.79,357.94,4.84E+00,
1458.37,359.64,4.84E+00,
1460.9,361.34,4.83E+00,
1463.39,363.04,4.83E+00,
1465.845,364.74,4.83E+00,
1468.26,366.44,4.83E+00,
1470.636,368.14,4.83E+00,
1472.98,369.84,4.83E+00,
1475.29,371.54,4.83E+00,
1477.57,373.24,4.83E+00,
1479.82,374.94,4.83E+00,
1482.06,376.64,4.83E+00,
1484.26,378.34,4.83E+00,
1486.44,380.04,4.83E+00,
1488.61,381.74,4.83E+00,
1490.75,383.44,4.83E+00,
1492.88,385.14,4.83E+00,
1494.98,386.84,4.83E+00,
1497.069,388.54,4.83E+00,
1499.14,390.24,4.83E+00,
1501.19,391.94,4.83E+00,
1503.23,393.64,4.83E+00,
1505.25,395.34,4.83E+00,
1507.24,397.04,4.83E+00,
1509.23,398.74,4.82E+00,
1511.19,400.44,4.82E+00,
1513.15,402.14,4.82E+00,
1515.081,403.84,4.82E+00,
1517.004,405.54,4.82E+00,
1518.9,407.24,4.82E+00,
1520.79,408.94,4.82E+00,
1522.66,410.64,4.82E+00,
1524.525,412.34,4.82E+00,
1526.37,414.04,4.82E+00,
1528.2,415.74,4.82E+00,
1530.03,417.44,4.81E+00,
1531.842,419.14,4.81E+00,
1533.64,420.84,4.81E+00,
1535.43,422.54,4.81E+00,
1537.212,424.24,4.81E+00,
1538.98,425.94,4.80E+00,
1540.74,427.64,4.80E+00,
1542.5,429.34,4.80E+00,
1544.24,431.04,4.80E+00,
1545.98,432.74,4.79E+00,
1547.7,434.44,4.79E+00,
1549.42,436.14,4.79E+00,
1551.13,437.84,4.79E+00,
1552.84,439.54,4.78E+00,
1554.54,441.24,4.78E+00,
1556.229,442.94,4.77E+00,
1557.912,444.64,4.77E+00,
1559.59,446.34,4.76E+00,
1561.257,448.04,4.76E+00,
1562.92,449.74,4.75E+00,
1564.575,451.44,4.74E+00,
1566.222,453.14,4.73436,
1567.86,454.84,4.72713,
1569.49,456.54,4.72002,
1571.12,458.24,4.71298,
1572.73,459.94,4.70591,
1574.35,461.64,4.69891,
1575.951,463.34,4.69289,
1577.55,465.04,4.68591,
1579.14,466.74,4.68016,
1580.73,468.44,4.67392,
1582.31,470.14,4.66799,
1583.89,471.84,4.66303,
1585.458,473.54,4.65705,
1587.02,475.24,4.65325,
1588.59,476.94,4.64712,
1590.15,478.64,4.64086,
1591.7,480.34,4.635,
1593.246,482.04,4.63048,
1594.79,483.74,4.62509,
1596.33,485.44,4.6189,
1597.87,487.14,4.61502,
1599.4,488.84,4.60891,
1600.93,490.54,4.60287,
1602.46,492.24,4.60013,
1603.98,493.94,4.59566,
1605.49,495.64,4.59101,
1607,497.34,4.58691,
1608.52,499.04,4.5829,
1610.02,500.74,4.58003,
1611.52,502.44,4.57688,
1613.02,504.14,4.57513,
1614.52,505.84,4.57386,
1616.01,507.54,4.57093,
1617.5,509.24,4.571,
1618.98,510.94,4.5679,
1620.46,512.64,4.56708,
1621.93,514.34,4.56706,
1623.41,516.04,4.56599,
1624.878,517.74,4.56499,
1626.34,519.44,4.56324,
1627.8,521.14,4.56313,
1629.27,522.84,4.56204,
1630.73,524.54,4.561,
1632.18,526.24,4.56103,
1633.63,527.94,4.55785,
1635.08,529.64,4.55809,
1636.53,531.34,4.55776,
1637.97,533.04,4.55498,
1639.42,534.74,4.55338,
1640.85,536.44,4.55119,
1642.29,538.14,4.54899,
1643.73,539.84,4.54687,
1645.16,541.54,4.5438,
1646.59,543.24,4.54198,
1648.01,544.94,4.54012,
1649.44,546.64,4.53526,
1650.86,548.34,4.53199,
1652.28,550.04,4.5261,
1653.7,551.74,4.52099,
1655.12,553.44,4.51589,
1656.54,555.14,4.51085,
1657.95,556.84,4.50617,
1659.37,558.54,4.49846,
1660.78,560.24,4.49058,
1662.19,561.94,4.48198,
1663.6,563.64,4.47087,
1665.01,565.34,4.46244,
1666.42,567.04,4.45179,
1667.82,568.74,4.44374,
1669.22,570.44,4.43435,
1670.62,572.14,4.42543,
1672.02,573.84,4.41571,
1673.43,575.54,4.40667,
1674.82,577.24,4.39564,
1676.22,578.94,4.38692,
1677.62,580.64,4.37485,
1679.01,582.34,4.36502,
1680.4,584.04,4.35394,
1681.8,585.74,4.34415,
1683.19,587.44,4.33055,
1684.58,589.14,4.31703,
1685.97,590.84,4.30424,
1687.36,592.54,4.29044,
1688.75,594.24,4.27635,
1690.13,595.94,4.26147,
1691.52,597.64,4.24364,
1692.91,599.34,4.22689,
1694.3,601.04,4.20804,
1695.68,602.74,4.18726,
1697.07,604.44,4.16446,
1698.46,606.14,4.14142,
1699.842,607.84,4.11572,
1701.23,609.54,4.09007,
1702.62,611.24,4.06076,
1704.003,612.94,4.02778,
1705.39,614.64,3.99761,
1706.77,616.34,3.96328,
1708.16,618.04,3.92555,
1709.55,619.74,3.88547,
1710.936,621.44,3.84476,
1712.33,623.14,3.79829,
1713.714,624.84,3.74857,
1715.11,626.54,3.69877,
1716.498,628.24,3.64605,
1717.89,629.94,3.43334,
1719.28,631.64,3.36492,
1720.68,633.34,3.29775,
1722.07,635.04,3.23089,
1723.46,636.74,3.15324,
1724.86,638.44,3.07288,
1726.26,640.14,2.99749,
1727.661,641.84,2.91123,
1729.06,643.54,2.82887,
1730.47,645.24,2.75427,
1731.873,646.94,2.66541,
1733.28,648.64,2.57056,
1734.69,650.34,2.47188,
1736.1,652.04,2.37707,
1737.51,653.74,2.27409,
1738.93,655.44,2.16988,
1740.34,657.14,2.07594,
1741.758,658.84,1.98182,
1743.17,660.54,1.88538,
1744.6,662.24,1.79171,
1746.02,663.94,1.69276,
1747.45,665.64,1.59443,
1748.87,667.34,1.49394,
1750.31,669.04,1.39262,
1751.74,670.74,1.29232,
1753.17,672.44,1.20571,
1754.6,674.14,1.11514,
1756.04,675.84,1.02435,
1757.48,677.54,0.93805,
1758.927,679.24,0.85755,
1760.37,680.94,0.77683,
1761.82,682.64,0.70317,
1763.27,684.34,0.62675,
1764.72,686.04,0.55738,
1766.18,687.74,0.49658,
1767.64,689.44,0.44309,
1769.09,691.14,0.39824,
1770.55,692.84,0.35371,
1772.01,694.54,0.31694,
1773.48,696.24,0.27962,
1774.94,697.94,0.25311,
1776.402,699.64,0.22839,
1777.87,701.34,0.20738,
1779.34,703.04,0.19173,
1780.82,704.74,0.17884,
1782.29,706.44,0.16806,
1783.77,708.14,0.16052,
1785.25,709.84,0.15029,
1786.728,711.54,0.13878,
1788.21,713.24,0.12749,
1789.7,714.94,0.118,
1791.19,716.64,0.11033,
1792.68,718.34,0.10509,
1794.18,720.04,0.09787,
1795.68,721.74,0.09505,
1797.18,723.44,0.09032,
1798.68,725.14,0.08804,
1800.19,726.84,0.084,
1801.7,728.54,0.083,
1803.21,730.24,0.07992,
1804.73,731.94,0.07803,
1806.25,733.64,0.07601,
1807.77,735.34,0.07504,
1809.303,737.04,0.076,
1810.83,738.74,0.07393,
1812.37,740.44,0.07499,
1813.91,742.14,0.074,
1815.447,743.84,0.07403,
1816.99,745.54,0.07501,
1818.54,747.24,0.07407,
1820.09,748.94,0.07401,
1821.65,750.64,0.07332,
1823.21,752.34,0.07342,
1824.77,754.04,0.07508,
1826.34,755.74,0.07404,
1827.91,757.44,0.07506,
1829.48,759.14,0.07399,
1831.07,760.84,0.07297,
1832.649,762.54,0.07398,
1834.24,764.24,0.07394,
1835.83,765.94,0.07298,
1837.42,767.64,0.07386,
1839.02,769.34,0.07203,
1840.62,771.04,0.07299,
1842.23,772.74,0.07201,
1843.85,774.44,0.07298,
1845.46,776.14,0.073,
1847.08,777.84,0.072,
1848.705,779.54,0.07298,
1850.34,781.24,0.07202,
1851.966,782.94,0.07324,
1853.6,784.64,0.07238,
1855.245,786.34,0.07301,
1856.889,788.04,0.072,
1858.53,789.74,0.073,
1860.18,791.44,0.07205,
1861.84,793.14,0.07401,
1863.5,794.84,0.07398,
1865.169,796.54,0.07311,
1866.84,798.24,0.07227,
1868.52,799.94,0.0721,
1870.19,801.64,0.073,
1871.874,803.34,0.072,
1873.56,805.04,0.07299,
1875.25,806.74,0.07323,
1876.95,808.44,0.07317,
1878.642,810.14,0.07199,
1880.35,811.84,0.073,
1882.05,813.54,0.07199,
1883.77,815.24,0.073,
1883.9,815.34,0.073,