File: Non-charring/PMMA/DBI_Lund/DBI-Lund_Cone_50kW_2.csv
Time,Mass,HRR,Back Surface Temperature
[s],[g],[kW/m2],[K]
0,73.92,2.01242,0
2,73.8605,1.72763,0
4,73.9061,1.35916,0
6,73.93073,1.05104,0
8,73.929,1.3436,0
10,73.895,0.671672,0
12,73.9396,0.220433,0
14,73.9201,0.23504,0
16,73.909,0.472693,0
18,73.8598,0.470405,0
20,73.868,-0.115303,0
22,73.8929,-2.03853,0
24,73.8653,24.1436,0
26,73.85147,62.2287,0
28,73.771,131.486,0
30,73.588,262.55,0
32,73.32073,348.884,0
34,72.9537,452.226,0
36,72.55811,461.88,0
38,72.1851,482.241,0
40,71.7609,524.872,0
42,71.3276,551.112,0
44,70.855,575.891,0
46,70.3773,599.204,0
48,69.893,591.625,0
50,69.3798,611.936,0
52,68.85937,641.193,0
54,68.3583,654.829,0
56,67.8607,662.245,0
58,67.3739,636.804,0
60,66.82858,635.674,0
62,66.3746,635.342,0
64,65.8663,629.378,0
66,65.3568,668.754,0
68,64.7869,637.721,0
70,64.29487,638.21,0
72,63.7402,641.648,0
74,63.2105,655.564,0
76,62.7009,642.673,0
78,62.1012,680.953,0
80,61.6061,683.286,0
82,61.0562,660.453,0
84,60.4969,683.346,0
86,59.899,693.364,0
88,59.3675,688.539,0
90,58.789,681.424,0
92,58.2069,662.508,0
94,57.7062,694.606,0
96,57.14891,694.948,0
98,56.5447,738.675,0
100,55.9502,715.513,0
102,55.4157,718.705,0
104,54.8377,695.27,0
106,54.277,712.667,0
108,53.6429,729.168,0
110,53.0871,747.224,0
112,52.4866,722.049,0
114,51.8829,692.687,0
116,51.28384,749.924,0
118,50.706,771.372,0
120,50.1026,707.647,0
122,49.4715,750.497,0
124,48.8697,739.009,0
126,48.247,766.604,0
128,47.63226,740.085,0
130,47.0183,764.762,0
132,46.3746,774.134,0
134,45.719,765.138,0
136,45.0663,828.149,0
138,44.4611,763.967,0
140,43.8513,776.779,0
142,43.1843,788.418,0
144,42.5165,785.144,0
146,41.8952,792.521,0
148,41.2452,805.689,0
150,40.5584,842.405,0
152,39.9372,756.019,0
154,39.2896,810.207,0
156,38.6041,804.754,0
158,37.8819,821.644,0
160,37.2655,803.206,0
162,36.5876,829.004,0
164,35.8848,845.528,0
166,35.237,849.44,0
168,34.5772,868.88,0
170,33.8761,806.266,0
172,33.1668,835.182,0
174,32.4565,904.801,0
176,31.7831,844.042,0
178,31.0594,842.684,0
180,30.3186,830.995,0
182,29.5555,870.392,0
184,28.8642,858.595,0
186,28.1218,890.016,0
188,27.35412,879.57,0
190,26.5852,937.12,0
192,25.8726,875.74,0
194,25.1372,891.946,0
196,24.3619,904.787,0
198,23.5965,962.68,0
200,22.834,957.326,0
202,22.0663,954.835,0
204,21.2693,910.339,0
206,20.5114,992.095,0
208,19.7319,999.448,0
210,18.978,924.067,0
212,18.18,917.047,0
214,17.4098,952.815,0
216,16.6252,942.88,0
218,15.8456,1016.3,0
220,14.9786,996.558,0
222,14.1554,994.719,0
224,13.4037,1000.59,0
226,12.4634,1015.36,0
228,11.6516,1118.8,0
230,10.7813,989.247,0
232,9.909084,1024.07,0
234,9.089602,1051.66,0
236,8.227741,984.145,0
238,7.344897,1139.82,0
240,6.505997,974.677,0
242,5.673478,994.026,0
244,4.86388,924.219,0
246,4.13193,870.459,0
248,3.520455,829.225,0
250,2.868227,781.406,0
252,2.243295,719.389,0
254,1.709411,571.482,0
256,1.26055,510.735,0
258,0.898699,424.668,0
260,0.654878,362.895,0
262,0.42879,315.608,0
264,0.241907,236.444,0
266,0.066337,186.077,0
268,-0.015878,160.515,0
270,-0.119539,117.791,0
272,-0.20793,98.3007,0
274,-0.238268,76.3386,0
276,-0.282847,54.1509,0
278,-0.326218,41.6719,0
280,-0.340204,27.0071,0
282,-0.358974,17.0489,0
284,-0.375029,12.5251,0
286,-0.33524,7.15438,0
288,-0.337158,6.11834,0
290,-0.364577,4.77706,0
292,-0.35355,3.60097,0
294,-0.357963,2.84574,0
296,-0.361754,2.12457,0
298,-0.390137,1.57016,0
300,-0.380202,1.30861,0
302,-0.375814,1.3121,0
304,-0.376933,1.58029,0
306,-0.38892,1.61362,0
308,-0.3722,1.38758,0
310,-0.386401,1.3464,0
312,-0.400873,1.50472,0
314,-0.444269,1.681,0
316,-0.398423,1.55526,0
318,-0.392303,1.37561,0
320,-0.420041,1.47428,0
322,-0.412354,1.76929,0
324,-0.406378,1.53077,0
326,-0.443713,1.41517,0
328,-0.424574,1.50193,0
330,-0.427261,2.48384,0
332,-0.427695,2.51478,0
334,-0.44285,2.26111,0
336,-0.426,2.23899,0
338,-0.415047,2.25129,0
340,-0.452255,2.57258,0
342,-0.491303,2.01896,0
344,-0.465554,1.4958,0
346,-0.440211,1.43716,0
348,-0.442778,1.20605,0
350,-0.479889,1.09988,0
352,-0.48828,0.789965,0
354,-0.456293,0.774797,0
356,-0.45081,0.936146,0
358,-0.493793,1.11169,0
360,-0.485379,0.221341,0
362,-0.501,0.0281044,0
363,-0.514054,0.004520147,0