File: Non-charring/PMMA/DBI_Lund/DBI-Lund_Cone_65kW_2.csv
Time,Mass,HRR,Back Surface Temperature
[s],[g],[kW/m2],[K]
0,73.86,1.7356,0
2,73.8736,1.58845,0
4,74.1738,1.09694,0
6,74.2044,0.940486,0
8,74.2101,1.2201,0
10,74.21665,1.28169,0
12,74.15709,0.60943,0
14,74.1857,-2.80472,0
16,74.1487,6.26824,0
18,74.09771,53.1883,0
20,74.0271,218.411,0
22,73.7795,315.026,0
24,73.3778,443.333,0
26,72.9168,550.356,0
28,72.4351,612.291,0
30,71.8972,629.421,0
32,71.3966,654.627,0
34,70.8175,679.444,0
36,70.2198,727.846,0
38,69.6469,750.498,0
40,69.0608,742.377,0
42,68.4526,794.242,0
44,67.8464,794.167,0
46,67.2042,814.539,0
48,66.6113,789.103,0
50,65.9895,811.101,0
52,65.3544,770.843,0
54,64.7173,750.503,0
56,64.0649,803.423,0
58,63.4206,792.384,0
60,62.7479,786.091,0
62,62.0763,801.718,0
64,61.4695,808.87,0
66,60.8173,787.503,0
68,60.1754,771.623,0
70,59.4988,808.079,0
72,58.8452,772.621,0
74,58.1902,799.679,0
76,57.52639,841.834,0
78,56.84757,806.147,0
80,56.1885,859.455,0
82,55.5394,863.471,0
84,54.85173,842.802,0
86,54.1881,821.853,0
88,53.4904,804.791,0
90,52.8495,789.906,0
92,52.1454,795.538,0
94,51.4733,813.011,0
96,50.7813,823.658,0
98,50.0703,832.033,0
100,49.3786,874.078,0
102,48.67009,845.026,0
104,47.9643,854.312,0
106,47.217,882.326,0
108,46.482,881.423,0
110,45.7702,900.085,0
112,45.0399,930.296,0
114,44.2753,885.803,0
116,43.5611,955.934,0
118,42.8343,911.068,0
120,42.0958,902.714,0
122,41.3208,835.492,0
124,40.60809,926.205,0
126,39.8385,950.84,0
128,39.0682,906.17,0
130,38.2788,890.39,0
132,37.5242,925.239,0
134,36.7744,961.243,0
136,35.978,950.089,0
138,35.156,1009.67,0
140,34.3532,962.785,0
142,33.5872,975.832,0
144,32.8033,970.452,0
146,31.9872,929.478,0
148,31.135,958.679,0
150,30.3611,976.758,0
152,29.5189,975.153,0
154,28.6688,1017.13,0
156,27.8431,1069.78,0
158,27.0118,1033.77,0
160,26.1474,1004.75,0
162,25.2626,1056.11,0
164,24.4202,979.301,0
166,23.5302,997.496,0
168,22.6264,1080.52,0
170,21.7621,1278.13,0
172,20.8818,1074.34,0
174,19.96262,1080.11,0
176,19.017,1070.24,0
178,18.1149,1100.64,0
180,17.192,1197.29,0
182,16.2403,1144.97,0
184,15.2504,1175.72,0
186,14.303,1193.34,0
188,13.3173,1152.66,0
190,12.3228,1297.74,0
192,11.2559,1489.44,0
194,10.1101,1434.73,0
196,9.028553,1181.22,0
198,7.920362,1355.24,0
200,6.766751,1421.29,0
202,5.60258,1150.71,0
204,4.557108,1352.39,0
206,3.444517,1087.93,0
208,2.645822,942.695,0
210,1.926641,886.776,0
212,1.365667,695.287,0
214,0.951111,523.402,0
216,0.633365,417.392,0
218,0.44612,314.248,0
220,0.269686,263.075,0
222,0.134232,198.657,0
224,0.02151,145.303,0
226,-0.03775,115.177,0
228,-0.093908,84.9887,0
230,-0.146743,58.6911,0
232,-0.189679,40.5824,0
234,-0.159963,23.3073,0
236,-0.167959,16.1827,0
238,-0.224258,8.68348,0
240,-0.213944,6.8904,0
242,-0.210897,6.64839,0
244,-0.203836,5.7587,0
246,-0.213099,4.46361,0
248,-0.237335,4.05847,0
250,-0.25069,3.47954,0
252,-0.235694,2.82419,0
254,-0.255061,1.78444,0
256,-0.265619,1.467,0
258,-0.253342,1.29351,0
260,-0.244675,1.01067,0
262,-0.236853,1.22188,0
264,-0.235671,1.31349,0
266,-0.268554,1.3357,0
268,-0.251199,1.44355,0
270,-0.271385,1.67526,0
272,-0.269565,0.761656,0
274,-0.242297,1.09258,0
276,-0.259115,1.3397,0
278,-0.24987,1.2943,0
280,-0.28858,1.10232,0
282,-0.254349,0.92575,0
284,-0.256923,0.74124,0
286,-0.272766,0.658618,0
288,-0.292799,1.07688,0
290,-0.260209,1.58351,0
292,-0.275117,1.85476,0
294,-0.289403,1.59397,0
296,-0.31834,1.49572,0
298,-0.278474,1.42034,0
300,-0.293588,1.30663,0
302,-0.295495,1.05467,0
304,-0.308784,1.02893,0
306,-0.282773,1.28762,0
308,-0.301248,1.51784,0
310,-0.318327,1.55365,0
312,-0.308157,1.17644,0
314,-0.292786,1.06415,0
316,-0.278535,1.04304,0
318,-0.268337,0.801312,0
320,-0.295663,1.2215,0
322,-0.318304,1.52603,0
324,-0.301905,1.74333,0
326,-0.302467,1.07988,0
328,-0.317698,0.8819,0