File: Non-charring/PMMA/DBI_Lund/DBI-Lund_Cone_65kW_3.csv
Time,Mass,HRR,Back Surface Temperature
[s],[g],[kW/m2],[K]
0,73.03,2.66635,0
2,73.1735,2.53946,0
4,73.2947,1.4448,0
6,73.3059,1.02257,0
8,73.31183,1.00265,0
10,73.3113,0.336861,0
12,73.2814,-0.851973,0
14,73.3161,-5.16743,0
16,73.28332,24.2544,0
18,73.2344,124.603,0
20,73.0352,317.443,0
22,72.7126,419.213,0
24,72.2956,496.426,0
26,71.8621,543.547,0
28,71.363,585.481,0
30,70.8201,669.15,0
32,70.2553,724.628,0
34,69.7345,726.602,0
36,69.1422,766.114,0
38,68.548,708.216,0
40,67.9267,730.385,0
42,67.3525,771.882,0
44,66.7608,782.878,0
46,66.1263,787.703,0
48,65.4982,818.824,0
50,64.839,796.48,0
52,64.2363,807.276,0
54,63.6152,799.652,0
56,62.9708,797.095,0
58,62.3015,841.729,0
60,61.7078,789.129,0
62,61.0605,797.399,0
64,60.3641,814.733,0
66,59.7419,831.792,0
68,59.0482,877.894,0
70,58.38682,827.516,0
72,57.7087,840.269,0
74,57.0522,822.324,0
76,56.4179,805.265,0
78,55.7102,820.567,0
80,55.0027,838.146,0
82,54.329,872.303,0
84,53.6344,788.235,0
86,52.964,808.088,0
88,52.2402,797.698,0
90,51.5441,849.508,0
92,50.8779,843.694,0
94,50.1882,890.86,0
96,49.4901,866.611,0
98,48.7577,929.528,0
100,48.0432,943.227,0
102,47.3548,875.015,0
104,46.6238,865.799,0
106,45.86568,872.576,0
108,45.1125,868.126,0
110,44.4399,882.39,0
112,43.7062,972.534,0
114,42.9609,952.055,0
116,42.1982,981.972,0
118,41.4677,916.555,0
120,40.7243,928.166,0
122,39.9558,876.656,0
124,39.1715,890.606,0
126,38.421,964.987,0
128,37.6714,920.784,0
130,36.896,898.804,0
132,36.1252,973.351,0
134,35.2937,1030.92,0
136,34.5541,1004.45,0
138,33.7496,896.84,0
140,32.952,993.469,0
142,32.1429,977.059,0
144,31.3647,956.457,0
146,30.517,963.621,0
148,29.6681,1047.98,0
150,28.8418,1093,0
152,28.0139,1067.64,0
154,27.11073,987.92,0
156,26.3264,986.887,0
158,25.4277,1057.91,0
160,24.5933,1100.89,0
162,23.6053,1088.38,0
164,22.7874,1140.18,0
166,21.90357,1087.2,0
168,20.9322,1132.23,0
170,20.0634,1106.22,0
172,19.1946,1096.97,0
174,18.2705,1168.71,0
176,17.32626,1292.15,0
178,16.3721,1143.06,0
180,15.4758,1196.76,0
182,14.5372,1106.23,0
184,13.5126,1141.48,0
186,12.4712,1393.85,0
188,11.4734,1236.49,0
190,10.4305,1219.26,0
192,9.380183,1282.04,0
194,8.243236,1216.84,0
196,7.090296,1194.87,0
198,5.990965,1258.65,0
200,4.973994,1353.65,0
202,3.928325,1194.5,0
204,2.975154,1080.67,0
206,2.20243,920.532,0
208,1.516654,725.848,0
210,0.986513,654.926,0
212,0.636187,447.688,0
214,0.427476,383.611,0
216,0.261203,272.423,0
218,0.155924,174.738,0
220,0.089155,138.631,0
222,0.040311,91.5395,0
224,0.000924,65.782,0
226,-0.034431,49.0485,0
228,-0.090289,32.3664,0
230,-0.065038,18.8779,0
232,-0.034,10.2991,0
234,-0.035688,7.08426,0
236,-0.108755,6.62986,0
238,-0.085984,5.40491,0
240,-0.037181,3.78907,0
242,-0.062152,3.63997,0
244,-0.106841,3.80726,0
246,-0.09806,3.06554,0
248,-0.10209,2.66708,0
250,-0.11521,2.1304,0
252,-0.136478,1.88503,0
254,-0.139483,1.87285,0
256,-0.122702,2.45776,0
258,-0.098933,2.89323,0
260,-0.139,2.94695,0
262,-0.142139,2.72409,0
264,-0.119489,2.67147,0
266,-0.12829,2.69286,0
268,-0.182418,2.72304,0
270,-0.189949,2.85949,0
272,-0.176155,2.2857,0
274,-0.16537,2.20248,0
276,-0.185565,2.07773,0
278,-0.176494,1.66539,0
280,-0.144443,1.3393,0
282,-0.165578,1.51415,0
284,-0.216439,1.685,0
286,-0.176752,1.5476,0
288,-0.172649,1.47033,0
290,-0.168262,1.01279,0
292,-0.18461,0.702784,0
294,-0.207364,0.902689,0
296,-0.207897,1.03899,0
298,-0.185354,0.122164,0
300,-0.191602,0.394578,0
302,-0.238993,0.680315,0
304,-0.228254,0.712878,0
306,-0.210595,0.828331,0
308,-0.222158,1.14676,0
310,-0.246303,1.02754,0
312,-0.213648,0.442391,0
314,-0.230361,-0.009261743,0
316,-0.239109,-0.399628,0