File: Non-charring/PMMA/DBI_Lund/DBI-Lund_Cone_25kW_5.csv
Time,Mass,HRR,Back Surface Temperature
[s],[g],[kW/m2],[K]
0,27.52,9.6688,0
3,27.4616,7.56833,0
6,27.4853,4.72748,0
9,27.4425,1.77912,0
12,27.4707,-0.80651,0
15,27.4664,-0.749649,0
18,27.48169,1.91313,0
21,27.4437,2.35058,0
24,27.45856,0.574743,0
27,27.46858,0.59621,0
30,27.5032,-0.145961,0
33,27.4741,-0.454788,0
36,27.4602,-2.31597,0
39,27.4818,-4.22283,0
42,27.467,-5.3318,0
45,27.5096,-4.71365,0
48,27.4744,-4.29137,0
51,27.46086,-4.02804,0
54,27.4536,-4.93542,0
57,27.4507,-5.48722,0
60,27.4679,-3.11104,0
63,27.4583,-0.682502,0
66,27.4604,0.605753,0
69,27.4297,0.282705,0
72,27.4545,-2.38427,0
75,27.4688,-2.86181,0
78,27.4294,-2.9044,0
81,27.4472,-2.47492,0
84,27.4166,-1.92807,0
87,27.4354,-0.265387,0
90,27.3918,0.165328,0
93,27.4254,-0.431004,0
96,27.4167,-0.5885174,0
99,27.3798,-0.2943,0
102,27.3986,0.3009,0
105,27.38475,0.820987,0
108,27.3679,-1.21556,0
111,27.3524,7.70961,0
114,27.3402,90.446,0
117,27.2833,193.877,0
120,27.1431,266.544,0
123,26.9713,315.917,0
126,26.834,350.8,0
129,26.6511,369.213,0
132,26.4366,375.486,0
135,26.2843,380.303,0
138,26.0707,371.468,0
141,25.8744,399.561,0
144,25.7298,409.177,0
147,25.5595,404.932,0
150,25.3488,403.708,0
153,25.2017,409.962,0
156,24.9801,413.622,0
159,24.7797,413.874,0
162,24.5873,410.363,0
165,24.4076,414.544,0
168,24.1832,410.627,0
171,23.9804,427.956,0
174,23.808,418.447,0
177,23.5888,424.186,0
180,23.3977,432.223,0
183,23.2127,431.246,0
186,22.9822,429.876,0
189,22.8042,427.611,0
192,22.5776,439.805,0
195,22.3839,431.063,0
198,22.2044,437.574,0
201,22.006,427.657,0
204,21.7642,431.218,0
207,21.5867,435.978,0
210,21.3143,445.286,0
213,21.135,440.387,0
216,20.9435,437.52,0
219,20.7243,452.828,0
222,20.5073,452.711,0
225,20.3198,434.578,0
228,20.0811,452.485,0
231,19.8922,442.237,0
234,19.6767,451.892,0
237,19.4472,456.81,0
240,19.239,465.872,0
243,19.002,456.18,0
246,18.7902,471.577,0
249,18.5805,471.969,0
252,18.3247,471.076,0
255,18.1692,462.655,0
258,17.8999,462.702,0
261,17.6902,475.443,0
264,17.4896,485.269,0
267,17.2482,482.965,0
270,17.00073,493.061,0
273,16.7734,480.443,0
276,16.54979,491.0088,0
279,16.29837,506.874,0
282,16.0697,493.273,0
285,15.8523,503.912,0
288,15.6108,507.948,0
291,15.35275,507.884,0
294,15.1307,520.975,0
297,14.8717,517.033,0
300,14.6113,533.638,0
303,14.3876,540.098,0
306,14.0823,532.431,0
309,13.8678,533.623,0
312,13.60031,539.349,0
315,13.3484,535.954,0
318,13.09813,560.247,0
321,12.8528,555.986,0
324,12.5858,553.326,0
327,12.3196,554.326,0
330,12.0721,537.432,0
333,11.8233,548.904,0
336,11.5477,559.046,0
339,11.3009,561.005,0
342,11.036,549.932,0
345,10.76599,569.49,0
348,10.4934,566.013,0
351,10.1989,571.486,0
354,9.953443,573.538,0
357,9.673684,595.049,0
360,9.376553,568.134,0
363,9.119025,592.052,0
366,8.867136,583.82,0
369,8.570344,581.643,0
372,8.285993,594.552,0
375,8.024387,615.267,0
378,7.702996,612.674,0
381,7.443895,608.36,0
384,7.186842,597.519,0
387,6.871056,593.591,0
390,6.591761,592.958,0
393,6.256361,610.626,0
396,6.029654,601.014,0
399,5.742426,603.765,0
402,5.454589,584.825,0
405,5.165136,577.651,0
408,4.896633,592.853,0
411,4.624443,602.387,0
414,4.323702,582.371,0
417,4.061535,595.839,0
420,3.784775,618.449,0
423,3.478233,606.589,0
426,3.198489,601.616,0
429,2.913698,605.926,0
432,2.661099,624.512,0
435,2.344464,600.629,0
438,2.109631,606.124,0
441,1.767441,615.728,0
444,1.488793,592.715,0
447,1.198522,555.4,0
450,0.952684,536.659,0
453,0.730506,487.395,0
456,0.496946,439.282,0
459,0.279995,437.281,0
462,0.139548,303.398,0
465,0.011367,196.213,0
468,-0.045911,139.708,0
471,-0.087647,102.375,0
474,-0.133306,76.3497,0
477,-0.139457,62.3253,0
480,-0.213875,45.7528,0
483,-0.189004,36.1543,0
486,-0.204205,27.1594,0
489,-0.219002,23.7131,0
492,-0.23438,20.8593,0
495,-0.261096,17.6203,0
498,-0.279,12.2465,0
501,-0.260586,9.32141,0
504,-0.279963,4.98957,0
507,-0.270644,3.50574,0
510,-0.298067,4.27912,0
513,-0.306614,2.98686,0
516,-0.312776,1.24804,0
519,-0.306997,1.29844,0
522,-0.311555,2.06028,0
525,-0.330845,0.175788,0
528,-0.320915,-2.67768,0
531,-0.352877,-3.18662,0
534,-0.359781,-3.10654,0
537,-0.31191,-2.34351,0
540,-0.35933,-2.47676,0
543,-0.33513,-2.95757,0
546,-0.341356,-3.28906,0
549,-0.304733,-5.79323,0
552,-0.33769,-3.03645,0
555,-0.323519,-2.19066,0
558,-0.323211,-2.19325,0
561,-0.352914,-4.41944,0
564,-0.361261,-5.57136,0
567,-0.371121,-5.39517,0
570,-0.366127,-4.91508,0
573,-0.398605,-2.19866,0
576,-0.35498,-3.04325,0
579,-0.365824,-3.35645,0
582,-0.365139,-3.15206,0
585,-0.369,-3.76645,0
588,-0.36243,-4.34636,0
591,-0.361293,-4.57254,0
594,-0.369643,-2.83231,0
597,-0.37091,-3.11063,0
600,-0.383646,-2.94367,0
603,-0.375376,-4.43305,0
606,-0.358345,-4.47327,0
609,-0.39922,-5.33712,0
612,-0.366767,-4.25813,0
613,-0.363183,-3.13879,0