File: Non-charring/PMMA/DBI_Lund/DBI-Lund_Cone_65kW_1.csv
Time,Mass,HRR,Back Surface Temperature
[s],[g],[kW/m2],[K]
0,73.31,1.04803,295.764
2,73.46624,0.898881,295.726
4,73.61,0.0569524,295.721
6,73.7076,-0.116656,295.714
8,73.8269,-0.0727754,295.6
10,73.9283,-0.740825,295.594
12,74.0028,-3.32763,295.635
14,74.0371,-5.07433,295.635
16,74.0429,48.9087,295.688
18,74.0458,139.054,295.904
20,73.9356,306.072,296.061
22,73.5934,470.365,296.412
24,73.18466,510.752,297.017
26,72.7187,603.152,297.501
28,72.2138,623.625,298.254
30,71.62124,702.327,299.483
32,71.1269,718.918,300.668
34,70.5476,743.368,302.339
36,69.9769,776.239,303.501
38,69.351,805.708,305.223
40,68.76565,790.835,307.463
42,68.1191,765.958,308.926
44,67.4942,769.008,311.065
46,66.8344,803.369,313.759
48,66.2419,841.755,316.152
50,65.5983,830.301,319.137
52,64.936,784.594,320.963
54,64.2822,793.34,323.594
56,63.616,832.352,326.787
58,62.9705,834.668,328.782
60,62.317,829.829,331.579
62,61.6451,827.971,335.05
64,61.0031,828.527,337.753
66,60.3166,809.747,341.225
68,59.6186,843.373,343.346
70,58.9326,770.334,346.28
72,58.3104,801.315,349.732
74,57.6249,814.7,351.881
76,56.9101,875.121,354.788
78,56.2131,853.638,358.26
80,55.54981,832.806,360.326
82,54.85323,911.791,364.51
84,54.1255,876.583,366.58
86,53.4143,848.615,369.196
88,52.713,879.525,372.67
90,52.0144,866.599,374.6
92,51.2874,837.888,377.43
94,50.5946,861.876,380.775
96,49.893,869.753,382.784
98,49.1431,893.061,386.596
100,48.3969,874.023,388.456
102,47.6841,865.277,391.244
104,46.9796,881.673,394.79
106,46.2735,857.102,396.928
108,45.51979,954.709,400
110,44.7899,935.168,403.713
112,44.03814,922.907,405.975
114,43.2575,944.103,410.493
116,42.5023,926.773,412.844
118,41.7409,871.08,415.909
120,40.9613,964.283,419.523
122,40.1503,971.647,421.861
124,39.4244,969.497,425.044
126,38.7197,960.742,427.437
128,37.8554,895.563,431.106
130,37.0599,965.13,435.657
132,36.2863,962.144,438.065
134,35.48339,948.949,441.282
136,34.6774,923.786,445.343
138,33.8679,944.505,447.633
140,33.0907,1008.09,452.104
142,32.2151,947.266,455.366
144,31.4487,962.153,458.12
146,30.5959,1042.03,461.898
148,29.7968,1033.11,465.886
150,28.9003,1107.83,470.594
152,28.0923,1024.34,475.287
154,27.25131,1036.25,478.077
156,26.4081,986.464,481.71
158,25.5415,1097.94,485.741
160,24.64031,1100.81,488.341
162,23.7718,1022.92,491.872
164,22.9192,1152.02,494.768
166,21.9845,1081.88,499.406
168,21.0351,1086.03,504.242
170,20.1579,1067.89,507.638
172,19.2569,1106,513.017
174,18.3075,1043.36,520.645
176,17.38568,1170.85,525.901
178,16.4045,1105.45,535.002
180,15.4127,1233.37,549.394
182,14.44757,1106.28,562.632
184,13.3872,1193.29,576.536
186,12.3954,1237.97,584.83
188,11.3501,1465.36,595.813
190,10.23633,1383.12,606.499
192,9.153481,1283.59,612.553
194,8.106595,1313.82,622.347
196,7.010262,1441.77,632.909
198,5.909118,1508.42,640.276
200,4.970378,1087.09,661.208
202,4.130499,1072.19,678.75
204,3.379629,824.298,724.55
206,2.766587,698.003,837.582
208,2.300683,563.899,907.707
210,1.973389,481.465,1006.467
212,1.712054,391.891,1099.93
214,1.512595,289.707,1079.554
216,1.372367,204.265,1005.221
218,1.295033,162.355,974.931
220,1.208384,104.214,957.348
222,1.153069,84.5499,936.223
224,1.144005,56.1974,928.43
226,1.133825,35.3655,920.337
228,1.124024,25.3038,889.845
230,1.095228,16.868,877.134
232,1.081064,9.48874,862.14
234,1.104635,7.98914,855.57
236,1.119454,6.49683,851.222
238,1.105729,4.9736,839.031
240,1.094496,3.4097,836.191
242,1.09957,2.44711,827.593
244,1.122458,2.28736,826.243
246,1.093557,1.78013,825.385
248,1.074912,1.24936,826.957
250,1.060973,0.98472,826.156
252,1.080104,0.433815,821.2
254,1.098265,-0.0238819,823.875
256,1.089578,-0.179411,822.55
258,1.059355,-0.259259,824.355
260,1.086479,-0.601085,820.638
262,1.081589,-0.673351,820.191
264,1.07813,-0.709466,822.028
266,1.074835,-1.23445,819.735
268,1.069559,-1.61246,823.504
270,1.084711,-1.44821,820.279
272,1.075993,-1.24142,820.367
274,1.045743,-1.78048,821.262
276,1.085569,-2.22184,817.874
278,1.079197,-2.27238,816.179
280,1.053333,-2.04023,815.619
282,1.032863,-1.92805,819.951
284,1.065281,-2.14316,821.363
286,1.045072,-2.26235,822.509
288,1.079969,-2.57735,822.175
290,1.070267,-2.79717,823.915
292,1.053593,-2.86781,824.658
294,1.0484,-3.00949,825.684
296,1.054097,-2.91422,821.8
298,1.079675,-2.66856,821.278
300,1.050446,-2.75537,816.91
302,1.019646,-2.50025,820.673
304,1.057278,-2.18175,821.521
306,1.03779,-2.62887,820.358
308,1.031017,-2.76158,821.542
310,0.989383,-3.71164,822.979
311,1.015315,-3.67023,824.466