File: Non-charring/PMMA/DBI_Lund/DBI-Lund_Cone_50kW_3.csv
Time,Mass,HRR,Back Surface Temperature
[s],[g],[kW/m2],[K]
0,72.42,3.10927,0
2,72.4403,2.91175,0
4,72.494,1.83558,0
6,72.4786,1.80132,0
8,72.482,0.659649,0
10,72.4868,1.45094,0
12,72.4625,1.4724,0
14,72.4893,1.09645,0
16,72.4767,0.981582,0
18,72.4733,0.907011,0
20,72.5051,1.14341,0
22,72.48,0.253498,0
24,72.44379,-1.2057,0
26,72.4181,31.6388,0
28,72.37,113.405,0
30,72.2507,228.329,0
32,72.0308,289.801,0
34,71.721,387.439,0
36,71.3057,470.923,0
38,70.9312,500.727,0
40,70.534,524.321,0
42,70.092,563.119,0
44,69.62002,574.117,0
46,69.1361,602.647,0
48,68.6711,603.807,0
50,68.1919,608.107,0
52,67.6763,655.74,0
54,67.1526,638.332,0
56,66.6979,659.806,0
58,66.1997,664.283,0
60,65.653,639.896,0
62,65.1648,675.31,0
64,64.6407,654.521,0
66,64.1144,647.062,0
68,63.5533,659.868,0
70,63.0447,675.243,0
72,62.5122,658.792,0
74,61.9572,668.412,0
76,61.3958,649.093,0
78,60.8858,659.174,0
80,60.342,693.325,0
82,59.7667,695.419,0
84,59.1922,667.365,0
86,58.66975,684.088,0
88,58.1194,694.174,0
90,57.5467,690.781,0
92,56.9675,694.571,0
94,56.4315,688.391,0
96,55.8695,684.154,0
98,55.2711,703.125,0
100,54.7171,692.655,0
102,54.1573,698.886,0
104,53.5822,695.348,0
106,52.9519,692.717,0
108,52.35737,732.227,0
110,51.7194,753.373,0
112,51.1263,741.128,0
114,50.5459,764.037,0
116,49.9298,724.989,0
118,49.2973,733.564,0
120,48.6912,745.555,0
122,48.10739,748.624,0
124,47.4934,735.637,0
126,46.8556,748.957,0
128,46.2307,743.534,0
130,45.6288,755.308,0
132,45.0085,744.904,0
134,44.344,809.653,0
136,43.6598,790.14,0
138,43.0102,792.663,0
140,42.3701,824.347,0
142,41.7208,826.082,0
144,41.0332,849.844,0
146,40.355,845.182,0
148,39.71874,877.728,0
150,39.0273,833.331,0
152,38.36773,796.26,0
154,37.6613,863.106,0
156,37.0032,867.974,0
158,36.3057,861.225,0
160,35.6093,861.246,0
162,34.8723,856.14,0
164,34.1636,858.932,0
166,33.48998,889.355,0
168,32.8037,849.697,0
170,32.0755,878.59,0
172,31.3541,866.988,0
174,30.63519,903.508,0
176,29.9297,886.241,0
178,29.18507,866.057,0
180,28.42541,897.556,0
182,27.6574,916.077,0
184,26.8862,904.515,0
186,26.1188,958.232,0
188,25.3814,891.527,0
190,24.6171,984.832,0
192,23.8049,889.038,0
194,23.0416,972.867,0
196,22.1966,960.541,0
198,21.4775,951.976,0
200,20.6843,924.9405,0
202,19.9127,993.085,0
204,19.1039,994.628,0
206,18.3137,1007.89,0
208,17.4891,996.902,0
210,16.7191,974.989,0
212,15.8991,955.655,0
214,15.0659,1009.8,0
216,14.2452,1004.26,0
218,13.4348,1045.61,0
220,12.5884,1071.18,0
222,11.6695,1157.04,0
224,10.7706,1219.8,0
226,9.856453,1159.6,0
228,8.948747,1111.25,0
230,8.016234,1157.69,0
232,7.078714,1144.83,0
234,6.150703,1134.52,0
236,5.170396,1066.61,0
238,4.355673,1053.77,0
240,3.479635,1070.07,0
242,2.678718,1048.59,0
244,1.897164,902.707,0
246,1.271363,755.518,0
248,0.744538,638.151,0
250,0.406233,410.682,0
252,0.218454,330.993,0
254,0.062211,250.87,0
256,-0.027158,183.679,0
258,-0.136531,146.455,0
260,-0.197854,104.922,0
262,-0.265026,75.6824,0
264,-0.289169,62.6546,0
266,-0.3024,46.4951,0
268,-0.343996,40.6746,0
270,-0.385192,31.5484,0
272,-0.401227,23.9184,0
274,-0.398325,20.6185,0
276,-0.422912,16.1841,0
278,-0.473964,12.7566,0
280,-0.433228,9.75262,0
282,-0.430775,6.87759,0
284,-0.501961,4.91625,0
286,-0.47447,4.00563,0
288,-0.475401,3.84056,0
290,-0.479035,3.7766,0
292,-0.495046,3.83613,0
294,-0.479513,3.74466,0
296,-0.501876,3.29453,0
298,-0.491671,3.13152,0
300,-0.480556,3.30482,0
302,-0.501117,3.54322,0
304,-0.527516,3.05445,0
306,-0.494899,2.93749,0
308,-0.516378,3.15542,0
310,-0.517976,3.49639,0
312,-0.566254,3.45608,0
314,-0.536457,3.30049,0
316,-0.531834,3.03267,0
318,-0.555006,3.65883,0
320,-0.549429,2.7862,0
322,-0.548476,2.20001,0
324,-0.541805,1.81868,0
326,-0.568555,1.68395,0
328,-0.54776,1.48521,0
330,-0.563962,1.12285,0
332,-0.59996,0.429197,0
334,-0.586564,0.421443,0
336,-0.565867,0.749468,0
338,-0.57403,0.67991,0
340,-0.582657,0.401792,0
342,-0.617955,1.02338,0
344,-0.613338,1.58878,0
346,-0.593119,2.1908,0
348,-0.631218,2.23775,0
350,-0.603194,2.15195,0
352,-0.591561,2.00712,0