File: Non-charring/PMMA/DBI_Lund/DBI-Lund_Cone_25kW_3.csv
Time,Mass,HRR,Back Surface Temperature
[s],[g],[kW/m2],[K]
0,72.24,3.66619,0
2,72.2115,3.73935,0
4,72.2145,3.50467,0
6,72.20819,3.22801,0
8,72.1843,3.30646,0
10,72.2167,2.41278,0
12,72.2176,2.20706,0
14,72.2361,2.14819,0
16,72.2138,2.17946,0
18,72.1881,2.3503,0
20,72.1815,2.57005,0
22,72.1895,2.45849,0
24,72.1926,2.23163,0
26,72.193,1.73327,0
28,72.1872,1.35565,0
30,72.1888,1.4384,0
32,72.1736,1.43609,0
34,72.1803,0.623659,0
36,72.1459,0.762946,0
38,72.1822,0.847892,0
40,72.1936,0.90178,0
42,72.1956,0.658482,0
44,72.1288,0.578053,0
46,72.1908,0.402101,0
48,72.2137,0.384041,0
50,72.2016,0.386786,0
52,72.1646,0.568354,0
54,72.17969,0.760486,0
56,72.17577,0.851679,0
58,72.1377,0.663196,0
60,72.1653,0.435712,0
62,72.1628,0.843761,0
64,72.15915,1.25071,0
66,72.1616,1.49771,0
68,72.13796,1.96424,0
70,72.1537,1.69277,0
72,72.1578,1.25787,0
74,72.1459,1.2207,0
76,72.1394,1.34906,0
78,72.1783,1.10347,0
80,72.1736,0.82491,0
82,72.1592,0.675269,0
84,72.13864,-0.460549,0
86,72.1512,-0.503619,0
88,72.1459,-0.526478,0
90,72.1376,-1.33832,0
92,72.1045,-1.27803,0
94,72.1053,-0.435646,0
96,72.1197,-1.00426,0
98,72.1073,3.08967,0
100,72.064,24.8973,0
102,72.0417,46.3403,0
104,71.9498,91.5158,0
106,71.8162,147.455,0
108,71.6578,175.012,0
110,71.51363,232.912,0
112,71.3189,260.368,0
114,71.0551,303.084,0
116,70.8054,329.245,0
118,70.5464,334.795,0
120,70.2634,356.13,0
122,69.9601,355.165,0
124,69.6618,372.816,0
126,69.3957,369.168,0
128,69.085,383.007,0
130,68.7671,382.972,0
132,68.4152,376.283,0
134,68.157,381.793,0
136,67.87485,385.749,0
138,67.5377,389.654,0
140,67.2063,394.465,0
142,66.9046,428.592,0
144,66.5979,412.189,0
146,66.234,422.699,0
148,65.8778,442.949,0
150,65.5761,416.312,0
152,65.2486,417.645,0
154,64.8854,432.932,0
156,64.545,423.136,0
158,64.215,420.278,0
160,63.8672,453.338,0
162,63.5196,452.741,0
164,63.17706,453.598,0
166,62.8517,439.075,0
168,62.4609,456.974,0
170,62.0808,456.859,0
172,61.755,448.197,0
174,61.3983,447.102,0
176,61.0152,440.735,0
178,60.6475,447.738,0
180,60.3,464.633,0
182,59.9124,449.495,0
184,59.5356,470.642,0
186,59.12993,469.5,0
188,58.7527,475.854,0
190,58.3927,473.531,0
192,57.989,479.244,0
194,57.5744,482.874,0
196,57.2187,509.071,0
198,56.8206,495.682,0
200,56.4167,496.249,0
202,56.0045,491.686,0
204,55.6344,482.309,0
206,55.24058,496.28,0
208,54.8181,485.32,0
210,54.3849,492.333,0
212,53.9642,527.336,0
214,53.6046,503.529,0
216,53.18,505.5,0
218,52.7685,488.883,0
220,52.35224,506.805,0
222,51.9382,502.925,0
224,51.5342,517.739,0
226,51.12503,523.598,0
228,50.675,516.913,0
230,50.2361,527.407,0
232,49.8542,516.208,0
234,49.434,516.017,0
236,48.9896,523.17,0
238,48.5415,523.304,0
240,48.1225,523.481,0
242,47.7198,535.5,0
244,47.2605,507.204,0
246,46.8288,527.965,0
248,46.4083,527.837,0
250,46.0019,542.728,0
252,45.5588,536.942,0
254,45.1298,530.448,0
256,44.7054,521.831,0
258,44.26105,550.282,0
260,43.7768,567.661,0
262,43.3285,555.56,0
264,42.89693,551.133,0
266,42.46816,563.14,0
268,41.987,553.652,0
270,41.5214,566.736,0
272,41.0925,557.222,0
274,40.6335,582.599,0
276,40.1266,562.416,0
278,39.6767,574.712,0
280,39.2181,571.409,0
282,38.7226,591.249,0
284,38.199,604.566,0
286,37.7433,581.78,0
288,37.3128,605.643,0
290,36.8231,597.114,0
292,36.3296,576.252,0
294,35.8169,611.31,0
296,35.3681,631.622,0
298,34.8811,584.815,0
300,34.4002,591.082,0
302,33.9358,598.572,0
304,33.4477,593.907,0
306,32.9503,602.566,0
308,32.4361,592.292,0
310,31.9746,584.563,0
312,31.4947,591.328,0
314,30.9824,611.588,0
316,30.4597,600.729,0
318,29.9823,625.999,0
320,29.485,615.344,0
322,28.9718,622.035,0
324,28.4567,666.869,0
326,27.9733,648.143,0
328,27.4549,637.197,0
330,26.9006,610.619,0
332,26.414,642.499,0
334,25.9181,635.472,0
336,25.3978,653.746,0
338,24.8458,633.74,0
340,24.3445,614.469,0
342,23.83763,644.71,0
344,23.3028,638.572,0
346,22.7977,658.549,0
348,22.2652,658.686,0
350,21.7429,651.358,0
352,21.1814,634.461,0
354,20.6525,652.352,0
356,20.1187,683.248,0
358,19.5711,658.467,0
360,19.0376,666.43,0
362,18.4717,673.249,0
364,17.9397,691.258,0
366,17.3713,685.832,0
368,16.8083,709.88,0
370,16.2273,710.629,0
372,15.6305,733.645,0
374,15.1066,724.808,0
376,14.5241,739.521,0
378,13.9253,705.638,0
380,13.3506,733.463,0
382,12.77803,730.264,0
384,12.2172,756.895,0
386,11.6282,731.385,0
388,11.0479,725.236,0
390,10.4659,703.574,0
392,9.893653,692.134,0
394,9.332185,697.239,0
396,8.72892,692.258,0
398,8.174369,741.474,0
400,7.615858,694.359,0
402,7.047603,710.286,0
404,6.48937,691.488,0
406,5.894003,669.964,0
408,5.335641,686.712,0
410,4.813334,660.222,0
412,4.242216,661.744,0
414,3.698647,618.071,0
416,3.238618,582.657,0
418,2.74477,596.967,0
420,2.2629,565.018,0
422,1.832056,525.017,0
424,1.399516,469.052,0
426,1.035116,408.123,0
428,0.698966,364.679,0
430,0.478127,291.16,0
432,0.3036,215.787,0
434,0.169377,173.743,0
436,0.133997,120.89,0
438,0.085179,84.9463,0
440,0.023671,72.4521,0
442,-0.039537,51.0689,0
444,-0.05456,43.4532,0
446,-0.05092,34.5205,0
448,-0.040902,28.2044,0
450,-0.091038,25.1117,0
452,-0.123181,21.6028,0
454,-0.106224,18.2055,0
456,-0.100138,16.1346,0
458,-0.123599,12.5245,0
460,-0.124371,10.9802,0
462,-0.140475,9.26904,0
464,-0.130776,7.93875,0
466,-0.149351,6.68515,0
468,-0.164964,4.46216,0
470,-0.169295,3.336,0
472,-0.145934,2.61348,0
474,-0.161223,2.64324,0
476,-0.194404,2.63352,0
478,-0.145348,1.84358,0
480,-0.136775,1.69417,0
482,-0.157151,1.67517,0
484,-0.141645,0.948807,0
486,-0.150369,2.01593,0
488,-0.157752,2.14404,0
490,-0.174941,2.35744,0
492,-0.138375,1.92317,0
494,-0.134886,1.85519,0
496,-0.179247,1.466,0
498,-0.185771,1.14121,0
500,-0.135859,1.35105,0
502,-0.151473,0.98801,0
504,-0.168899,0.480089,0
506,-0.158,0.208491,0
508,-0.169436,-0.228318,0
510,-0.171811,-0.536999,0
512,-0.172838,-0.056639,0
514,-0.17376,0.439009,0
516,-0.140756,0.64998,0
518,-0.178172,1.2439,0
520,-0.200673,1.15161,0
521,-0.201375,1.11066,0