File: Non-charring/PMMA/DBI_Lund/DBI-Lund_Cone_25kW_4.csv
Time,Mass,HRR,Back Surface Temperature
[s],[g],[kW/m2],[K]
0,27.74,1.21876,295.779
3,29.47264,-1.22405,295.776
6,29.203,0.388699,295.94
9,29.13442,2.21234,296.077
12,29.0171,2.65796,296.17
15,28.7416,-0.260872,296.343
18,28.6079,-1.95409,296.453
21,28.5547,-3.13269,296.61
24,28.5804,-3.16721,296.753
27,28.5448,-4.9416,297.088
30,28.5033,-4.53352,297.436
33,28.5159,-4.53829,297.941
36,28.4729,-2.41029,298.573
39,28.4841,-2.85136,299.339
42,28.4298,-3.18551,300.22
45,28.5635,-3.07559,301.667
48,28.6986,-2.8485,302.973
51,28.37887,-2.25927,304.368
54,28.3731,-2.66436,305.883
57,28.3426,-3.12252,307.535
60,28.3605,-3.44852,309.412
63,28.3498,-3.36873,311.182
66,28.3274,-3.04937,313.1
69,28.3389,-0.437372,315.143
72,28.524,0.129521,317.166
75,28.7447,-3.01337,319.283
78,28.6793,-3.06876,321.981
81,28.6821,-3.21273,324.286
84,28.6487,-0.840346,326.675
87,28.6575,-1.90642,329.039
90,28.6515,-1.68748,331.493
93,28.6515,0.224004,334.672
96,28.6571,-2.00043,337.266
99,28.6277,-2.23252,339.813
102,28.5816,-2.09714,342.415
105,28.5792,-2.26979,345.073
108,28.6041,-5.0457,347.762
111,28.5693,21.358,350.084
114,28.4174,98.5024,352.954
117,28.4682,161.892,355.958
120,28.3775,222.045,358.672
123,28.2453,276.012,361.379
126,28.1031,304.519,364.773
129,27.9514,323.734,367.601
132,27.7953,315.576,370.447
135,27.6222,328.811,373.383
138,27.4321,329.523,376.149
141,27.2819,327.911,379.4
144,27.108,329.457,381.727
147,26.93694,340.034,383.635
150,26.6931,341.831,385.165
153,26.4734,350.204,386.316
156,26.2662,356.716,387.185
159,26.04517,352.03,387.988
162,25.8858,363.917,388.547
165,25.7156,366.317,389.764
168,25.5144,363.982,390.776
171,25.3172,364.816,392.062
174,25.1715,368.956,393.762
177,25.00406,386.252,395.35
180,24.75616,379.253,397.019
183,24.5958,368.491,398.837
186,24.4054,378.19,400.738
189,24.217,381.126,403.141
192,24.0414,372.558,405.153
195,23.817,387.675,407.085
198,23.6621,388.127,409.097
201,23.4564,385.547,411.081
204,23.2315,390.492,413.17
207,23.0729,381.141,415.16
210,22.8408,401.754,417.317
213,22.6222,400.124,419.324
216,22.4557,389.893,421.403
219,22.2358,394.85,423.511
222,22.0558,401.333,425.552
225,21.8963,404.622,427.975
228,21.663,397.428,430.011
231,21.4841,399.72,432.082
234,21.23795,409.905,434.11
237,21.0378,411.24,435.901
240,20.8301,414.388,438.481
243,20.631,401.311,440.495
246,20.43833,410.796,442.512
249,20.23073,408.235,444.439
252,20.0575,415.362,446.461
255,19.8458,411.265,448.947
258,19.5848,407.105,450.965
261,19.3868,429,452.909
264,19.1949,415.933,455.011
267,18.96024,420.01,456.951
270,18.747,427.681,458.914
273,18.55167,442.124,460.838
276,18.3287,437.267,462.834
279,18.0725,447.284,464.67
282,17.8884,450.28,466.666
285,17.6256,432.46,468.569
288,17.4564,439.012,470.852
291,17.1822,457.369,472.929
294,16.9703,460.379,474.893
297,16.7514,471.345,476.791
300,16.5252,472.659,478.691
303,16.291,477.892,481.073
306,16.04559,477.925,482.86
309,15.784,484.004,484.784
312,15.5608,485.947,486.624
315,15.3093,487.502,488.494
318,15.0723,496.695,490.335
321,14.8302,496.643,492.15
324,14.5843,492.385,494.063
327,14.3583,482.323,495.95
330,14.1238,488.393,497.99
333,13.873,507.585,499.989
336,13.64387,503.483,502.163
339,13.347,506.578,504.756
342,13.1337,498.665,506.994
345,12.8932,507.329,509.182
348,12.6756,500.911,511.193
351,12.4259,511.195,513.503
354,12.14387,519.159,516.461
357,11.8909,517.01,518.843
360,11.6811,523.1,521.29
363,11.42249,522.261,523.717
366,11.1403,529.498,526.032
369,10.8934,531.956,528.467
372,10.6407,529.635,530.927
375,10.3505,549.599,533.528
378,10.1183,543.328,535.968
381,9.841914,544.535,538.501
384,9.58538,557.066,541.222
387,9.302713,568.842,544.65
390,8.964548,565.358,548.563
393,8.694399,576.508,559.587
396,8.406447,569.007,570.453
399,8.13843,568.301,578.89
402,7.866698,582.051,586.712
405,7.607607,581.391,591.467
408,7.323638,592.689,595.513
411,7.006576,600.54,598.845
414,6.740359,592.434,601.997
417,6.457897,584.675,605.038
420,6.149877,583.506,607.846
423,5.860878,585.122,610.65
426,5.590808,603.137,613.362
429,5.306792,603.693,616.826
432,5.002912,604.078,618.988
435,4.732722,591.837,622.578
438,4.451381,603.504,625.636
441,4.16012,605.856,628.791
444,3.895083,604.405,632.079
447,3.609403,599.371,635.506
450,3.310461,572.31,639.759
453,3.061481,585.092,646.038
456,2.820042,566.14,651.553
459,2.538994,562.327,657.965
462,2.286236,537.838,666.261
465,2.041269,530.099,674.544
468,1.818281,514.418,684.367
471,1.574938,465.057,696.377
474,1.382545,396.06,709.03
477,1.234096,343.924,730.124
480,1.10519,307.388,798.338
483,0.980225,280.625,833.627
486,0.839532,258.516,865.468
489,0.715866,243.145,878.321
492,0.611502,224.01,900.3
495,0.49929,197.694,911.97
498,0.450105,177.11,928.373
501,0.363897,157.33,940.345
504,0.276274,138.464,964.544
507,0.231654,118.948,969.685
510,0.179088,104.362,967.801
513,0.112382,92.2818,962.409
516,0.094224,74.986,950.052
519,0.054992,60.5678,941.235
522,0.055099,42.5753,929.774
525,0.067,35.3125,921.051
528,0.041904,24.8775,885.393
531,-0.055708,19.1322,842.391
534,-0.116602,11.8534,800.354
537,0.008092,6.3354,779.978
540,0.016854,4.45377,761.231
543,0.021063,2.76432,749.489
546,0.023553,0.845291,740.119
549,0.015649,0.287734,732.14
552,-0.004544,-1.46233,727.459
555,-0.011252,-1.3233,724.171
558,-0.014663,-0.442236,721.658
561,-0.013086,-0.412093,718.364
564,-0.000519,-1.40315,716.704
567,-0.004034,-1.91834,716.762
570,0.018082,-3.77926,716.602
573,0.018251,-3.33278,714.496
576,-0.006178,0.02982264,712.434
579,-0.002367,-0.927474,712.124
582,0.00595,-1.20813,710.441
585,0.003033,-0.518168,707.805
588,-0.011537,0.270337,706.099
591,-0.01277,1.31205,705.705
594,-0.000608,2.13232,706.903
597,-0.02926,1.7092,708.448
600,-0.033,1.16605,705.934
603,-0.040109,-0.596762,704.987
606,-0.031621,-0.325247,703.326
609,-0.042325,-1.11304,703.701
612,-0.046921,-1.07195,703.918
615,-0.039429,-0.646892,704.612
618,-0.033107,-0.05221633,704.671
621,-0.036711,-2.12266,702.83
624,-0.059226,-5.54884,701.01
627,-0.018604,-2.4502,700.784
630,-0.043754,-3.22827,701.402
633,-0.044655,-3.58308,701.555
636,-0.056065,-3.04535,701.794
639,-0.053312,-3.16258,702.647
642,-0.042162,-3.66063,702.041
645,-0.024842,-3.17926,701.064
646,-0.038529,-3.10512,700.769