File: Non-charring/PMMA/DBI_Lund/DBI-Lund_Cone_50kW_1.csv
Time,Mass,HRR,Back Surface Temperature
[s],[g],[kW/m2],[K]
0,73.92,1.9288,297.256
2,73.8672,1.49626,297.25
4,74.08865,0.910551,297.185
6,74.0261,0.250522,297.092
8,73.9532,0.265585,297.017
10,73.6345,0.310308,296.934
12,73.5971,0.462362,296.902
14,73.5872,0.599139,296.835
16,73.5479,0.708425,296.807
18,73.5488,0.339581,296.823
20,73.5464,0.237368,296.9
22,73.5526,0.251508,297.055
24,73.5094,-0.624896,297.366
26,73.4673,8.66409,297.675
28,73.3793,105.754,297.921
30,73.4569,183.52,298.898
32,73.4178,291.202,299.467
34,73.0608,384.346,300.343
36,72.6375,433.97,301.584
38,72.2584,474.737,302.831
40,71.8468,511.746,304.403
42,71.37251,510.852,305.502
44,70.927,545.921,307.109
46,70.4392,552.044,309.311
48,69.9877,564.705,310.437
50,69.4945,569.339,312.56
52,69.0108,578.722,314.984
54,68.558,600.669,316.508
56,68.06961,564.71,319.777
58,67.5619,590.203,321.411
60,67.0602,641.099,323.775
62,66.5627,635.255,326.693
64,66.0624,646.332,328.553
66,65.5258,620.267,330.966
68,64.99353,616.206,333.93
70,64.459,627.208,335.835
72,63.9549,632.365,339.63
74,63.4068,647.686,341.621
76,62.8667,640.388,344.18
78,62.327,629.848,346.969
80,61.7883,654.839,348.801
82,61.2361,646.159,351.264
84,60.6508,667.922,354.045
86,60.0802,691.022,355.875
88,59.5447,677.923,359.519
90,58.9917,660.305,361.398
92,58.4347,728.922,364.068
94,57.8198,700.313,366.974
96,57.28225,683.247,368.763
98,56.6792,703.426,371.304
100,56.0755,678.717,373.839
102,55.4688,692.496,375.514
104,54.92018,706.395,378.772
106,54.3091,706.085,380.319
108,53.6844,750.12,382.617
110,53.0182,725.32,385.445
112,52.4341,706.245,387.333
114,51.83776,727.385,389.784
116,51.292,733.783,391.65
118,50.6189,738.756,394.361
120,50.0061,707.596,398.114
122,49.3711,712.397,399.95
124,48.73921,744.651,402.618
126,48.1894,751.285,405.541
128,47.5906,743.724,407.408
130,46.9625,780.933,410.169
132,46.3411,760.393,412.987
134,45.7372,750.117,414.875
136,45.1194,782.781,418.372
138,44.4549,744.96,420.096
140,43.799,747.926,422.633
142,43.133,781.676,425.351
144,42.4644,785.256,426.965
146,41.8393,795.967,429.385
148,41.1645,829.706,432.102
150,40.4838,813.181,433.866
152,39.7937,763.641,436.401
154,39.1955,785.433,439.344
156,38.5268,809.036,441.927
158,37.8743,818.323,444.85
160,37.1941,831.255,446.639
162,36.4627,821.212,449.337
164,35.8181,810.275,452.145
166,35.1145,829.338,453.925
168,34.4195,805.636,456.465
170,33.6873,858.165,459.092
172,33.0327,893.035,461.541
174,32.3651,850.123,464.233
176,31.6775,869.216,465.83
178,30.9424,892.692,468.311
180,30.218,881.59,471.039
182,29.51413,871.132,472.784
184,28.7794,901.526,475.363
186,28.0398,903.499,478.188
188,27.2771,884.551,480.912
190,26.536,946.175,483.85
192,25.7854,926.722,485.871
194,24.9823,925.205,488.868
196,24.2379,924.204,492.177
198,23.4458,923.715,494.405
200,22.6948,981.751,497.767
202,21.8995,890.513,501.592
204,21.1387,921.576,505.214
206,20.3707,954.889,509.532
208,19.578,942.421,512.468
210,18.8144,1043.62,516.937
212,18.0591,945.251,521.913
214,17.1767,992.137,526.066
216,16.2824,961.441,534.373
218,15.5413,1001.68,543.647
220,14.6936,1031.75,550.043
222,13.8549,1013.65,562.351
224,12.9776,1002.25,568.446
226,12.0821,1078.16,577.461
228,11.2018,1123.23,586.264
230,10.3471,1151.06,591.894
232,9.42643,1070.73,600.093
234,8.448062,1211.11,609.297
236,7.528164,1155.08,615.43
238,6.558101,1196.86,625.846
240,5.590996,1227.56,629.181
242,4.577536,1160.38,633.973
244,3.646769,1065.5,641.672
246,2.793928,965.922,648.452
248,1.992321,1068.89,661.812
250,1.250223,876.851,686.059
252,0.676034,722.208,709.193
254,0.177593,559.775,788.96
256,-0.218755,492.686,836.924
258,-0.535851,342.221,931.806
260,-0.785713,298.124,1012.86
262,-0.910645,238.071,1038.249
264,-1.040734,191.135,1022.36
266,-1.177744,162.069,983.205
268,-1.270172,133.006,961.373
270,-1.359586,113.299,934.83
272,-1.412449,103.022,926.27
274,-1.497391,84.777,904.55
276,-1.503216,73.2767,873.282
278,-1.550298,62.9003,855.465
280,-1.611905,54.8205,840.081
282,-1.615464,50.2791,822.934
284,-1.664653,45.2149,817.946
286,-1.742804,38.6362,807.416
288,-1.762069,34.1333,798.943
290,-1.755956,28.763,790.677
292,-1.74385,23.9551,787.976
294,-1.808529,20.3936,785.141
296,-1.777502,17.4354,782.424
298,-1.829635,15.3446,776.536
300,-1.839586,12.8316,772.56
302,-1.843225,11.0091,768.514
304,-1.842751,9.48345,762.6
306,-1.989287,7.63964,762.217
308,-2.374,5.949,761.776
310,-2.351126,4.87468,758.889
312,-1.823225,4.32897,757.53
314,-1.824255,4.02523,759.182
316,-1.846092,3.79627,758.929
318,-1.810715,3.70657,757.741
320,-1.816982,3.60412,759.228
322,-1.86361,3.49649,757.648
324,-1.878375,3.83732,764.641
326,-1.851295,3.44382,764.685
328,-1.876951,3.04744,765.201
330,-1.903617,2.63059,769.694
332,-1.890118,2.69451,770.271
334,-1.903169,2.43147,767.683
336,-1.934139,1.96474,762.101
338,-1.912895,1.69966,761.542
340,-1.908897,1.76551,763.668
342,-1.934417,1.638,764.543
344,-1.91,1.17186,767.529
346,-1.90368,1.00275,767.214
348,-1.920423,1.1939,763.634
350,-1.967344,0.555078,759.176
352,-1.941051,1.05138,755.473
353,-1.936872,1.57547,755.419