File: Non-charring/PMMA/DBI_Lund/DBI-Lund_Cone_25kW_6.csv
Time,Mass,HRR,Back Surface Temperature
[s],[g],[kW/m2],[K]
0,27.45,14.0728,0
3,27.39329,10.875,0
6,27.4048,7.41995,0
9,27.406,4.74881,0
12,27.4076,4.31644,0
15,27.3971,3.66162,0
18,27.393,3.1691,0
21,27.3925,2.66068,0
24,27.4041,1.37435,0
27,27.3773,1.89276,0
30,27.3805,3.03002,0
33,27.373,3.63259,0
36,27.3833,3.31448,0
39,27.3737,0.587529,0
42,27.3811,0.296293,0
45,27.3605,0.234809,0
48,27.3865,0.617712,0
51,27.38321,1.08505,0
54,27.3761,3.91375,0
57,27.3986,3.08674,0
60,27.3768,1.36979,0
63,27.3726,0.541421,0
66,27.3805,-1.27113,0
69,27.3666,-0.749361,0
72,27.3692,0.787932,0
75,27.36964,0.465928,0
78,27.3589,0.502196,0
81,27.3716,0.430046,0
84,27.3751,0.77562,0
87,27.3725,3.67051,0
90,27.3456,4.02996,0
93,27.3319,3.92567,0
96,27.3425,5.43462,0
99,27.3548,5.01783,0
102,27.3103,5.30752,0
105,27.3275,2.62976,0
108,27.2674,21.0436,0
111,27.2568,101.74,0
114,27.1906,181.125,0
117,27.0848,242.647,0
120,26.9281,292.572,0
123,26.7897,327.725,0
126,26.631,350.634,0
129,26.478,355.468,0
132,26.2949,359.022,0
135,26.1069,366.504,0
138,25.9523,376.968,0
141,25.7424,392.925,0
144,25.5866,396.259,0
147,25.3875,396.568,0
150,25.1862,393.157,0
153,25.0022,404.066,0
156,24.82909,410.73,0
159,24.6458,404.343,0
162,24.439,413.523,0
165,24.2535,409.004,0
168,24.0524,417.52,0
171,23.8366,416.398,0
174,23.656,415.733,0
177,23.46974,423.045,0
180,23.2651,427.321,0
183,23.0243,425.281,0
186,22.8629,427.716,0
189,22.6438,430.303,0
192,22.43407,438.781,0
195,22.2645,440.976,0
198,22.03366,437.447,0
201,21.828,443.073,0
204,21.6458,439.159,0
207,21.4207,435.529,0
210,21.2177,434.584,0
213,20.9965,445.193,0
216,20.8076,443.112,0
219,20.5727,460.234,0
222,20.3536,457.839,0
225,20.1237,445.927,0
228,19.93656,458.46,0
231,19.7013,449.16,0
234,19.51662,454.198,0
237,19.3009,452.672,0
240,19.0514,471.48,0
243,18.8393,462.924,0
246,18.6307,472.253,0
249,18.4,476.105,0
252,18.19063,487.265,0
255,17.9563,469.476,0
258,17.7084,482.88,0
261,17.5007,466.488,0
264,17.2659,495.404,0
267,17.0238,489,0
270,16.8085,487.991,0
273,16.5392,499.866,0
276,16.3222,499.781,0
279,16.0818,498.764,0
282,15.85281,493.715,0
285,15.58102,515.253,0
288,15.36724,503.373,0
291,15.1138,524.446,0
294,14.8562,526.417,0
297,14.6249,528.899,0
300,14.3662,540.41,0
303,14.0802,525.798,0
306,13.8695,534.995,0
309,13.59415,548.409,0
312,13.3667,533.133,0
315,13.0804,548.648,0
318,12.85115,559.086,0
321,12.5773,546.742,0
324,12.3147,540.945,0
327,12.0478,555.041,0
330,11.791,551.766,0
333,11.5133,571.528,0
336,11.269,554.189,0
339,11,561.926,0
342,10.7028,574.927,0
345,10.4487,584.761,0
348,10.1227,576.496,0
351,9.891623,581.07,0
354,9.610517,590.341,0
357,9.326314,604.044,0
360,9.034477,613.202,0
363,8.753522,610.574,0
366,8.459958,612.193,0
369,8.183761,598.886,0
372,7.894062,607.452,0
375,7.609122,622.572,0
378,7.302638,596.768,0
381,7.036587,588.38,0
384,6.751269,615.156,0
387,6.467213,602.776,0
390,6.199304,604.348,0
393,5.914514,593.723,0
396,5.628052,587.677,0
399,5.341012,584.538,0
402,5.078598,592.366,0
405,4.771165,608.491,0
408,4.506537,601.138,0
411,4.252389,565.183,0
414,3.944719,573.061,0
417,3.677868,564.073,0
420,3.415426,569.717,0
423,3.134351,569.879,0
426,2.903163,569.663,0
429,2.610483,542.644,0
432,2.331657,550.397,0
435,2.067211,558.218,0
438,1.816336,534.575,0
441,1.571557,523.313,0
444,1.340473,509.952,0
447,1.089433,490.404,0
450,0.881254,450.776,0
453,0.70902,389.065,0
456,0.547319,353.294,0
459,0.373108,310.263,0
462,0.242687,248.441,0
465,0.153409,190.248,0
468,0.091768,151.251,0
471,0.008319,125.677,0
474,-0.021387,112.475,0
477,-0.073605,99.926,0
480,-0.102874,94.25,0
483,-0.159991,89.1072,0
486,-0.213109,76.1567,0
489,-0.223391,68.8276,0
492,-0.262538,56.5498,0
495,-0.299655,49.719,0
498,-0.290774,41.3431,0
501,-0.310459,29.6702,0
504,-0.327471,20.7749,0
507,-0.335929,16.3064,0
510,-0.314692,13.7413,0
513,-0.339987,12.8783,0
516,-0.348828,9.6412,0
519,-0.363193,8.00282,0
522,-0.341653,6.61742,0
525,-0.356747,5.33742,0
528,-0.356657,6.35523,0
531,-0.377849,6.72025,0
534,-0.391012,9.84208,0
537,-0.371588,9.68699,0
540,-0.357163,9.31315,0
543,-0.383834,6.51732,0
546,-0.38439,6.39645,0
549,-0.377421,7.10063,0
552,-0.388539,5.61191,0
555,-0.373647,4.69829,0
558,-0.366844,4.46599,0
561,-0.374639,4.60966,0
564,-0.397841,5.46917,0
567,-0.386926,5.02177,0
570,-0.371653,4.6039,0
573,-0.379667,3.29551,0
576,-0.421735,2.19878,0
579,-0.379221,2.62831,0
582,-0.398723,3.29714,0
585,-0.412536,4.59612,0
588,-0.382325,2.19549,0
591,-0.365869,4.38645,0
594,-0.40811,4.9336,0
597,-0.386071,7.13791,0
600,-0.372581,7.47305,0
603,-0.391761,6.8283,0
606,-0.402282,4.10045,0
609,-0.371663,3.28927,0
612,-0.410947,4.9424,0
615,-0.431759,4.59402,0
618,-0.405716,4.86742,0
621,-0.353,5.5174,0
624,-0.413081,5.75137,0
627,-0.411414,4.83251,0
630,-0.359548,4.55041,0
633,-0.384321,2.11152,0
636,-0.415266,2.35035,0
639,-0.394914,2.62509,0
640,-0.366186,1.70014,0