File: Non-charring/PMMA/DBI_Lund/DBI-Lund_Cone_25kW_1.csv
Time,Mass,HRR,Back Surface Temperature
[s],[g],[kW/m2],[K]
0,72.96,0.536132,295.148
3,73.0487,-0.101131,295.122
6,73.0668,-0.240488,295.022
9,73.0967,0.511025,295.091
12,73.0547,2.30279,295.099
15,73.0851,2.74064,295.158
18,73.1387,2.59893,295.184
21,73.12695,2.42075,295.274
24,73.1165,1.82912,295.428
27,73.1592,1.79395,295.715
30,73.1533,2.26578,295.986
33,73.2348,0.942431,296.558
36,73.2247,0.73557,297.25
39,73.2786,0.933733,297.929
42,73.1536,1.19041,298.934
45,73.1362,1.7774,299.951
48,73.1613,1.65516,301.154
51,73.2021,1.35841,302.537
54,73.1869,2.13766,304.063
57,73.2203,2.05425,305.962
60,73.2072,1.596162,307.406
63,73.154,1.72209,309.249
66,73.1822,0.972381,311.102
69,73.1932,1.04224,313.687
72,73.1844,1.4325,315.721
75,73.2571,1.65576,318.006
78,73.2146,1.57739,320.397
81,73.1687,0.763263,322.893
84,73.1212,0.989476,326.298
87,73.1495,1.17224,329.017
90,73.0998,0.974445,331.968
93,73.1079,0.582597,334.94
96,73.097,-0.939852,337.93
99,73.0401,14.139,340.953
102,73.0453,56.291,344
105,72.9669,126.567,346.977
108,72.8087,191.369,349.996
111,72.5244,242.45,352.985
114,72.175,277.098,355.841
117,71.8075,310.703,359.144
120,71.4212,348.57,362.101
123,70.9791,370.315,364.885
126,70.5394,370.778,367.529
129,70.0483,402.484,370.058
132,69.6066,403.093,373.422
135,69.1553,399.852,375.849
138,68.6746,393.894,378.368
141,68.1864,404.106,380.856
144,67.7346,399.101,383.142
147,67.1832,408.844,384.972
150,66.70371,426.39,386.566
153,66.189,423.252,387.668
156,65.6925,429.96,388.295
159,65.1966,418.988,388.834
162,64.6688,428.97,389.409
165,64.105,436.7,390.314
168,63.5942,432.826,391.293
171,63.0361,436.494,392.444
174,62.5361,437.366,393.83
177,61.97,444.6,395.369
180,61.4796,444.456,397.439
183,60.93873,431.931,399.157
186,60.4181,439.429,400.943
189,59.88953,442.274,402.786
192,59.3376,440.443,404.606
195,58.803,449.038,406.433
198,58.2429,445.718,408.287
201,57.665,456.978,410.125
204,57.1493,454.492,412.04
207,56.5928,449.245,413.958
210,56.017,454.326,415.877
213,55.4735,466.139,418.278
216,54.8843,478.931,420.24
219,54.28111,488.719,422.202
222,53.74134,467.43,424.084
225,53.1622,457.128,426.075
228,52.5945,473.79,427.994
231,51.9721,451.43,430.581
234,51.4313,494.49,432.531
237,50.8342,488.415,434.436
240,50.2507,489.375,436.477
243,49.6698,500.685,438.432
246,49.012,473.224,440.428
249,48.473,477.556,442.321
252,47.8863,479.153,444.294
255,47.2631,503.949,446.221
258,46.6803,509.597,448.228
261,46.0416,508.537,450.177
264,45.4119,517.372,452.636
267,44.8083,517.621,454.6
270,44.1429,494.315,456.645
273,43.5555,519.321,458.624
276,42.93068,514.787,460.74
279,42.3097,528.688,463.328
282,41.6731,528.534,465.36
285,40.9727,524.271,467.408
288,40.3285,539.936,469.48
291,39.6557,551.231,471.568
294,38.9366,556.328,473.617
297,38.2898,575.784,475.847
300,37.6315,576.735,477.967
303,36.9103,570.883,480.104
306,36.2521,558.113,482.366
309,35.5091,544.58,484.595
312,34.8047,581.124,487.316
315,34.1342,587.826,489.588
318,33.4434,581.62,491.81
321,32.7107,606.138,494.115
324,32.0425,596.338,496.472
327,31.3571,550.982,499.544
330,30.5959,571.295,502.034
333,29.8894,572.382,504.492
336,29.1988,597.744,507.133
339,28.4733,599.762,509.669
342,27.75877,592.478,512.375
345,26.95907,609.002,515.165
348,26.2426,610.074,518.041
351,25.4464,624.006,520.908
354,24.702,619.412,523.989
357,23.9236,616.119,527.205
360,23.13571,632.189,531.089
363,22.4226,616.576,534.893
366,21.64804,625.493,540.044
369,20.8276,629.39,547.601
372,20.07293,668.124,557.283
375,19.272,665.111,567.996
378,18.4426,653.12,579.693
381,17.7117,674.302,587.372
384,16.9251,667.715,594.158
387,16.1218,658.883,600.073
390,15.3271,651.467,605.155
393,14.4941,668.08,609.765
396,13.7318,649.031,612.766
399,12.9531,636.662,617.42
402,12.1558,651.181,620.57
405,11.3617,634.384,623.491
408,10.5902,637.786,626.643
411,9.766367,680.334,630.637
414,8.936178,630.275,634.313
417,8.162016,632.808,638.495
420,7.409704,623.663,643.404
423,6.698182,639.974,649.207
426,5.941116,567.731,659.602
429,5.218467,550.359,671.722
432,4.550346,504.792,692.41
435,3.946699,469.137,721.123
438,3.469002,384.859,773.901
441,3.061818,310.107,870.669
444,2.719008,243.187,916.06
447,2.442165,209.255,917.251
450,2.252341,171.106,896.526
453,2.107745,141.626,866.959
456,1.931584,128.506,838.563
459,1.78836,118.593,813.174
462,1.576011,110.421,788.732
465,1.451917,100.595,772.743
468,1.429613,90.5212,763.497
471,1.308468,85.7743,752.876
474,1.239134,80.2201,745.159
477,1.128475,72.4688,736.796
480,1.058984,67.5663,732.962
483,1.007728,62.9629,728.405
486,0.906953,56.3659,724.69
489,0.856668,52.0066,720.67
492,0.781974,46.6566,715.47
495,0.757309,41.4109,711.1
498,0.688,39.379,708.01
501,0.653724,32.8709,707.085
504,0.590381,30.4727,704.827
507,0.586651,28.2108,703.883
510,0.565393,25.583,701.494
513,0.563662,22.4669,698.73
516,0.557639,19.6037,696.939
519,0.525494,16.3643,695.275
522,0.498248,15.0691,691.901
525,0.471837,13.4558,690.362
528,0.469089,12.7331,689.639
531,0.471933,11.3929,687.042
534,0.441452,10.529,686.928
537,0.452309,9.6638,687.445
540,0.395329,9.02039,688.687
543,0.423454,7.70522,687.142
546,0.398113,7.35779,686.585
549,0.401489,5.52977,684.798
552,0.412693,4.48107,683.63
555,0.370639,3.93731,684.923
558,0.402452,3.25599,685.911
561,0.394481,2.50894,683.761
564,0.385531,1.53106,682.296
567,0.392333,1.5881,683.388
570,0.383623,1.96385,683.458
573,0.353245,0.875488,682.004
576,0.2972,1.22801,681.399
579,0.295679,0.356586,681.469
582,0.27767,0.10703,682.554
585,0.261232,0.541566,682.044
588,0.283718,0.384252,680.799
591,0.400845,-0.601862,680.447
594,0.375298,-0.402829,680.712
597,0.389918,-0.353577,681.901
600,0.352018,-0.599266,682.469
603,0.400774,-0.192034,681.232
606,0.371465,-0.498959,680.377
609,0.372443,-0.626129,680.334
612,0.384414,-0.152755,682.899
615,0.35829,0.537378,681.898
618,0.388321,0.307796,682.543
621,0.369205,0.399365,680.516
624,0.356936,0.468409,678.787
627,0.374052,0.555559,678.919
630,0.333768,1.16543,678.706
633,0.376495,0.589037,679.127
636,0.373171,0.324651,680.604
639,0.379055,0.522414,680.098
642,0.401856,0.399038,679.526
644,0.369054,0.373981,678.676