File: Non-charring/PMMA/UMD/UMD_CAPA_25kWm2_Temp.csv
Relative Time [s],"Temp_avg, all4 [K]",Error [K]
0,297.549,0.87668
5.719,297.501,0.896278
11.439,297.488,0.940489
17.158,297.903,0.903345
22.879,299.168,0.968539
28.598,301.256,1.03457
34.318,304.302,1.05557
40.036,307.852,1.13419
45.756,312.026,1.19862
51.475,316.114,1.18091
57.195,321.125,1.3188
62.914,326.256,1.35812
68.634,331.32,1.38812
74.353,336.417,1.4402
80.073,341.558,1.45378
85.792,346.803,1.49309
91.512,351.89,1.51582
97.231,356.619,1.42523
102.951,361.788,1.54807
108.669,366.657,1.54835
114.389,371.309,1.54668
120.11,375.61,1.51125
125.83,379.619,1.41281
131.548,383.045,1.30518
137.268,386.339,1.14663
142.987,389.937,1.13897
148.707,393.489,1.19078
154.426,397.146,1.25775
160.146,400.762,1.28019
165.866,404.04,1.24168
171.586,407.045,1.22303
177.304,410.239,1.17797
183.024,413.35,1.24187
188.744,416.512,1.20162
194.464,419.423,1.19172
200.184,422.471,1.21706
205.903,425.22,1.21014
211.621,427.903,1.2001
217.341,430.556,1.19501
223.06,433.145,1.19759
228.78,435.618,1.2348
234.499,437.928,1.23104
240.351,440.164,1.23604
246.071,442.097,1.17486
251.791,443.306,1.31813
257.51,445.231,1.42024
263.231,447.222,1.43972
268.95,449.195,1.45935
274.67,451.114,1.45744
280.389,452.841,1.47942
286.109,454.652,1.48357
291.828,456.383,1.49303
297.548,457.981,1.48985
303.267,459.515,1.47568
308.987,461.229,1.48403
314.706,462.842,1.50739
320.425,464.293,1.47185
326.145,465.752,1.47425
331.865,467.25,1.49994
337.583,468.659,1.53714
343.303,469.978,1.52769
349.022,471.115,1.53372
354.742,472.328,1.51195
360.461,473.54,1.53462
366.314,474.868,1.50064
372.033,476.169,1.44442
377.753,477.221,1.4356
383.472,478.257,1.45012
389.192,479.067,1.4433
394.911,480.413,1.35116
400.63,481.65,1.37696
406.35,482.804,1.34616
412.069,483.728,1.33735
417.789,484.667,1.31217
423.641,485.656,1.33661
429.362,486.521,1.31197
435.081,487.271,1.32226
440.8,488.126,1.29659
446.519,489.23,1.34231
452.239,489.999,1.30356
457.958,490.789,1.3101
463.678,491.488,1.34305
469.397,492.147,1.37815
475.117,492.927,1.371
480.836,493.762,1.33959
486.689,494.503,1.32835
492.408,495.362,1.37205
498.128,496.185,1.35307
503.847,497.001,1.32278
509.567,497.691,1.33213
515.286,498.432,1.35923
521.006,499.292,1.35063
526.725,500.08,1.36676
532.445,501.045,1.347
538.164,501.719,1.39685
543.884,502.338,1.42094
549.603,503.152,1.40389
555.323,504.069,1.4389
561.042,504.868,1.44135
566.762,505.86,1.51785
572.481,506.598,1.46777
578.201,507.475,1.53495
583.92,508.418,1.54644
589.639,509.283,1.63238
595.359,510.127,1.67208
601.078,511.078,1.66309
606.798,511.842,1.65747
612.517,512.544,1.80018
618.37,513.359,1.8047
624.089,514.399,1.82176
629.81,515.17,1.84783
635.528,516.166,1.84502
641.248,516.91,1.85134
646.967,517.804,1.85842
652.687,518.34,1.84217
658.406,519.315,1.9305
664.126,520.046,1.97193
669.845,521.115,2.06592
675.565,521.879,2.12102
681.284,522.706,2.08831
687.004,523.353,2.10875
692.723,524.257,2.16308
698.443,525.13,2.22046
704.162,526.165,2.26766
710.017,526.55,2.24677
715.736,527.779,2.33187
721.456,528.612,2.25063
727.175,529.244,2.21148
732.894,530.016,2.27497
738.614,530.902,2.32849
744.332,531.682,2.34963
750.051,532.529,2.41696
755.77,533.389,2.4118
761.49,534.313,2.45744
767.211,535.005,2.46073
772.929,535.754,2.47412
778.648,536.317,2.51956
784.368,537.105,2.56396
790.088,537.81,2.63125
795.807,538.222,2.63157
801.528,539.104,2.69787
807.248,539.817,2.73034
812.967,540.426,2.55712
818.687,541.104,2.79076
824.406,541.361,2.71048
830.258,542.119,2.78952
835.977,542.533,2.84132
841.696,543.365,2.92169
847.415,543.953,2.90134
853.135,544.712,2.96927
858.854,545.21,3.0344
864.574,545.494,3.0744
870.293,545.655,3.04845
876.012,546.177,3.15358
881.732,546.518,3.19977
887.451,546.853,3.1103
893.171,547.777,3.10203
898.89,549.194,3.03932
904.743,549.75,2.95746
910.462,550.542,2.77724
916.182,551.582,2.72715
921.901,553.059,2.64827
927.623,553.944,2.56168
933.34,554.074,2.40263
939.06,555.354,2.55438
944.779,556.741,2.7354
950.499,558.211,2.80866
956.218,559.627,2.84138
961.938,561.016,2.86329
967.657,562.034,2.78939
973.376,563.242,2.80724
979.096,564.417,2.95351
985.082,565.591,2.90626
990.801,569.029,3.50594
996.52,570.845,3.96851
1002.24,572.368,4.1915
1007.959,574.175,4.3842
1013.679,575.581,4.6095
1019.398,576.482,4.68088
1025.118,578.176,4.85153
1030.837,579.858,4.95731
1036.557,580.813,4.98672
1042.276,581.781,5.03221
1047.996,583.044,5.06798
1053.715,584.8,5.17071
1059.435,586.536,5.40793
1065.154,588.396,5.7779
1071.14,589.367,5.76922
1076.859,590.934,5.9012
1082.579,592.052,6.05807
1088.298,593.641,6.1252
1094.017,596.167,6.10263
1099.737,598.19,6.15297
1105.456,600.105,5.86483
1111.176,601.859,6.05822
1116.897,603.046,6.15265
1122.617,604.837,6.16907
1128.336,606.545,6.3655
1134.056,607.64,6.29623
1139.774,609.414,6.16052
1145.494,611.044,6.18762
1151.213,612.625,6.20249
1156.933,614.326,6.19656
1162.652,615.231,6.20997
1168.372,616.777,6.41274
1174.09,618.356,6.0229
1179.809,619.726,5.82366
1185.529,621.256,5.57526
1191.248,623.216,5.5991
1196.968,625.34,5.52924
1202.687,626.603,5.48116
1208.407,627.685,5.55127
1214.126,629.858,5.37176
1219.846,630.652,5.28833
1225.567,631.311,5.01425
1231.287,634.074,5.36816
1237.006,634.908,4.91656
1242.725,636.269,4.97379
1248.711,637.114,4.75416
1254.43,638.93,4.83355
1260.15,640.055,4.69092
1265.87,641.316,4.4876
1271.589,642.752,3.98651
1277.308,644.138,3.95911
1283.028,645.566,3.75063
1288.746,647.509,3.92497
1294.465,648.048,3.66388
1300.184,650.05,3.8281
1305.904,650.709,3.51926
1311.623,651.501,3.37565
1317.345,652.56,3.31666
1323.064,653.436,3.43399
1328.782,654.049,3.11478
1334.501,654.586,3.02129
1340.22,655.397,2.90486
1345.94,656.622,2.82518
1351.659,657.333,2.88449
1357.379,657.566,2.72494
1363.1,658.416,2.72157
1368.819,659.154,2.68632
1374.538,659.698,2.53311
1380.258,659.713,2.51687
1385.978,660.971,2.49812
1391.697,660.687,2.41568
1397.416,661.35,2.29915
1403.136,662.093,2.347
1408.854,662.71,2.41757
1414.575,662.554,2.22358
1420.295,662.586,2.24922
1426.012,663.667,2.28885
1431.734,663.184,2.21438
1437.453,662.834,2.14154
1443.173,663.987,2.30981
1448.892,663.767,2.21962
1454.612,663.598,2.16842
1460.331,664.67,2.3079
1466.051,665.014,2.29299
1471.77,664.823,2.35574
1477.49,664.781,2.14963
1483.209,665.078,2.23703
1488.928,665.796,2.20147
1494.646,665.473,2.10018
1500.365,665.273,2.08476
1506.087,667.14,2.37089
1511.805,666.184,2.19163
1517.525,666.86,2.33365
1523.245,667.514,2.3715
1528.965,666.789,2.05522
1534.684,666.096,2.07345
1540.404,666.6,2.37966
1546.122,666.542,2.37394
1551.842,667.15,2.21694
1557.693,666.857,2.14317
1563.412,667.039,2.21129
1569.132,666.89,2.13318
1574.852,667.027,2.17345
1580.571,666.864,2.33044
1586.29,666.293,2.12649
1592.012,666.731,2.25435
1597.731,667.733,2.2486
1603.449,667.381,2.47352
1609.42,666.57,2.32755
1615.159,667.797,2.41555
1620.874,667.314,2.38396
1626.594,667.596,2.22955
1632.314,666.395,2.27307
1638.031,667.174,2.39067
1643.753,666.953,2.20081
1649.472,667.159,2.35892
1655.191,667.275,2.4024
1660.909,667.641,2.3781
1666.63,667.901,2.4982
1672.482,666.657,2.35126
1678.202,666.207,2.30283
1682.857,666.614,2.32432