File: Non-charring/PMMA/UMD/UMD_DSC.csv
Time,Temp (K),DSC (mW/mg),Error (mW/mg)
0,313,0.0402,0.001958106
41.5014,315.004,0.0803,0.003883938
67.7796,317.008,0.111,0.005585987
88.5384,319.012,0.136,0.006826567
106.3272,321.016,0.158,0.007966211
122.1888,323.02,0.177,0.008599254
136.6968,325.024,0.194,0.009776172
150.2028,327.028,0.21,0.0111072
162.9426,329.032,0.224,0.0120025
175.0638,331.036,0.238,0.0124611
186.6816,333.04,0.25,0.0133812
197.8794,335.044,0.263,0.014084
208.7088,337.048,0.273,0.0146155
219.2574,339.052,0.284,0.0150184
229.5492,341.056,0.293,0.0161946
239.6088,343.06,0.302,0.0164992
249.5052,345.064,0.31,0.0171487
259.2204,347.068,0.317,0.0174616
268.8006,349.072,0.323,0.0171569
278.2542,351.076,0.329,0.0178659
287.5884,353.08,0.335,0.0182541
296.8458,355.084,0.34,0.01921838
306.021,357.088,0.345,0.0196125
315.123,359.092,0.349,0.0190903
324.1722,361.096,0.354,0.019774
333.171,363.1,0.358,0.0200827
342.1386,365.104,0.361,0.0205112
351.0816,367.108,0.365,0.0211603
359.9964,369.112,0.369,0.0214833
368.8998,371.116,0.373,0.0218789
377.7924,373.12,0.376,0.0216189
386.6856,375.124,0.378,0.0214636
395.5932,377.128,0.382,0.0218026
404.5074,379.132,0.384,0.0214039
413.4414,381.136,0.388,0.021754
422.4,383.14,0.39,0.0216175
431.3934,385.144,0.393,0.0217752
440.4132,387.148,0.397,0.0216866
449.4726,389.152,0.401,0.02134953
458.5734,391.156,0.405,0.0216133
467.7198,393.16,0.411,0.0213332
476.9202,395.164,0.417,0.0214755
486.1818,397.168,0.424,0.02180231
495.507,399.172,0.429,0.0223136
504.8928,401.176,0.432,0.0214917
514.3518,403.18,0.432,0.0213023
523.878,405.184,0.431,0.0214812
533.4852,407.188,0.43,0.02356508
543.1758,409.192,0.426,0.0208947
552.9522,411.196,0.422,0.018834
562.8174,413.2,0.418,0.0177787
572.7702,415.204,0.418,0.0178584
582.8208,417.208,0.416,0.0186034
592.9626,419.212,0.414,0.0188994
603.207,421.216,0.412,0.0192456
613.5594,423.22,0.41,0.018861
624.0096,425.224,0.408,0.0194275
634.5558,427.228,0.407,0.0196176
645.2154,429.232,0.406,0.0198461
655.9764,431.236,0.405,0.0206139
666.843,433.24,0.407,0.02316245
677.8272,435.244,0.406,0.0216844
688.9068,437.248,0.407,0.0199509
700.0884,439.252,0.408,0.02027831
711.3768,441.256,0.41,0.0199004
722.7594,443.26,0.414,0.0198761
734.2356,445.264,0.418,0.0199618
745.8126,447.268,0.422,0.01987
757.485,449.272,0.426,0.0199763
769.2432,451.276,0.431,0.0198661
781.0836,453.28,0.435,0.0202444
792.9996,455.284,0.438,0.02038362
804.9966,457.288,0.439,0.0206793
817.0512,459.292,0.438,0.0209918
829.1718,461.296,0.435,0.021384
841.3362,463.3,0.428,0.0217249
853.548,465.304,0.419,0.0217935
865.7976,467.308,0.409,0.0219691
878.0886,469.312,0.398,0.0217619
890.4078,471.316,0.389,0.0215075
902.7558,473.32,0.383,0.02101923
915.1116,475.324,0.378,0.0205909
927.4836,477.328,0.376,0.0203125
939.8652,479.332,0.376,0.0198594
952.2408,481.336,0.377,0.0195028
964.6164,483.34,0.378,0.0194633
976.9836,485.344,0.38,0.0193089
989.334,487.348,0.383,0.01921893
1001.67,489.352,0.385,0.0193515
1014,491.356,0.387,0.0186509
1026.29,493.36,0.389,0.0188225
1038.56,495.364,0.391,0.018702
1050.81,497.368,0.392,0.0186018
1063.05,499.372,0.393,0.0184978
1075.24,501.376,0.394,0.0187124
1087.41,503.38,0.395,0.0187187
1099.56,505.384,0.395,0.0189135
1111.67,507.388,0.396,0.0190888
1123.74,509.392,0.397,0.0193411
1135.794,511.396,0.399,0.019273
1147.818,513.4,0.4,0.0194247
1159.81,515.404,0.403,0.0196092
1171.76,517.408,0.405,0.0196546
1183.7,519.412,0.407,0.0195363
1195.59,521.416,0.41,0.019466
1207.47,523.42,0.413,0.0192989
1219.32,525.424,0.416,0.0189899
1231.146,527.428,0.42,0.0190268
1242.95,529.432,0.424,0.0185103
1254.74,531.436,0.428,0.0189183
1266.49,533.44,0.431,0.019476
1278.24,535.444,0.435,0.0196494
1289.97,537.448,0.439,0.01957966
1301.67,539.452,0.443,0.0191388
1313.36,541.456,0.447,0.0186263
1325.04,543.46,0.452,0.0185325
1336.71,545.464,0.457,0.0184603
1348.37,547.468,0.463,0.0179704
1360.02,549.472,0.47,0.018171
1371.66,551.476,0.477,0.0180164
1383.276,553.48,0.485,0.0179438
1394.9,555.484,0.493,0.0179441
1406.526,557.488,0.502,0.0179121
1418.14,559.492,0.511,0.0179096
1429.758,561.496,0.52,0.018125
1441.38,563.5,0.529,0.0183257
1452.999,565.504,0.538,0.0185596
1464.63,567.508,0.547,0.0186578
1476.28,569.512,0.555,0.0192781
1487.9,571.516,0.561,0.0196938
1499.53,573.52,0.568,0.0201419
1511.18,575.524,0.573,0.0200107
1522.82,577.528,0.578,0.0205358
1534.467,579.532,0.584,0.0206436
1546.12,581.536,0.591,0.0202281
1557.78,583.54,0.6,0.0201621
1569.43,585.544,0.613,0.0203933
1581.087,587.548,0.63,0.0210902
1592.77,589.552,0.653,0.0217436
1604.45,591.556,0.68,0.0223518
1616.12,593.56,0.714,0.0237312
1627.78,595.564,0.753,0.0252505
1639.48,597.568,0.799,0.0268947
1651.17,599.572,0.853,0.0288575
1662.87,601.576,0.914,0.0310824
1674.58,603.58,0.984,0.033821
1686.3,605.584,1.06,0.0366553
1698.02,607.588,1.15,0.0398833
1709.754,609.592,1.25,0.0433609
1721.49,611.596,1.35,0.0468359
1733.226,613.6,1.46,0.0498555
1744.97,615.604,1.58,0.0529964
1756.71,617.608,1.7,0.0559981
1768.49,619.612,1.82,0.0582589
1780.25,621.616,1.94,0.0607873
1792.02,623.62,2.06,0.062496
1803.79,625.624,2.17,0.064707
1815.56,627.628,2.29,0.0662352
1827.34,629.632,2.39,0.0688187
1839.12,631.636,2.5,0.0708448
1850.91,633.64,2.6,0.07203715
1862.7,635.644,2.69,0.0676649
1874.48,637.648,2.75,0.059337
1886.26,639.652,2.77,0.050243
1898.046,641.656,2.75,0.0278017
1909.83,643.66,2.68,0.0441789
1921.6,645.664,2.57,0.0632581
1933.38,647.668,2.47,0.0761885
1945.14,649.672,2.41,0.0934463
1956.888,651.676,2.36,0.0748333
1968.63,653.68,2.29,0.0323626
1980.35,655.684,2.2,0.0576923
1992.06,657.688,2.06,0.10352
2003.75,659.692,1.87,0.14122
2015.427,661.696,1.68,0.142565
2027.09,663.7,1.49,0.146397
2038.752,665.704,1.28,0.149653
2050.42,667.708,1.08,0.149488
2062.08,669.712,0.903,0.128146
2073.756,671.716,0.747,0.1019
2085.44,673.72,0.613,0.0911142
2097.147,675.724,0.491,0.0772424
2108.89,677.728,0.386,0.06399911
2120.66,679.732,0.296,0.0521547
2132.48,681.736,0.223,0.0423503
2144.31,683.74,0.164,0.0350825
2156.2,685.744,0.118,0.0304247
2168.12,687.748,0.081,0.0267104
2180.09,689.752,0.0533,0.0246106
2192.1,691.756,0.032,0.0237561
2204.14,693.76,0.0155,0.0223365
2216.22,695.764,0.0033,0.0219525
2228.35,697.768,-0.00574,0.0216031
2240.51,699.772,-0.0125,0.02140587
2252.688,701.776,-0.017,0.0218122
2264.91,703.78,-0.0192,0.02084979
2277.17,705.784,-0.0179,0.0216039
2289.45,707.788,-0.0122,0.0227085
2301.78,709.792,-0.0114,0.0252266
2314.11,711.796,-0.0179,0.0228787
2326.47,713.8,-0.0297,0.0197022
2338.88,715.804,-0.0348,0.0174208
2351.29,717.808,-0.0398,0.0177865
2363.72,719.812,-0.0417,0.0182326
2376.17,721.816,-0.0429,0.0199298
2388.65,723.82,-0.0445,0.0202727
2401.15,725.824,-0.0445,0.0204905
2413.64,727.828,-0.0445,0.0199238
2426.16,729.832,-0.0459,0.0197574
2438.71,731.836,-0.0459,0.0200574
2451.26,733.84,-0.0459,0.0202363
2463.83,735.844,-0.0467,0.0199008
2476.41,737.848,-0.0473,0.01978
2488.968,739.852,-0.048,0.01904206
2501.55,741.856,-0.0472,0.0193409
2514.13,743.86,-0.0476,0.0202763
2526.71,745.864,-0.0485,0.02109689
2539.296,747.868,-0.048,0.0210978
2551.86,749.872,-0.0486,0.0210735
2564.43,751.876,-0.0492,0.0212949
2577.01,753.88,-0.0496,0.0206049
2589.57,755.884,-0.0504,0.0200474
2602.13,757.888,-0.0502,0.0206016
2614.68,759.892,-0.0505,0.0208918
2627.22,761.896,-0.0508,0.0204376
2639.75,763.9,-0.0516,0.0202636
2652.28,765.904,-0.0526,0.0204221
2664.8,767.908,-0.0522,0.0200803
2677.31,769.912,-0.0535,0.0197857
2689.8,771.916,-0.0539,0.0204456
2702.3,773.92,-0.054,0.0198801
2714.787,775.924,-0.0551,0.0197049
2727.27,777.928,-0.0543,0.01946167
2739.74,779.932,-0.0554,0.0200952
2752.19,781.936,-0.0561,0.0195175
2764.65,783.94,-0.0559,0.0194157
2777.07,785.944,-0.0569,0.0200283
2789.5,787.948,-0.0571,0.020161
2801.92,789.952,-0.0578,0.0199251
2814.321,791.956,-0.0584,0.0199893
2826.73,793.96,-0.0579,0.0204943
2839.12,795.964,-0.0579,0.0206703
2851.49,797.968,-0.0591,0.0205721
2863.866,799.972,-0.0594,0.0205205
2876.232,801.976,-0.0599,0.0214252
2888.59,803.98,-0.0595,0.0213263
2900.94,805.984,-0.0601,0.02149543
2913.28,807.988,-0.0603,0.0216847
2925.618,809.992,-0.0614,0.0211964
2937.95,811.996,-0.0611,0.02162403
2950.27,814,-0.0611,0.0221199
2962.57,816.004,-0.0618,0.0218896
2974.88,818.008,-0.0621,0.0221645
2987.18,820.012,-0.0632,0.0219132
2999.48,822.016,-0.0628,0.0221423
3011.763,824.02,-0.0635,0.0225577
3024.042,826.024,-0.0638,0.02247228
3036.32,828.028,-0.0637,0.023058
3048.585,830.032,-0.0643,0.02337
3060.86,832.036,-0.0653,0.022949
3073.12,834.04,-0.0655,0.023607
3085.38,836.044,-0.0661,0.02388066
3097.64,838.048,-0.0662,0.02417564
3109.87,840.052,-0.0673,0.0243417
3122.11,842.056,-0.0676,0.0250651
3134.35,844.06,-0.0684,0.0242949
3146.61,846.064,-0.0679,0.02518
3158.85,848.068,-0.0689,0.0249308
3171.08,850.072,-0.0698,0.025156
3183.32,852.076,-0.0701,0.0246906
3195.54,854.08,-0.0711,0.0251317
3207.77,856.084,-0.0709,0.02609527
3220.01,858.088,-0.072,0.0272369
3232.24,860.092,-0.0721,0.0265825
3244.48,862.096,-0.0731,0.0267973
3256.72,864.1,-0.0733,0.0258761
3268.95,866.104,-0.0738,0.02740066
3281.2,868.108,-0.0742,0.0278053
3287.31,869.11,-0.0747,0.027643