File: Non-charring/PMMA/UMD/UMD_CAPA_25kW_Temp.csv
Relative Time [s],Mass,"Temp_avg, all4 [K]",Error
[s],[g],[K],[K]
0,0,297.549,0.87668
6.517,0,297.417,0.871174
13.035,0,297.545,0.913942
19.554,0,298.355,0.956617
26.071,0,300.236,1.01545
32.589,0,303.246,1.04107
39.105,0,307.175,1.1197
45.623,0,311.941,1.19828
52.14,0,316.785,1.27114
58.658,0,322.354,1.32746
65.176,0,328.238,1.33665
71.693,0,334.147,1.40562
78.211,0,339.958,1.46937
84.728,0,345.836,1.49285
91.246,0,351.639,1.51054
97.763,0,357.274,1.51747
104.281,0,362.959,1.53188
110.797,0,368.388,1.53839
117.316,0,373.564,1.5446
123.835,0,378.314,1.46834
130.351,0,382.379,1.34981
136.869,0,386.084,1.14911
143.386,0,390.162,1.1262
149.904,0,394.264,1.20765
156.422,0,398.467,1.28553
162.94,0,402.376,1.25005
169.458,0,406.008,1.23515
175.975,0,409.503,1.19125
182.492,0,413.136,1.20969
189.01,0,416.653,1.21
195.528,0,419.997,1.20044
202.045,0,423.342,1.22081
208.562,0,426.479,1.202
215.08,0,429.5,1.18167
221.597,0,432.488,1.19649
228.115,0,435.327,1.23057
234.632,0,437.969,1.22774
241.282,0,440.51,1.21312
247.8,0,442.493,1.21176
254.318,0,444.086,1.38742
260.836,0,446.409,1.43246
267.354,0,448.686,1.46486
273.872,0,450.807,1.46518
280.389,0,452.841,1.47942
286.907,0,454.831,1.4755
293.424,0,456.816,1.48313
299.942,0,458.633,1.4949
306.459,0,460.451,1.48959
312.977,0,462.297,1.47824
319.494,0,464.005,1.47534
326.012,0,465.712,1.47501
332.53,0,467.435,1.50387
339.046,0,468.966,1.52347
345.564,0,470.426,1.52716
352.081,0,471.781,1.50541
358.599,0,473.121,1.51718
365.249,0,474.76,1.50581
371.767,0,476.089,1.43897
378.285,0,477.301,1.45232
384.802,0,478.49,1.43484
391.32,0,479.557,1.35974
397.837,0,480.977,1.35473
404.355,0,482.238,1.351
410.873,0,483.575,1.34662
417.39,0,484.652,1.3299
424.041,0,485.775,1.32236
430.559,0,486.712,1.29584
437.076,0,487.659,1.30577
443.593,0,488.605,1.31865
450.111,0,489.657,1.31017
456.628,0,490.643,1.32589
463.146,0,491.422,1.35145
469.663,0,492.214,1.38419
476.181,0,493.046,1.34815
482.698,0,493.95,1.31201
489.349,0,494.995,1.33845
495.867,0,495.837,1.34744
502.384,0,496.684,1.30635
508.902,0,497.643,1.33867
515.419,0,498.457,1.35539
521.937,0,499.491,1.38022
528.454,0,500.405,1.38264
534.972,0,501.141,1.33176
541.489,0,501.989,1.4347
548.007,0,502.833,1.4247
554.525,0,504.01,1.46166
561.042,0,504.868,1.44135
567.56,0,505.905,1.49134
574.077,0,506.827,1.47539
580.595,0,507.664,1.50873
587.112,0,508.915,1.60032
593.63,0,509.916,1.6405
600.147,0,510.818,1.62547
606.665,0,511.855,1.64784
613.182,0,512.686,1.77808
619.833,0,513.554,1.80883
626.353,0,514.869,1.88373
632.868,0,515.58,1.81729
639.386,0,516.621,1.83763
645.903,0,517.487,1.84294
652.421,0,518.333,1.82506
658.938,0,519.412,1.94148
665.456,0,520.267,2.02381
671.973,0,521.261,2.01322
678.491,0,522.308,2.08002
685.011,0,523.147,2.1322
691.526,0,523.991,2.13987
698.044,0,525.182,2.23116
704.561,0,526.14,2.2444
711.214,0,526.818,2.27166
717.731,0,528.049,2.30645
724.249,0,529.044,2.29091
730.766,0,529.592,2.2585
737.284,0,530.786,2.3452
743.801,0,531.743,2.36706
750.317,0,532.62,2.41015
756.835,0,533.66,2.42644
763.352,0,534.546,2.47783
769.87,0,535.403,2.47899
776.387,0,536.267,2.52232
782.905,0,536.944,2.56903
789.422,0,537.818,2.61109
795.94,0,538.226,2.64196
802.459,0,539.162,2.67605
808.977,0,540.285,2.80399
815.494,0,540.696,2.71068
822.012,0,541.29,2.81411
828.662,0,542.143,2.79511
835.179,0,542.446,2.82748
841.696,0,543.365,2.92169
848.213,0,543.898,2.85476
854.731,0,544.807,2.97112
861.248,0,545.337,3.11394
867.766,0,545.716,3.10347
874.283,0,545.984,3.12831
880.801,0,546.574,3.21269
887.318,0,546.832,3.10246
893.836,0,547.882,3.15312
900.353,0,548.94,2.99805
907.004,0,550.039,2.94775
913.522,0,551.14,2.81614
920.039,0,552.706,2.61433
926.557,0,553.817,2.574
933.074,0,554.076,2.41936
939.592,0,555.529,2.58368
946.109,0,557.097,2.74738
952.627,0,558.514,2.78675
959.144,0,560.475,2.87318
965.662,0,561.758,2.78191
972.179,0,562.908,2.88132
978.697,0,564.295,2.93673
985.481,0,566.025,2.99069
991.998,0,569.495,3.58807
998.516,0,571.089,4.02155
1005.033,0,573.26,4.22013
1011.551,0,574.993,4.50944
1018.068,0,576.177,4.71557
1024.586,0,577.92,4.84268
1031.103,0,579.845,4.94527
1037.621,0,580.716,4.92505
1044.138,0,582.187,5.10287
1050.656,0,584.162,5.25826
1057.173,0,586.156,5.46698
1063.691,0,587.833,5.60465
1070.475,0,589.231,5.72746
1076.992,0,590.935,5.90883
1083.509,0,592.249,6.09388
1090.027,0,594.223,6.19707
1096.545,0,597.076,6.05861
1103.062,0,599.574,6.09765
1109.58,0,601.377,6.02824
1116.099,0,602.754,6.12827
1122.617,0,604.837,6.16907
1129.134,0,606.63,6.26047
1135.652,0,607.928,6.27462
1142.168,0,609.757,6.14999
1148.686,0,611.648,6.32628
1155.204,0,613.77,6.13696
1161.721,0,614.822,6.13521
1168.239,0,616.863,6.4764
1174.756,0,618.533,5.91587
1181.273,0,620.654,5.89636
1187.79,0,622.467,5.74598
1194.308,0,624.27,5.56713
1200.825,0,625.642,5.33333
1207.343,0,627.574,5.59774
1213.86,0,629.831,5.42052
1220.378,0,630.628,5.25686
1226.897,0,632.366,5.18715
1233.416,0,634.217,5.10539
1239.932,0,635.684,4.96971
1246.716,0,637.123,5.01084
1253.233,0,638.732,4.88897
1259.751,0,639.97,4.65166
1266.268,0,641.541,4.49242
1272.786,0,642.952,3.99788
1279.304,0,644.462,3.6081
1285.82,0,646.061,3.89783
1292.338,0,647.899,3.78695
1298.854,0,649.347,3.66254
1305.372,0,650.655,3.56976
1311.889,0,651.5,3.35376
1318.409,0,652.786,3.35978
1324.924,0,653.929,3.21602
1331.442,0,653.998,2.93758
1337.959,0,655.014,2.88219
1344.477,0,656.463,2.87927
1350.994,0,657.601,2.84944
1357.512,0,657.565,2.71716
1364.031,0,658.424,2.74595
1370.548,0,658.955,2.53532
1377.065,0,660.287,2.69888
1383.584,0,660.953,2.5533
1390.101,0,660.527,2.42198
1396.618,0,661.221,2.36169
1403.136,0,662.093,2.347
1409.652,0,662.94,2.45483
1416.172,0,662.803,2.36168
1422.687,0,663.112,2.32269
1429.205,0,662.856,2.20233
1435.724,0,663.213,2.21582
1442.242,0,663.915,2.27082
1448.759,0,663.677,2.20232
1455.277,0,663.802,2.18605
1461.794,0,664.894,2.25089
1468.312,0,665.688,2.40652
1474.829,0,665.104,2.2299
1481.346,0,664.986,2.23388
1487.864,0,666.054,2.2679
1494.38,0,665.566,2.13104
1500.897,0,665.282,2.12611
1507.417,0,667.032,2.20973
1513.933,0,666.902,2.2536
1520.452,0,667.308,2.50734
1526.97,0,667.253,2.27405
1533.487,0,666.412,2.101
1540.005,0,666.408,2.30293
1546.521,0,666.327,2.40892
1553.038,0,667.256,2.256
1559.688,0,667.262,2.35166
1566.206,0,666.807,2.1529
1572.723,0,667.112,2.05296
1579.241,0,667.236,2.29989
1585.758,0,666.067,2.15821
1592.278,0,666.602,2.25083
1598.795,0,667.308,2.11454
1605.311,0,666.852,2.161
1611.966,0,667.478,2.40247
1618.613,0,667.533,2.33655
1625.131,0,668.364,2.38772
1631.649,0,667.022,2.16001
1638.164,0,667.003,2.4065
1644.684,0,667.069,2.22912
1651.201,0,666.795,2.1656
1657.717,0,667.712,2.06558
1664.236,0,667.241,2.24481
1670.886,0,667.336,2.37408
1677.403,0,666.614,2.33667
1682.059,0,666.613,2.37677