File: Non-charring/PMMA/UMD/UMD_CAPA_60kW_Temp.csv
Time,MLR_mean,Temp_avg_all4,MLR_error,Temperature_Error
[s],[kg/s/m2],[K],[kg/s/m2],[K]
0,0,309.29,0,1.43844
1.197,0,309.43,0,1.4028
2.395,0,309.37,0,1.40859
3.592,0,309.512,0,1.38147
4.789,0,309.501,0,1.38033
5.986,0,309.394,0,1.41589
7.183,0,309.405,0,1.40905
8.38,0,309.361,0,1.37035
9.577,0,309.451,0,1.33353
10.775,0,309.523,0,1.35704
11.972,0,309.573,0,1.35477
13.169,0,309.625,0,1.33936
14.366,0,309.714,0,1.35904
15.564,0,309.908,0,1.38877
16.76,0,310.05,0,1.38406
17.958,0,310.381,0,1.37098
19.155,0,310.732,0,1.3633
20.352,0,311.091,0,1.38479
21.549,0,311.589,0,1.37129
22.746,0,312.21,0,1.36011
23.943,0,312.795,0,1.3431
25.14,0,313.405,0,1.39042
26.337,0,314.244,0,1.37856
27.534,0,315.022,0,1.3777
28.732,0,315.892,0,1.38612
29.929,0,316.816,0,1.38259
31.126,0,317.821,0,1.39212
32.323,0,318.866,0,1.39011
33.52,0,319.934,0,1.38476
34.717,0,321.051,0,1.39986
36.164,0,322.363,0,1.36224
37.306,0,323.674,0,1.38545
38.503,0,324.987,0,1.36833
39.64,0,326.162,0,1.37813
40.837,0,327.561,0,1.35974
42.034,0,328.903,0,1.3483
43.232,0,330.314,0,1.337
44.427,0,331.69,0,1.3265
45.624,0,333.173,0,1.28811
46.821,0,334.531,0,1.27174
48.151,0,335.465,0,1.04271
49.348,0,337.489,0,1.30295
50.545,0,338.914,0,1.32856
51.741,0,340.207,0,1.3467
52.938,0,341.713,0,1.36458
54.135,0,343.035,0,1.29562
55.333,0,344.192,0,1.24323
56.53,0,345.54,0,1.22766
57.727,0,347.104,0,1.33906
58.924,0,348.578,0,1.36946
60.121,0,349.861,0,1.37219
61.318,0,351.008,0,1.38483
62.515,0,352.334,0,1.38863
63.712,0,354.052,0,1.47212
64.909,0,355.075,0,1.52317
66.106,0,356.479,0,1.26665
67.304,0,357.493,0,1.42338
68.501,0,358.848,0,1.46531
69.698,0,360.481,0,1.27674
70.895,0,361.993,0,1.28962
72.092,0,363.333,0,1.47552
73.289,0,364.568,0,1.64338
74.486,0,365.923,0,1.48229
75.683,0,366.856,0,1.52057
76.88,0,367.832,0,1.36972
78.078,0,369.682,0,1.6191
79.274,0,370.403,0,1.51911
80.471,0,372.064,0,1.59253
81.669,0,373.123,0,1.60229
82.866,0,374.541,0,1.45835
84.063,0,375.66,0,1.73228
85.26,0,376.624,0,1.80888
86.457,0,377.856,0,1.66888
87.654,0,379.367,0,1.83
88.851,0,380.112,0,1.62312
90.048,0,381.248,0,1.8779
91.246,0,382.206,0,1.91177
92.442,0,383.289,0,2.00518
93.639,0,384.839,0,1.97758
94.837,0,385.668,0,1.94529
96.034,0,386.618,0,1.79248
97.231,0,387.911,0,1.83634
98.428,0,388.956,0,1.86045
99.625,0,389.925,0,1.62012
100.822,0,391.996,0,2.17542
102.019,0,393.811,0,2.16135
103.216,0,393.669,0,2.00409
104.413,0,395.146,0,1.75745
105.61,0,396.564,0,1.8056
106.807,0,398.156,0,1.76314
108.005,0,398.8,0,1.56106
109.202,0,399.828,0,1.30174
110.399,0,402.072,0,1.77681
111.596,0,402.255,0,1.4559
112.793,0,402.969,0,1.2475
113.99,0,404.678,0,1.31924
115.187,0,406.061,0,1.39543
116.384,0,407.189,0,1.33601
117.581,0,408.438,0,1.50641
118.778,0,410.123,0,1.07517
119.975,0,411.808,0,1.20213
121.171,0,413.741,0,1.07283
122.369,0,415.307,0,1.27913
123.566,0,415.908,0,1.20247
124.765,0,417.037,0,1.08934
125.962,0,418.44,0,1.19236
127.159,0,419.592,0,1.19273
128.356,0,421.604,0,1.0848
129.553,0,423.001,0,1.37206
130.75,0,424.75,0,1.53504
131.947,0,425.207,0,1.31821
133.144,0,426.315,0,1.12919
134.342,0,427.588,0,1.15593
135.539,0,428.289,0,0.938512
136.736,0,429.997,0,1.34723
137.933,0,431.87,0,1.05965
139.13,0,432.458,0,1.09129
140.327,0,434.489,0,1.04436
141.524,0,436.733,0,1.29293
142.721,0,437.914,0,1.02704
143.918,0,439.726,0,1.22003
145.115,0,440.524,0,1.45351
146.313,0,440.565,0,1.34811
147.509,0,441.934,0,1.13153
148.707,0,442.908,0,0.981215
149.904,0,444.127,0,1.26998
151.101,0,445.239,0,1.42977
152.298,0,446.517,0,1.50804
153.495,0,448.35,0,1.7325
154.692,0,449.049,0,1.55844
155.889,0,450.821,0,1.6552
157.086,0,450.996,0,1.86636
158.283,0,452.178,0,1.74413
159.48,0,452.473,0,1.54153
160.677,0,453.403,0,1.91268
161.875,0,454.886,0,1.71837
163.072,0,456.819,0,2.06411
164.269,0,456.616,0,2.23465
165.466,0,457.503,0,2.25833
166.663,0,459.274,0,2.06939
167.86,0,459.8,0,2.22994
169.057,0,461.07,0,2.41999
170.254,0,461.5,0,2.62104
171.451,0,462.952,0,3.2779
172.648,0,463.411,0,3.7154
173.846,0,465.12,0,3.58764
175.043,0,464.857,0,3.65389
176.24,0,465.259,0,4.39647
177.437,0,465.294,0,4.55504
178.634,0,466.099,0,4.66114
179.83,0,467.752,0,4.89357
181.027,0,468.831,0,4.76201
182.224,0,471.04,0,4.95643
183.421,0,471.733,0,4.90823
184.618,0,473.066,0,5.19001
185.816,0,475.613,0,5.83458
187.013,0,475.598,0,5.72417
188.21,0,476.449,0,5.2162
189.407,0,476.582,0,4.96612
190.604,0,477.953,0,4.79609
191.801,0,478.893,0,4.84061
192.998,0,479.867,0,4.89216
194.195,0,479.603,0,5.36213
195.392,0,482.459,0,5.39428
196.589,0,482.636,0,5.82946
197.786,0,484.214,0,5.28384
198.983,0,485.318,0,5.57924
200.181,0,485.837,0,4.79833
201.378,0,486.783,0,4.65433
202.575,0,488.093,0,4.96155
203.772,0,490.2,0,5.30252
204.968,0,490.889,0,5.60246
206.165,0,491.657,0,5.92655
207.362,0,492.405,0,5.88068
208.559,0,494.933,0,5.74532
209.756,0,494.804,0,5.45652
210.953,0,496.798,0,5.52064
212.15,0,498.006,0,5.14896
213.347,0,501.266,0,5.54205
214.545,0,501.552,0,5.37602
215.742,0,502.147,0,5.25813
216.939,0,503.611,0,6.23913
218.136,0,505.252,0,6.04438
219.333,0,506.899,0,5.76024
220.53,0,508.128,0,6.07574
221.727,0,508.717,0,5.5114
222.924,0,508.254,0,5.95317
224.121,0,511.225,0,5.81253
225.318,0,513.14,0,6.17722
226.516,0,514.472,0,5.99183
227.714,0,516.123,0,5.4635
228.911,0,518.484,0,5.76081
230.108,0,522.428,0,6.59451
231.305,0,524.744,0,6.55048
232.502,0,525.6427,0,5.92929
233.699,0,527.18,0,5.65833
234.896,0,531.114,0,5.80133
236.093,0,533.028,0,4.86458
237.29,0,536.769,0,5.7796
238.487,0,537.715,0,4.93658
239.684,0,543.189,0,5.38361
240.881,0,545.058,0,5.47509
242.079,0,549.643,0,5.50123
243.276,0,549.762,0,5.08757
244.473,0,552.94,0,4.50886
245.67,0,556.055,0,5.11258
246.867,0,558.001,0,4.64457
248.064,0,564.568,0,5.2858
249.261,0,565.705,0,5.14494
250.458,0,573.929,0,6.22219
251.655,0,574.102,0,5.96031
252.852,0,574.223,0,5.75767
254.049,0,577.341,0,6.07215
255.247,0,579.784,0,6.33308
256.444,0,584.252,0,6.22569
257.641,0,587.487,0,6.78106
258.838,0,591.225,0,7.83724
260.168,0,593.217,0,7.75497
261.365,0,597.61,0,8.24329
262.562,0,600.822,0,9.15247
263.759,0,601.956,0,9.96347
264.956,0,604.928,0,10.2161
266.153,0,608.964,0,11.0618
267.351,0,616.286,0,11.7689
268.548,0,621.338,0,12.5255
269.745,0,623.445,0,12.5026
270.942,0,631.812,0,13.4803
272.139,0,637.873,0,14.8151
273.336,0,647.304,0,16.2977
274.533,0,657.461,0,17.625
275.73,0,659.076,0,18.3976
276.927,0,670.181,0,19.8964
278.124,0,676.916,0,19.7944
279.321,0,681.391,0,19.5541
280.519,0,687.876,0,19.9583
281.716,0,702.01,0,19.6656
282.913,0,713.492,0,20.1058
284.11,0,721.091,0,19.4169
285.307,0,731.042,0,19.2094
286.504,0,725.046,0,19.4167
287.701,0,743.693,0,18.8241
288.898,0,747.116,0,15.1477
290.095,0,756.246,0,14.7857
291.292,0,753.862,0,13.8203
292.489,0,756.13,0,13.053
293.686,0,758.602,0,12.2331
294.884,0,765.707,0,9.95215
296.081,0,777.585,0,10.0595
297.278,0,777.828,0,8.31788
298.475,0,777.258,0,7.75128
299.672,0,785.365,0,9.35943
300.869,0,782.695,0,8.18621
302.066,0,782.669,0,7.12855
303.263,0,790.798,0,8.44865
304.46,0,789.795,0,7.75963
305.657,0,791.776,0,7.48729
306.854,0,792.038,0,7.52843
308.051,0,792.952,0,8.0553
309.249,0,797.761,0,6.74235
310.446,0,799.071,0,7.18521
311.643,0,796.279,0,6.90411
312.84,0,794.898,0,5.96892
314.17,0,799.443,0,6.49671
315.367,0,801.588,0,5.87247
316.564,0,803.598,0,5.75384
317.761,0,805.082,0,6.43181
318.958,0,807.437,0,6.61659
320.155,0,809.991,0,6.58912
321.353,0,810.933,0,6.80584
322.55,0,815.875,0,7.30761
323.747,0,818.355,0,8.00739
324.944,0,816.671,0,7.87166
326.141,0,816.748,0,7.88381
327.338,0,819.466,0,8.27591
328.535,0,818.844,0,8.55148
329.732,0,818.683,0,8.76566
330.929,0,820.06,0,9.19831
332.126,0,820.291,0,8.89667
333.323,0,818.272,0,9.55477
334.521,0,819.419,0,9.86389
335.718,0,821.329,0,10.1389
336.915,0,821.456,0,10.4139
338.112,0,820.674,0,11.1247
339.309,0,820.339,0,11.8462
340.506,0,819.748,0,11.5243
341.703,0,818.96,0,11.9089
342.9,0,817.798,0,12.3622
344.097,0,818.384,0,12.0886
345.294,0,817.615,0,12.4751
346.491,0,817.173,0,12.8219
347.689,0,816.823,0,12.9698
348.886,0,814.709,0,13.4348
350.083,0,815.486,0,14.4508
351.28,0,814.885,0,14.8269
352.477,0,812.673,0,15.8026
353.674,0,810.948,0,15.4911
354.871,0,811.78,0,15.3898
356.068,0,810.125,0,15.3536
357.265,0,811.277,0,16.0939
358.462,0,808.565,0,16.6179
358.595,0,808.288,0,16.7062