File: Wood/Calibration_Data/UMET/UMET_TGA_O2-21_10K_R3.csv
Time (s),Temperature (K),Mass (mg)
0,313.14,4.7632
18,316.14,4.7624
36,319.14,4.7623
54,322.14,4.7621
72,325.14,4.7611
90,328.14,4.761
108,331.14,4.7606
126,334.14,4.7598
144,337.14,4.7591
162,340.14,4.759
180,343.14,4.7584
198,346.14,4.7577
216,349.14,4.7572
234,352.14,4.7566
252,355.14,4.7557
270,358.14,4.7552
288,361.14,4.7546
306,364.14,4.754
324,367.14,4.7526
342,370.14,4.7526
360,373.14,4.7525
378,376.14,4.7516
396,379.14,4.7518
414,382.14,4.7515
432,385.14,4.7513
450,388.14,4.7507
468,391.14,4.7501
486,394.14,4.7493
504,397.14,4.749
522,400.14,4.7488
540,403.14,4.7481
558,406.14,4.747
576,409.14,4.7465
594,412.14,4.7448
612,415.14,4.744
630,418.14,4.7431
648,421.14,4.7411
666,424.14,4.7389
684,427.14,4.7371
702,430.14,4.7347
720,433.14,4.7322
738,436.14,4.7293
756,439.14,4.7263
774,442.14,4.7219
792,445.14,4.717
810,448.14,4.7121
828,451.14,4.7074
846,454.14,4.7013
864,457.14,4.6954
882,460.14,4.6883
900,463.14,4.6816
918,466.14,4.6747
936,469.14,4.6671
954,472.14,4.6601
972,475.14,4.6511
990,478.14,4.6435
1008,481.14,4.6349
1026,484.14,4.6242
1044,487.14,4.6157
1062,490.14,4.6044
1080,493.14,4.5928
1098,496.14,4.5799
1116,499.14,4.5676
1134,502.14,4.5516
1152,505.14,4.5359
1170,508.14,4.5183
1188,511.14,4.4986
1206,514.14,4.4782
1224,517.14,4.4557
1242,520.14,4.4306
1260,523.14,4.4041
1278,526.14,4.3747
1296,529.14,4.3426
1314,532.14,4.3102
1332,535.14,4.2756
1350,538.14,4.238
1368,541.14,4.1988
1386,544.14,4.1565
1404,547.14,4.113
1422,550.14,4.0655
1440,553.14,4.0141
1458,556.14,3.9598
1476,559.14,3.9024
1494,562.14,3.8397
1512,565.14,3.7735
1530,568.14,3.7023
1548,571.14,3.6172
1566,574.14,3.538
1584,577.14,3.4374
1602,580.14,3.3341
1620,583.14,3.2253
1638,586.14,3.1067
1656,589.14,2.9746
1674,592.14,2.8199
1692,595.14,2.6313
1710,598.14,2.4022
1728,601.14,2.1351
1746,604.14,1.8856
1764,607.14,1.712
1782,610.14,1.6244
1800,613.14,1.5627
1818,616.14,1.5165
1836,619.14,1.4789
1854,622.14,1.447
1872,625.14,1.418
1890,628.14,1.3916
1908,631.14,1.3654
1926,634.14,1.3389
1944,637.14,1.3154
1962,640.14,1.2911
1980,643.14,1.268
1998,646.14,1.2437
2016,649.14,1.2205
2034,652.14,1.1968
2052,655.14,1.174
2070,658.14,1.15
2088,661.14,1.1262
2106,664.14,1.1017
2124,667.14,1.0771
2142,670.14,1.053
2160,673.14,1.0281
2178,676.14,1.0019
2196,679.14,0.9754
2214,682.14,0.9485
2232,685.14,0.9214
2250,688.14,0.892
2268,691.14,0.8624
2286,694.14,0.8305
2304,697.14,0.7979
2322,700.14,0.7632
2340,703.14,0.727
2358,706.14,0.6901
2376,709.14,0.6524
2394,712.14,0.6137
2412,715.14,0.5758
2430,718.14,0.5368
2448,721.14,0.4964
2466,724.14,0.4537
2484,727.14,0.408
2502,730.14,0.3586
2520,733.14,0.3048
2538,736.14,0.2465
2556,739.14,0.0622
2574,742.14,0.0158
2592,745.14,0.0155
2610,748.14,0.0151
2628,751.14,0.0144
2646,754.14,0.0139
2664,757.14,0.0137
2682,760.14,0.0133
2700,763.14,0.014
2718,766.14,0.0139
2736,769.14,0.0141
2754,772.14,0.0135
2772,775.14,0.0131
2790,778.14,0.0133
2808,781.14,0.0135
2826,784.14,0.013
2844,787.14,0.0134
2862,790.14,0.0133
2880,793.14,0.0129
2898,796.14,0.013
2916,799.14,0.0123
2934,802.14,0.0123
2952,805.14,0.0123
2970,808.14,0.0123
2988,811.14,0.0121
3006,814.14,0.0113
3024,817.14,0.011
3042,820.14,0.0107
3060,823.14,0.0109
3078,826.14,0.0104
3096,829.14,0.0105
3114,832.14,0.0098
3132,835.14,0.0096
3150,838.14,0.0089
3168,841.14,0.0081
3186,844.14,0.0083
3204,847.14,0.0076
3222,850.14,0.0078
3240,853.14,0.0074
3258,856.14,0.0076
3276,859.14,0.0069
3294,862.14,0.0064
3312,865.14,0.0064
3330,868.14,0.0061
3348,871.14,0.0063
3366,874.14,0.0061
3384,877.14,0.0054
3402,880.14,0.0052
3420,883.14,0.0048
3438,886.14,0.0049
3456,889.14,0.0045
3474,892.14,0.0048
3492,895.14,0.0047
3510,898.14,0.0048
3528,901.14,0.0047
3546,904.14,0.0045
3564,907.14,0.0051
3582,910.14,0.0052
3600,913.14,0.0051
3618,916.14,0.0047
3636,919.14,0.0053
3654,922.14,0.0047
3672,925.14,0.005
3690,928.14,0.0047
3708,931.14,0.0045
3726,934.14,0.0043
3744,937.14,0.004
3762,940.14,0.0044
3780,943.14,0.0046
3798,946.14,0.0044
3816,949.14,0.0036
3834,952.14,0.003
3852,955.14,0.0023
3870,958.14,0.0022
3888,961.14,0.0019
3906,964.14,0.0011
3924,967.14,0.0017
3942,970.14,0.0018
3960,973.14,0.0028
3978,976.14,0.0023
3996,979.14,0.0028
4014,982.14,0.0026
4032,985.14,0.0033
4050,988.14,0.0041
4068,991.14,0.0034
4086,994.14,0.0028
4104,997.14,0.0032
4122,1000.14,0.0031
4140,1003.14,0.0034
4158,1006.14,0.0042
4176,1009.14,0.004
4194,1012.14,0.0037
4212,1015.14,0.0038
4230,1018.14,0.0033
4248,1021.14,0.0033
4266,1024.14,0.003
4284,1027.14,0.003
4302,1030.14,0.0034
4320,1033.14,0.0031
4338,1036.14,0.0032
4356,1039.14,0.0026
4374,1042.14,0.0028
4392,1045.14,0.0032
4410,1048.14,0.0031
4428,1051.14,0.0031
4446,1054.14,0.0024
4464,1057.14,0.0021
4482,1060.14,0.0018
4500,1063.14,0.001
4518,1066.14,0.0007
4536,1069.14,0.001
4554,1072.14,0.0001
4557,1072.64,0