File: Wood/Calibration_Data/UMET/UMET_Wood_Cone_60kW_hor_R1.csv
Time (s),Mass (g),HRR (kW/m2)
0,84.67,0
8,84.67,45.20
16,84.05,102.62
24,83.08,135.11
32,82.29,136.29
40,82.55,129.44
48,81.32,122.60
56,82.02,117.70
64,80.70,112.70
72,79.29,108.00
80,78.85,103.34
88,78.06,100.33
96,77.09,98.61
104,77.09,97.40
112,76.29,96.04
120,75.94,95.22
128,75.24,95.59
136,75.15,96.10
144,74.00,95.97
152,73.12,95.30
160,73.21,95.13
168,72.06,95.65
176,71.80,96.59
184,70.47,96.84
192,71.18,96.11
200,70.56,95.65
208,68.98,94.85
216,68.80,94.61
224,68.01,94.63
232,68.01,95.13
240,66.42,95.06
248,66.68,94.73
256,65.80,93.89
264,65.27,93.93
272,64.66,93.74
280,63.95,93.09
288,63.16,91.50
296,63.16,90.38
304,62.63,90.09
312,62.01,90.45
320,61.66,90.35
328,60.78,90.43
336,60.34,90.87
344,60.16,90.38
352,59.63,89.07
360,59.01,88.22
368,57.87,88.10
376,57.95,88.52
384,56.54,88.60
392,57.07,88.30
400,56.02,87.53
408,55.49,87.48
416,55.05,87.25
424,54.78,86.46
432,53.81,86.06
440,53.46,86.22
448,52.84,86.65
456,52.49,86.41
464,52.05,86.14
472,51.43,85.89
480,50.64,86.08
488,50.81,85.29
496,49.76,83.97
504,49.67,82.83
512,49.14,81.75
520,49.05,81.01
528,47.99,81.38
536,47.90,82.73
544,47.02,83.35
552,46.32,82.93
560,46.76,81.92
568,45.52,80.92
576,45.43,79.77
584,45.17,79.33
592,43.76,80.23
600,44.11,81.80
608,43.94,83.16
616,43.05,83.43
624,42.70,82.66
632,42.00,81.26
640,41.56,80.05
648,41.38,78.47
656,41.64,76.77
664,40.59,76.56
672,40.50,77.78
680,39.09,78.95
688,39.09,79.09
696,38.38,78.27
704,38.65,76.95
712,37.32,75.94
720,37.68,75.95
728,37.50,76.09
736,36.35,75.67
744,36.27,74.22
752,35.56,73.23
760,35.30,72.45
768,35.47,72.23
776,34.33,71.92
784,33.88,71.88
792,33.36,71.91
800,33.18,71.42
808,32.30,70.93
816,32.21,71.85
824,32.12,73.10
832,31.86,72.94
840,31.59,70.57
848,30.97,68.71
856,30.89,68.09
864,30.27,68.53
872,29.12,67.96
880,29.48,67.45
888,28.77,66.30
896,28.07,65.05
904,28.42,64.00
912,27.89,64.18
920,26.83,64.63
928,27.45,64.17
936,26.04,63.32
944,27.18,62.17
952,25.68,60.95
960,25.77,59.87
968,25.16,59.03
976,24.71,59.14
984,24.63,58.99
992,24.01,58.23
1000,24.19,57.54
1008,23.57,56.54
1016,23.13,55.60
1024,23.13,54.97
1032,22.86,54.93
1040,22.86,54.89
1048,21.54,54.70
1056,22.33,54.38
1064,21.89,53.84
1072,21.45,53.52
1080,20.84,53.56
1088,19.87,53.54
1096,20.48,52.88
1104,19.69,51.81
1112,20.31,50.57
1120,20.31,49.68
1128,19.34,48.71
1136,19.34,47.81
1144,18.45,47.62
1152,18.54,48.00
1160,18.98,48.11
1168,17.31,47.80
1176,17.31,47.36
1184,17.31,46.71
1192,17.13,45.61
1200,16.96,43.68
1208,17.04,42.28
1216,16.16,41.11
1224,15.55,40.16
1232,15.02,39.71
1240,14.84,39.28
1248,15.72,38.49
1256,14.40,38.60
1264,14.75,38.20
1272,13.78,36.70
1280,13.52,34.23
1288,13.61,32.91
1296,13.52,32.90
1304,13.52,33.05
1312,14.13,32.45
1320,12.28,31.04
1328,12.90,29.37
1336,12.02,28.10
1344,12.11,27.34
1352,12.46,27.17
1360,12.28,26.89
1368,11.40,25.64
1376,11.31,24.93
1384,11.14,24.85
1392,11.58,25.37
1400,10.78,24.37
1408,10.43,21.98
1416,10.70,21.03
1424,9.73,21.29
1432,10.34,21.52
1440,9.02,20.66
1448,9.37,20.10
1456,9.55,18.58
1464,8.84,17.37
1472,9.55,17.05
1480,9.46,17.30
1488,9.29,16.60
1496,8.49,15.79
1504,8.23,15.51
1512,8.67,15.93
1520,7.61,16.14
1528,7.79,15.12
1536,8.32,13.77
1544,7.70,12.32
1552,7.35,11.60
1560,6.90,11.45
1568,6.46,12.20
1576,6.82,13.52
1584,6.29,14.31
1592,7.35,14.44
1600,6.29,13.26
1608,5.85,10.99
1616,5.93,8.62
1624,5.76,6.67
1632,6.29,5.65
1640,6.11,4.36
1648,5.32,3.52
1656,5.76,2.94
1664,5.32,3.09
1672,5.58,3.00
1680,5.23,3.30
1688,4.70,3.67
1696,5.41,3.78
1704,4.79,3.94
1712,4.35,4.72
1720,4.52,5.21
1728,4.17,4.03
1736,3.82,1.73
1744,4.17,0.64
1752,4.70,1.05
1760,4.08,2.18
1768,3.73,3.06
1776,4.00,2.66
1784,2.94,1.68
1792,2.58,0.19
1800,2.94,-0.65
1808,2.76,-1.49
1816,2.41,-1.80
1824,3.03,-1.60
1832,2.32,-0.61
1840,2.85,0.00
1848,20.60,22.54
1856,19.97,22.30
1864,20.24,21.39
1872,19.97,20.92
1880,19.53,20.70
1888,18.81,20.46
1896,19.62,19.95
1904,18.81,19.51
1912,18.99,18.79
1920,18.72,18.02
1928,18.63,17.51
1936,17.74,16.83
1944,18.19,16.05
1952,18.19,16.18
1960,17.83,15.99
1968,17.83,15.53
1976,17.21,14.37
1984,17.56,13.57
1992,17.21,12.52
2000,17.12,11.63
2008,17.38,11.02
2016,16.67,11.46
2024,16.76,11.09
2032,16.76,10.56
2040,16.22,10.14
2048,16.40,10.48
2056,15.78,9.99
2064,15.87,9.36
2072,14.88,9.29
2080,15.60,8.61
2088,15.42,7.56
2096,15.24,6.05
2104,14.71,4.92
2112,15.15,4.20
2120,14.97,3.80
2128,14.26,3.41
2136,14.80,4.10
2144,14.53,4.38
2152,14.08,2.86
2160,14.53,1.71
2168,13.72,1.19
2176,13.63,1.68
2184,13.90,2.61
2192,13.10,3.87
2200,13.72,3.52
2208,13.55,2.64
2216,13.37,1.67
2224,13.55,1.28
2232,12.65,1.06
2240,12.56,1.24
2248,12.30,0.82
2256,12.30,0.65
2264,12.12,0.86
2272,11.85,1.98
2280,11.94,2.69
2288,12.65,2.40
2296,11.31,1.46
2304,11.05,0.90
2312,11.31,0.88
2320,11.05,0.54
2328,11.58,0.23
2336,10.51,0.05
2342,10.87,0.00