File: Wood/Calibration_Data/UMET/UMET_Wood_TGA_N2_10K_R2.csv
Time (s),Temperature (K),Mass (mg)
0,313.134,3.4047
18,316.134,3.4041
36,319.134,3.4064
54,322.134,3.406
72,325.134,3.4052
90,328.134,3.4061
108,331.134,3.4059
126,334.134,3.4055
144,337.134,3.4053
162,340.134,3.4046
180,343.134,3.4044
198,346.134,3.404
216,349.134,3.4036
234,352.134,3.4037
252,355.134,3.4026
270,358.134,3.4035
288,361.134,3.4037
306,364.134,3.4029
324,367.134,3.4033
342,370.134,3.404
360,373.134,3.404
378,376.134,3.4035
396,379.134,3.403
414,382.134,3.4033
432,385.134,3.4029
450,388.134,3.4022
468,391.134,3.402
486,394.134,3.4022
504,397.134,3.402
522,400.134,3.4017
540,403.134,3.4008
558,406.134,3.4004
576,409.134,3.3999
594,412.134,3.3996
612,415.134,3.398
630,418.134,3.3967
648,421.134,3.3964
666,424.134,3.3951
684,427.134,3.3939
702,430.134,3.3927
720,433.134,3.3906
738,436.134,3.3878
756,439.134,3.3855
774,442.134,3.3826
792,445.134,3.3782
810,448.134,3.3727
828,451.134,3.3692
846,454.134,3.3643
864,457.134,3.3584
882,460.134,3.3532
900,463.134,3.3479
918,466.134,3.3419
936,469.134,3.3362
954,472.134,3.3301
972,475.134,3.3244
990,478.134,3.3187
1008,481.134,3.3127
1026,484.134,3.306
1044,487.134,3.2979
1062,490.134,3.2914
1080,493.134,3.284
1098,496.134,3.2726
1116,499.134,3.2648
1134,502.134,3.2567
1152,505.134,3.2429
1170,508.134,3.2298
1188,511.134,3.2202
1206,514.134,3.2048
1224,517.134,3.1884
1242,520.134,3.1716
1260,523.134,3.1541
1278,526.134,3.1344
1296,529.134,3.1141
1314,532.134,3.0932
1332,535.134,3.0707
1350,538.134,3.0474
1368,541.134,3.0253
1386,544.134,2.9989
1404,547.134,2.9737
1422,550.134,2.9471
1440,553.134,2.9185
1458,556.134,2.889
1476,559.134,2.8571
1494,562.134,2.8257
1512,565.134,2.791
1530,568.134,2.754
1548,571.134,2.717
1566,574.134,2.6778
1584,577.134,2.636
1602,580.134,2.5913
1620,583.134,2.5432
1638,586.134,2.4942
1656,589.134,2.4402
1674,592.134,2.3863
1692,595.134,2.3283
1710,598.134,2.2646
1728,601.134,2.202
1746,604.134,2.1373
1764,607.134,2.0707
1782,610.134,2.0004
1800,613.134,1.9291
1818,616.134,1.8546
1836,619.134,1.7698
1854,622.134,1.6934
1872,625.134,1.604
1890,628.134,1.5186
1908,631.134,1.4222
1926,634.134,1.3253
1944,637.134,1.2172
1962,640.134,1.1185
1980,643.134,1.0148
1998,646.134,0.9256
2016,649.134,0.8503
2034,652.134,0.7898
2052,655.134,0.7486
2070,658.134,0.7261
2088,661.134,0.7144
2106,664.134,0.7077
2124,667.134,0.6997
2142,670.134,0.6911
2160,673.134,0.6875
2178,676.134,0.6813
2196,679.134,0.6751
2214,682.134,0.6693
2232,685.134,0.6627
2250,688.134,0.6574
2268,691.134,0.6521
2286,694.134,0.6462
2304,697.134,0.6416
2322,700.134,0.6352
2340,703.134,0.6291
2358,706.134,0.6237
2376,709.134,0.6187
2394,712.134,0.6142
2412,715.134,0.6079
2430,718.134,0.6038
2448,721.134,0.5965
2466,724.134,0.5936
2484,727.134,0.5888
2502,730.134,0.5844
2520,733.134,0.5796
2538,736.134,0.5746
2556,739.134,0.5677
2574,742.134,0.5641
2592,745.134,0.5581
2610,748.134,0.5534
2628,751.134,0.549
2646,754.134,0.5431
2664,757.134,0.5368
2682,760.134,0.5325
2700,763.134,0.5286
2718,766.134,0.5243
2736,769.134,0.5176
2754,772.134,0.5123
2772,775.134,0.5076
2790,778.134,0.5023
2808,781.134,0.4966
2826,784.134,0.4925
2844,787.134,0.4875
2862,790.134,0.4821
2880,793.134,0.4777
2898,796.134,0.4702
2916,799.134,0.4678
2934,802.134,0.4638
2952,805.134,0.4566
2970,808.134,0.4518
2988,811.134,0.4462
3006,814.134,0.4416
3024,817.134,0.4365
3042,820.134,0.4304
3060,823.134,0.4247
3078,826.134,0.4213
3096,829.134,0.4149
3114,832.134,0.4097
3132,835.134,0.406
3150,838.134,0.4002
3168,841.134,0.3939
3186,844.134,0.3896
3204,847.134,0.3851
3222,850.134,0.3785
3240,853.134,0.375
3258,856.134,0.3699
3276,859.134,0.364
3294,862.134,0.3595
3312,865.134,0.3542
3330,868.134,0.3473
3348,871.134,0.3453
3366,874.134,0.3393
3384,877.134,0.3349
3402,880.134,0.3288
3420,883.134,0.3238
3438,886.134,0.3179
3456,889.134,0.3134
3474,892.134,0.3095
3492,895.134,0.305
3510,898.134,0.2982
3528,901.134,0.2943
3546,904.134,0.2902
3564,907.134,0.2866
3582,910.134,0.2805
3600,913.134,0.2763
3618,916.134,0.2716
3636,919.134,0.2673
3654,922.134,0.2614
3672,925.134,0.256
3690,928.134,0.2521
3708,931.134,0.2487
3726,934.134,0.2448
3744,937.134,0.2411
3762,940.134,0.2361
3780,943.134,0.232
3798,946.134,0.2282
3816,949.134,0.2244
3834,952.134,0.2186
3852,955.134,0.2147
3870,958.134,0.2107
3888,961.134,0.2065
3906,964.134,0.2029
3924,967.134,0.1979
3942,970.134,0.1954
3960,973.134,0.1905
3978,976.134,0.1886
3996,979.134,0.1834
4014,982.134,0.1791
4032,985.134,0.1748
4050,988.134,0.171
4068,991.134,0.1685
4086,994.134,0.1623
4104,997.134,0.1612
4122,1000.134,0.1552
4140,1003.134,0.1531
4158,1006.134,0.149
4176,1009.134,0.1429
4194,1012.134,0.142
4212,1015.134,0.1378
4230,1018.134,0.1349
4248,1021.134,0.133
4266,1024.134,0.1295
4284,1027.134,0.1257
4302,1030.134,0.1221
4320,1033.134,0.1206
4338,1036.134,0.1141
4356,1039.134,0.1117
4374,1042.134,0.1095
4392,1045.134,0.1076
4410,1048.134,0.1041
4428,1051.134,0.1005
4446,1054.134,0.0998
4464,1057.134,0.0932
4482,1060.134,0.0927
4500,1063.134,0.0888
4518,1066.134,0.0846
4536,1069.134,0.0829
4554,1072.134,0.0799
4557,1072.634,0.0799