File: Wood/Calibration_Data/UMET/UMET_Cone_30KW_hor_R1.csv
Time (s),Mass (g),HRR (kW/m2)
0,101.3,0
8,101.3,0
16,101.3,0
24,101.3,0
32,100.648,25.49
40,100.089,67.01
48,98.970,103.79
56,97.666,116.83
64,97.666,119.00
72,97.107,116.87
80,95.709,113.01
88,94.870,108.97
96,95.150,105.49
104,94.497,102.20
112,93.286,98.72
120,93.752,95.75
128,91.888,93.38
136,91.981,91.69
144,90.863,90.89
152,89.279,90.71
160,90.118,90.56
168,90.211,90.20
176,88.813,90.13
184,87.602,89.95
192,86.670,89.70
200,84.620,89.09
208,86.111,88.23
216,84.713,87.19
224,84.620,86.28
232,83.967,85.45
240,84.992,84.49
248,83.222,83.98
256,81.917,83.54
264,82.383,83.51
272,81.172,83.28
280,81.358,82.22
288,81.172,80.67
296,80.147,79.89
304,79.494,80.28
312,78.190,80.65
320,78.097,80.43
328,79.122,80.06
336,78.190,79.92
344,77.072,80.19
352,76.326,80.05
360,75.581,79.52
368,74.835,78.29
376,75.487,77.66
384,74.649,78.22
392,75.022,79.69
400,73.810,80.56
408,73.437,80.90
416,73.065,80.68
424,72.971,80.30
432,71.667,79.71
440,70.176,79.48
448,70.176,79.39
456,70.176,78.98
464,69.337,78.10
472,69.337,77.86
480,68.778,77.71
488,68.499,77.11
496,68.126,76.10
504,67.008,75.27
512,66.355,74.56
520,65.610,73.23
528,65.796,72.35
536,64.957,72.30
544,64.492,73.07
552,64.398,74.43
560,63.653,76.81
568,63.094,79.51
576,63.094,81.08
584,62.535,80.92
592,61.323,80.84
600,60.764,81.13
608,59.925,81.46
616,60.391,80.47
624,60.019,79.78
632,59.180,79.95
640,58.528,81.64
648,58.528,83.47
656,57.875,84.34
664,57.130,83.46
672,56.850,81.68
680,56.943,79.90
688,55.359,78.25
696,55.359,75.84
704,54.427,73.56
712,54.241,72.03
720,53.868,69.95
728,53.775,67.90
736,53.216,67.05
744,53.216,67.28
752,52.377,67.14
760,52.005,66.08
768,51.725,65.46
776,51.539,66.27
784,50.607,67.12
792,50.700,66.78
800,50.141,66.08
808,49.582,65.32
816,49.302,64.85
824,48.929,63.92
832,48.836,63.29
840,48.184,62.66
848,48.184,62.12
856,47.066,61.88
864,48.184,62.05
872,46.320,62.49
880,46.413,63.01
888,45.948,63.54
896,45.295,64.17
904,44.643,63.99
912,44.736,62.59
920,44.270,61.12
928,42.872,60.57
936,43.152,60.15
944,43.525,59.24
952,43.152,57.95
960,43.152,56.84
968,41.009,55.97
976,40.915,55.10
984,40.636,53.93
992,41.288,53.38
1000,41.102,54.16
1008,39.890,55.26
1016,39.704,55.45
1024,39.797,55.40
1032,39.611,55.43
1040,38.772,55.61
1048,37.840,55.62
1056,37.840,55.22
1064,38.120,54.38
1072,37.840,53.26
1080,36.070,53.05
1088,37.281,53.62
1096,35.790,54.24
1104,35.977,54.28
1112,35.883,53.89
1120,37.281,53.98
1128,35.697,53.51
1136,35.045,52.98
1144,36.163,53.26
1152,35.697,54.41
1160,35.417,55.14
1168,34.858,55.50
1176,34.765,54.96
1184,35.045,54.31
1192,34.486,53.38
1200,34.206,53.67
1208,33.274,53.91
1216,33.554,54.30
1224,32.808,53.93
1232,33.181,53.41
1240,32.342,52.27
1248,32.156,51.60
1256,31.690,51.36
1264,31.597,51.88
1272,32.156,52.78
1280,30.851,53.56
1288,30.851,53.16
1296,30.665,52.66
1304,30.013,52.56
1312,30.013,52.53
1320,29.826,52.03
1328,29.547,51.57
1336,29.547,51.49
1344,29.454,51.44
1352,28.801,50.82
1360,28.708,50.03
1368,28.615,49.88
1376,28.056,49.71
1384,27.403,49.94
1392,27.869,49.58
1400,27.776,48.67
1408,27.590,47.91
1416,27.031,48.18
1424,26.938,48.28
1432,26.751,47.81
1440,26.565,46.77
1448,26.378,45.84
1456,25.353,45.00
1464,25.633,45.04
1472,25.260,45.34
1480,25.260,45.08
1488,24.981,44.64
1496,25.819,44.37
1504,24.701,44.52
1512,23.862,44.01
1520,23.583,43.54
1528,23.583,43.26
1536,23.117,43.27
1544,23.490,43.17
1552,22.651,42.44
1560,22.744,41.12
1568,22.651,40.18
1576,21.812,39.97
1584,22.371,40.19
1592,21.533,40.02
1600,21.440,39.37
1608,21.999,39.31
1616,21.160,39.44
1624,20.880,39.01
1632,20.508,38.56
1640,20.321,38.43
1648,20.880,38.30
1656,20.508,37.19
1664,20.135,35.91
1672,20.508,34.33
1680,19.762,33.27
1688,19.483,33.00
1696,19.296,33.72
1704,19.576,33.55
1712,18.644,32.84
1720,18.551,32.62
1728,18.551,32.54
1736,18.737,32.45
1744,18.551,31.51
1752,18.178,29.54
1760,18.085,27.53
1768,17.992,26.18
1776,18.271,25.78
1784,17.433,25.47
1792,17.526,25.19
1800,17.339,24.69
1808,17.060,24.32
1816,16.687,24.21
1824,16.873,23.76
1832,16.687,22.82
1840,16.594,21.97
1848,16.221,20.87
1856,15.848,20.58
1864,15.755,20.39
1872,16.128,19.85
1880,15.942,19.50
1888,15.755,19.69
1896,15.755,19.63
1904,15.010,19.61
1912,14.357,18.39
1920,15.755,16.44
1928,15.196,14.11
1936,13.798,13.23
1944,14.730,12.91
1952,14.544,12.48
1960,14.451,11.60
1968,14.730,10.96
1976,14.544,10.53
1984,14.451,10.12
1992,14.171,10.38
2000,13.985,10.30
2008,13.705,9.60
2016,13.892,9.05
2024,13.519,8.67
2032,13.892,7.97
2040,13.426,7.61
2048,13.612,7.28
2056,13.053,7.08
2064,13.239,6.34
2072,12.680,5.88
2080,13.146,5.51
2088,12.680,5.22
2096,12.773,4.56
2104,12.587,3.91
2112,12.587,3.51
2120,12.494,3.67
2128,12.307,4.26
2136,12.028,3.92
2144,12.028,2.40
2152,12.587,1.33
2160,11.189,1.49
2168,10.630,2.19
2176,11.485,2.83
2184,11.255,3.64
2192,11.024,3.94
2200,10.793,3.90
2206,10.620,3.83