File: Wood/Calibration_Data/UMET/UMET_TGA_N2_10K_R1.csv
Time (s),Temperature (K),Mass (mg)
0,313.134,4.0284
18,316.134,4.0291
36,319.134,4.0298
54,322.134,4.0294
72,325.134,4.0296
90,328.134,4.0295
108,331.134,4.0293
126,334.134,4.0294
144,337.134,4.0298
162,340.134,4.0297
180,343.134,4.0282
198,346.134,4.0277
216,349.134,4.027
234,352.134,4.0278
252,355.134,4.0279
270,358.134,4.0274
288,361.134,4.0274
306,364.134,4.0266
324,367.134,4.0267
342,370.134,4.0277
360,373.134,4.0277
378,376.134,4.0272
396,379.134,4.0268
414,382.134,4.0271
432,385.134,4.0267
450,388.134,4.0264
468,391.134,4.0263
486,394.134,4.026
504,397.134,4.0257
522,400.134,4.0252
540,403.134,4.0249
558,406.134,4.0243
576,409.134,4.0232
594,412.134,4.0231
612,415.134,4.0208
630,418.134,4.0203
648,421.134,4.0192
666,424.134,4.0187
684,427.134,4.0165
702,430.134,4.015
720,433.134,4.0121
738,436.134,4.0104
756,439.134,4.0075
774,442.134,4.0046
792,445.134,4.0007
810,448.134,3.9961
828,451.134,3.9914
846,454.134,3.9857
864,457.134,3.9784
882,460.134,3.9718
900,463.134,3.9663
918,466.134,3.9594
936,469.134,3.9528
954,472.134,3.9436
972,475.134,3.9367
990,478.134,3.931
1008,481.134,3.9237
1026,484.134,3.9156
1044,487.134,3.9074
1062,490.134,3.8978
1080,493.134,3.8895
1098,496.134,3.8786
1116,499.134,3.8696
1134,502.134,3.8569
1152,505.134,3.8432
1170,508.134,3.8293
1188,511.134,3.8148
1206,514.134,3.7988
1224,517.134,3.7803
1242,520.134,3.7625
1260,523.134,3.7424
1278,526.134,3.7179
1296,529.134,3.6955
1314,532.134,3.671
1332,535.134,3.6445
1350,538.134,3.6176
1368,541.134,3.5887
1386,544.134,3.5594
1404,547.134,3.5287
1422,550.134,3.4983
1440,553.134,3.4641
1458,556.134,3.4292
1476,559.134,3.3924
1494,562.134,3.3551
1512,565.134,3.3135
1530,568.134,3.272
1548,571.134,3.2265
1566,574.134,3.1798
1584,577.134,3.1293
1602,580.134,3.0765
1620,583.134,3.0227
1638,586.134,2.9619
1656,589.134,2.902
1674,592.134,2.8367
1692,595.134,2.7686
1710,598.134,2.6972
1728,601.134,2.6241
1746,604.134,2.5376
1764,607.134,2.4602
1782,610.134,2.3838
1800,613.134,2.2963
1818,616.134,2.2082
1836,619.134,2.1141
1854,622.134,2.0169
1872,625.134,1.9138
1890,628.134,1.8117
1908,631.134,1.7009
1926,634.134,1.5841
1944,637.134,1.4662
1962,640.134,1.3442
1980,643.134,1.2251
1998,646.134,1.1095
2016,649.134,1.0169
2034,652.134,0.948
2052,655.134,0.892
2070,658.134,0.8622
2088,661.134,0.8452
2106,664.134,0.8341
2124,667.134,0.8245
2142,670.134,0.8176
2160,673.134,0.8116
2178,676.134,0.8041
2196,679.134,0.7966
2214,682.134,0.7891
2232,685.134,0.7835
2250,688.134,0.7766
2268,691.134,0.77
2286,694.134,0.764
2304,697.134,0.7558
2322,700.134,0.7507
2340,703.134,0.7457
2358,706.134,0.7385
2376,709.134,0.7323
2394,712.134,0.7267
2412,715.134,0.7204
2430,718.134,0.7139
2448,721.134,0.7093
2466,724.134,0.7034
2484,727.134,0.6991
2502,730.134,0.6946
2520,733.134,0.6895
2538,736.134,0.6842
2556,739.134,0.6785
2574,742.134,0.6743
2592,745.134,0.6671
2610,748.134,0.6632
2628,751.134,0.6587
2646,754.134,0.6544
2664,757.134,0.647
2682,760.134,0.6431
2700,763.134,0.6374
2718,766.134,0.6339
2736,769.134,0.6285
2754,772.134,0.6225
2772,775.134,0.6185
2790,778.134,0.6134
2808,781.134,0.6079
2826,784.134,0.604
2844,787.134,0.5973
2862,790.134,0.5943
2880,793.134,0.5887
2898,796.134,0.5843
2916,799.134,0.5795
2934,802.134,0.5741
2952,805.134,0.5677
2970,808.134,0.5637
2988,811.134,0.5592
3006,814.134,0.5531
3024,817.134,0.5486
3042,820.134,0.5437
3060,823.134,0.5378
3078,826.134,0.5342
3096,829.134,0.529
3114,832.134,0.5223
3132,835.134,0.5186
3150,838.134,0.5161
3168,841.134,0.5104
3186,844.134,0.5047
3204,847.134,0.498
3222,850.134,0.4933
3240,853.134,0.489
3258,856.134,0.4827
3276,859.134,0.4806
3294,862.134,0.4748
3312,865.134,0.4699
3330,868.134,0.4664
3348,871.134,0.4607
3366,874.134,0.4562
3384,877.134,0.4511
3402,880.134,0.4463
3420,883.134,0.4421
3438,886.134,0.4378
3456,889.134,0.4324
3474,892.134,0.4279
3492,895.134,0.4232
3510,898.134,0.419
3528,901.134,0.4142
3546,904.134,0.4103
3564,907.134,0.4059
3582,910.134,0.3988
3600,913.134,0.3958
3618,916.134,0.3908
3636,919.134,0.3857
3654,922.134,0.3816
3672,925.134,0.3785
3690,928.134,0.3738
3708,931.134,0.3695
3726,934.134,0.3635
3744,937.134,0.3623
3762,940.134,0.3571
3780,943.134,0.3527
3798,946.134,0.3496
3816,949.134,0.3444
3834,952.134,0.3424
3852,955.134,0.3383
3870,958.134,0.3351
3888,961.134,0.33
3906,964.134,0.326
3924,967.134,0.323
3942,970.134,0.3183
3960,973.134,0.3146
3978,976.134,0.3113
3996,979.134,0.3082
4014,982.134,0.3036
4032,985.134,0.2999
4050,988.134,0.2995
4068,991.134,0.2956
4086,994.134,0.2916
4104,997.134,0.2866
4122,1000.134,0.2823
4140,1003.134,0.2805
4158,1006.134,0.2765
4176,1009.134,0.2727
4194,1012.134,0.2691
4212,1015.134,0.2652
4230,1018.134,0.2634
4248,1021.134,0.2601
4266,1024.134,0.2572
4284,1027.134,0.2536
4302,1030.134,0.251
4320,1033.134,0.2477
4338,1036.134,0.2441
4356,1039.134,0.2416
4374,1042.134,0.2377
4392,1045.134,0.2359
4410,1048.134,0.2327
4428,1051.134,0.2314
4446,1054.134,0.2272
4464,1057.134,0.2239
4482,1060.134,0.221
4500,1063.134,0.2178
4518,1066.134,0.2161
4536,1069.134,0.2122
4554,1072.134,0.2097
4557,1072.634,0.2092