File: Wood/Calibration_Data/UMET/UMET_Wood_Cone_30kW_hor_R3.csv
Time (s),Mass (g),HRR (kW/m2)
0,110.935,0.07
8,110.540,1.86
16,109.134,3.68
24,109.567,5.53
32,108.161,7.29
40,107.674,29.56
48,106.452,75.61
56,105.873,124.05
64,105.295,142.81
72,104.532,144.05
80,103.402,139.38
88,103.835,134.05
96,102.521,129.37
104,101.942,124.80
112,101.640,119.99
120,101.061,115.21
128,99.563,111.15
136,98.248,108.64
144,98.406,107.35
152,98.011,106.40
160,97.525,105.30
168,96.578,104.17
176,94.344,102.77
184,94.133,102.01
192,95.118,101.87
200,94.448,101.37
208,93.501,100.14
216,94.487,99.47
224,92.896,99.58
232,91.490,99.26
240,91.095,98.53
248,91.437,98.11
256,90.398,98.13
264,90.280,97.76
272,89.333,96.65
280,88.571,95.88
288,87.532,95.33
296,86.678,94.92
304,87.295,94.78
312,87.268,95.18
320,86.598,95.84
328,86.295,96.48
336,84.705,96.74
344,84.310,96.26
352,83.548,95.00
360,83.705,93.08
368,83.219,91.09
376,82.824,89.70
384,82.798,89.36
392,82.495,89.05
400,81.641,87.81
408,80.510,85.91
416,80.208,84.32
424,78.617,83.50
432,78.315,82.91
440,77.828,82.04
448,78.077,80.92
456,76.763,79.87
464,77.656,79.63
472,76.526,79.82
480,75.763,79.65
488,76.013,79.14
496,74.790,78.81
504,73.476,78.85
512,74.369,78.71
520,73.515,78.33
528,72.936,77.74
536,71.990,77.18
544,71.135,76.81
552,71.477,75.84
560,70.990,74.13
568,70.320,71.67
576,70.017,69.56
584,68.978,68.44
592,68.860,67.48
600,68.649,66.42
608,67.151,65.65
616,67.216,66.00
624,66.914,66.52
632,66.059,66.22
640,65.297,65.54
648,65.546,64.78
656,62.293,64.69
664,62.204,64.70
672,61.936,64.75
680,60.954,65.00
688,61.133,65.56
696,60.597,66.06
704,60.061,66.08
712,59.526,65.64
720,59.079,64.65
728,58.543,63.94
736,58.276,64.20
744,57.740,64.86
752,57.740,64.60
760,57.293,63.58
768,56.936,62.65
776,56.579,62.49
784,56.401,63.11
792,55.686,64.21
800,55.329,64.22
808,55.329,62.67
816,55.329,59.03
824,55.061,55.71
832,53.990,54.37
840,53.722,54.69
848,53.722,54.58
856,53.276,54.15
864,53.454,54.32
872,53.008,54.00
880,52.115,52.33
888,51.937,51.01
896,51.669,50.30
904,49.972,49.89
912,51.490,49.76
920,48.722,50.10
928,50.597,50.30
936,50.240,50.39
944,50.419,50.63
952,49.615,49.45
960,49.437,47.45
968,48.812,45.50
976,48.455,44.32
984,48.544,43.06
992,48.365,43.15
1000,47.830,43.34
1008,47.562,42.88
1016,46.848,41.12
1024,47.383,40.03
1032,46.669,39.53
1040,46.312,40.49
1048,46.848,40.92
1056,45.955,40.98
1064,45.865,39.69
1072,46.133,38.85
1080,45.151,37.83
1088,44.616,36.63
1096,44.705,35.66
1104,44.348,35.63
1112,43.633,37.34
1120,43.455,38.32
1128,43.276,38.63
1136,42.919,38.98
1144,42.651,39.82
1152,42.383,40.69
1160,42.294,40.71
1168,41.669,40.90
1176,41.223,41.24
1184,40.687,42.72
1192,40.866,43.32
1200,40.062,44.11
1208,40.419,43.51
1216,39.794,42.33
1224,39.794,41.90
1232,39.794,42.17
1240,39.348,41.88
1248,38.812,41.70
1256,38.902,42.55
1264,38.009,43.10
1272,38.009,43.28
1280,37.741,43.14
1288,37.562,42.62
1296,37.205,41.82
1304,36.759,41.12
1312,36.312,39.74
1320,36.580,37.62
1328,36.045,36.55
1336,35.598,37.44
1344,35.330,38.57
1352,35.420,38.95
1360,35.062,39.44
1368,34.616,40.47
1376,34.705,40.86
1384,34.348,41.10
1392,33.366,41.70
1400,33.634,41.88
1408,33.098,41.29
1416,32.920,40.84
1424,32.384,40.67
1432,32.473,41.21
1440,32.116,42.26
1448,31.580,42.06
1456,31.045,41.62
1464,31.402,41.59
1472,30.866,40.92
1480,31.134,39.72
1488,31.134,39.10
1496,30.241,38.98
1504,29.884,38.63
1512,29.884,38.50
1520,29.259,38.35
1528,29.616,37.38
1536,28.902,37.04
1544,28.634,37.13
1552,28.723,36.56
1560,27.652,35.49
1568,27.831,35.03
1576,27.741,34.63
1584,27.474,33.79
1592,27.474,33.38
1600,27.027,32.88
1608,27.027,31.56
1616,25.866,29.99
1624,26.134,29.09
1632,25.688,28.58
1640,26.224,28.47
1648,25.420,28.77
1656,25.866,29.96
1664,24.706,31.78
1672,24.706,32.48
1680,24.795,30.90
1688,24.349,28.36
1696,24.438,25.80
1704,23.813,24.46
1712,23.634,24.31
1720,23.545,24.31
1728,23.277,23.24
1736,23.009,22.00
1744,22.652,21.23
1752,22.742,20.92
1760,22.742,21.47
1768,22.474,22.97
1776,22.027,23.50
1784,21.938,23.48
1792,21.938,23.86
1800,21.313,24.12
1808,21.760,23.60
1816,20.956,23.30
1824,20.510,23.52
1832,20.599,23.16
1840,20.510,22.98
1848,20.599,22.54
1856,19.974,22.30
1864,20.242,21.39
1872,19.974,20.92
1880,19.527,20.70
1888,18.813,20.46
1896,19.617,19.95
1904,18.813,19.51
1912,18.992,18.79
1920,18.724,18.02
1928,18.635,17.51
1936,17.742,16.83
1944,18.188,16.05
1952,18.188,16.18
1960,17.831,15.99
1968,17.831,15.53
1976,17.206,14.37
1984,17.563,13.57
1992,17.206,12.52
2000,17.117,11.63
2008,17.385,11.02
2016,16.670,11.46
2024,16.760,11.09
2032,16.760,10.56
2040,16.224,10.14
2048,16.403,10.48
2056,15.778,9.99
2064,15.867,9.36
2072,14.885,9.29
2080,15.599,8.61
2088,15.421,7.56
2096,15.242,6.05
2104,14.706,4.92
2112,15.153,4.20
2120,14.974,3.80
2128,14.260,3.41
2136,14.796,4.10
2144,14.528,4.38
2152,14.081,2.86
2160,14.528,1.71
2168,13.724,1.19
2176,13.635,1.68
2184,13.903,2.61
2192,13.099,3.87
2200,13.724,3.52
2208,13.546,2.64
2216,13.367,1.67
2224,13.546,1.28
2232,12.653,1.06
2240,12.564,1.24
2248,12.296,0.82
2256,12.296,0.65
2264,12.117,0.86
2272,11.849,1.98
2280,11.939,2.69
2288,12.653,2.40
2296,11.314,1.46
2304,11.046,0.90
2312,11.314,0.88
2320,11.046,0.54
2328,11.581,0.23
2336,10.510,0.05
2342,10.867,0.00