File: Wood/Calibration_Data/UMET/UMET_Wood_Cone_60kW_hor_R3.csv
Time (s),Mass (g),HRR (kW/m2)
0,85.16,0.00
7,85.16,12.92
14,85.16,103.66
21,85.16,145.03
28,84.865,157.40
35,83.782,157.63
42,82.306,154.90
49,83.290,145.75
56,81.715,142.87
63,80.731,137.29
70,80.042,132.26
77,79.550,129.81
84,78.468,126.88
91,77.976,125.38
98,78.172,124.83
105,77.090,124.57
112,76.204,123.67
119,75.417,120.70
126,74.433,117.52
133,74.334,114.46
140,73.744,111.99
147,73.744,109.18
154,72.858,106.17
161,72.661,104.25
168,71.775,102.33
175,70.988,102.17
182,70.890,104.28
189,70.102,105.88
196,69.610,104.34
203,67.937,102.44
210,67.445,101.73
217,67.544,100.71
224,67.150,98.79
231,65.870,98.74
238,65.969,98.97
245,65.870,98.68
252,65.477,100.25
259,64.788,100.89
266,64.690,100.58
273,63.509,99.19
280,63.410,97.46
287,63.410,96.49
294,61.934,96.79
301,61.934,95.82
308,60.753,95.27
315,60.261,95.60
322,61.048,95.81
329,59.375,95.84
336,59.178,94.79
343,58.785,94.52
350,59.080,93.09
357,58.292,91.81
364,57.407,90.15
371,56.718,88.93
378,56.915,88.69
385,56.619,87.86
392,55.438,88.17
399,55.734,86.86
406,55.045,85.94
413,54.651,86.08
420,54.257,86.55
427,53.372,85.74
434,52.978,85.13
441,53.569,84.93
448,52.289,84.80
455,52.486,83.17
462,51.797,82.97
469,51.403,82.29
476,51.305,82.59
483,50.124,81.91
490,49.730,81.16
497,49.632,81.28
504,49.730,80.57
511,48.549,78.96
518,48.451,78.14
525,47.664,75.88
532,47.270,75.52
539,47.762,75.54
546,47.073,74.69
553,46.679,73.21
560,46.286,72.81
567,45.892,71.64
574,44.613,72.28
581,44.908,71.59
588,45.203,71.55
595,45.006,71.19
602,43.530,70.54
609,43.727,70.90
616,43.825,71.22
623,43.235,70.07
630,43.136,69.21
637,42.841,68.38
644,42.152,68.76
651,41.168,69.70
658,40.971,69.06
665,41.168,68.16
672,41.070,67.49
679,39.790,66.42
686,39.692,65.13
693,40.086,64.88
700,39.200,64.18
707,38.905,62.80
714,38.609,62.32
721,38.412,61.36
728,37.527,61.56
735,37.330,60.73
742,37.231,60.00
749,36.838,59.79
756,37.035,59.07
763,36.543,58.62
770,36.543,58.53
777,35.558,57.56
784,35.558,58.06
791,35.066,57.83
798,34.574,56.47
805,33.885,56.76
812,34.082,56.55
819,34.377,56.93
826,33.393,56.84
833,32.901,57.03
840,31.425,56.63
847,32.114,56.22
854,32.901,56.44
861,31.917,56.11
868,31.720,55.53
875,30.834,54.54
882,31.031,54.04
889,30.638,53.67
896,30.834,53.35
903,29.949,53.14
910,30.342,53.53
917,29.260,53.26
924,29.161,52.77
931,30.244,52.39
938,28.768,51.53
945,28.374,49.96
952,27.882,51.07
959,27.784,51.96
966,28.079,50.97
973,27.488,50.11
980,26.701,49.58
987,26.996,48.17
994,26.701,48.05
1001,26.406,49.10
1008,25.914,47.83
1015,25.914,48.10
1022,25.028,46.80
1029,25.028,45.77
1036,24.339,45.50
1043,24.536,47.44
1050,24.339,47.34
1057,24.437,46.02
1064,24.339,45.53
1071,24.241,45.55
1078,23.355,45.93
1085,22.469,46.40
1092,23.552,44.48
1099,22.568,44.05
1106,22.764,43.86
1113,21.977,43.88
1120,21.780,43.35
1127,22.469,41.93
1134,21.682,41.10
1141,21.780,40.25
1148,21.583,39.05
1155,21.091,38.63
1162,20.304,38.16
1169,21.091,36.40
1176,19.713,37.30
1183,20.009,37.97
1190,19.812,37.42
1197,19.320,38.29
1204,19.910,36.36
1211,18.828,35.00
1218,18.926,34.08
1225,18.434,32.85
1232,19.123,33.56
1239,18.729,32.83
1246,18.336,33.17
1253,18.237,33.84
1260,17.450,33.75
1267,17.745,33.84
1274,17.745,32.20
1281,17.056,32.75
1288,16.564,30.34
1295,16.663,29.79
1302,16.761,30.06
1309,16.072,30.00
1316,16.269,29.51
1323,16.466,28.99
1330,15.974,27.93
1337,15.088,27.90
1344,15.482,28.53
1351,14.990,27.43
1358,15.186,27.51
1365,14.793,25.90
1372,13.907,25.29
1379,14.301,24.56
1386,13.316,23.10
1393,14.301,22.60
1400,14.005,20.52
1407,13.710,20.35
1414,13.710,19.68
1421,12.628,18.99
1428,13.021,18.78
1435,12.529,20.84
1442,12.628,19.61
1449,13.218,17.51
1456,12.234,17.59
1463,12.135,16.52
1470,12.135,13.93
1477,12.529,13.52
1484,11.643,12.29
1491,12.234,12.10
1498,12.332,11.13
1505,11.053,11.19
1512,11.545,11.43
1519,11.545,10.93
1526,11.151,10.85
1533,9.970,11.49
1540,10.856,10.57
1547,10.954,11.01
1554,10.659,10.00
1561,10.659,11.90
1568,10.462,10.89
1575,9.970,9.00
1582,9.380,8.67
1589,9.675,8.24
1596,9.577,9.82
1603,9.970,9.55
1610,9.281,8.41
1617,9.577,8.39
1624,9.085,8.42
1631,8.888,7.71
1638,9.380,6.55
1645,9.085,5.80
1652,8.297,6.35
1659,8.592,5.56
1666,8.494,6.07
1673,8.789,5.28
1680,8.592,4.64
1687,8.002,4.55
1694,8.100,4.18
1701,7.411,2.93
1708,7.215,4.09
1715,8.396,3.08
1722,7.608,2.32
1729,7.018,1.89
1736,6.624,1.49
1743,7.608,0.44
1750,7.215,0.39
1757,7.411,0.32
1764,6.919,0.15
1771,7.313,3.23
1778,6.919,4.97
1785,6.821,2.89
1792,6.821,3.50
1799,7.018,2.71
1806,6.919,1.32
1813,6.526,1.21
1820,6.132,0.17
1827,7.018,0.00
1834,7.018,0.00
1840,6.723,0.00