File: Wood/Calibration_Data/UMET/UMET_Cone_30KW_hor_R2.csv
Time (s),Mass (g),HRR (kW/m2)
0,83.61,0
8,83.61,0
16,83.55,0
24,83.50,11.667
32,83.43,54.561
40,83.25,98.712
48,83.01,113.311
56,82.63,106.477
64,82.20,97.380
72,81.76,89.895
80,81.32,84.952
88,80.89,82.926
96,80.45,81.601
104,80.02,80.705
112,79.58,79.303
120,79.14,78.818
128,78.71,78.212
136,78.27,77.305
144,77.83,74.676
152,77.40,72.246
160,76.96,70.726
168,76.52,69.761
176,76.09,69.107
184,75.65,68.503
192,75.21,68.624
200,74.78,68.750
208,74.34,68.124
216,73.90,67.049
224,73.47,66.007
232,73.03,65.218
240,72.59,64.573
248,72.16,64.279
256,71.72,64.374
264,71.28,64.394
272,70.85,64.890
280,70.41,66.364
288,69.97,69.060
296,69.54,71.408
304,69.10,72.265
312,68.66,70.854
320,68.23,68.456
328,67.79,66.359
336,67.35,65.762
344,66.92,65.995
352,66.48,66.527
360,66.04,67.029
368,65.61,68.714
376,65.16,70.782
384,64.75,72.882
392,64.26,73.248
400,63.89,72.607
408,63.42,70.958
416,62.60,69.184
424,61.82,67.918
432,61.01,67.066
440,60.36,66.106
448,60.07,64.886
456,59.77,64.044
464,59.48,63.210
472,59.18,62.268
480,58.89,61.798
488,58.60,61.953
496,58.30,61.807
504,58.01,61.094
512,57.71,59.944
520,57.42,59.277
528,57.13,59.470
536,56.83,59.898
544,56.54,60.170
552,56.24,60.330
560,55.95,60.619
568,55.66,60.284
576,55.36,59.198
584,55.07,57.897
592,54.77,57.183
600,54.48,57.692
608,54.19,57.992
616,53.89,57.605
624,53.65,56.803
632,53.42,56.587
640,52.93,56.312
648,52.62,55.744
656,52.30,54.956
664,51.95,54.350
672,51.89,53.615
680,51.63,52.692
688,51.28,51.766
696,51.02,51.231
704,50.70,50.904
712,50.38,50.651
720,50.10,50.174
728,49.78,49.514
736,49.51,48.863
744,49.18,48.158
752,48.80,47.765
760,48.58,47.286
768,48.30,46.891
776,48.02,46.339
784,47.84,45.780
792,47.55,45.112
800,47.21,44.951
808,46.97,44.982
816,46.70,45.243
824,46.37,45.409
832,46.17,45.205
840,45.94,44.392
848,45.62,43.842
856,45.27,43.609
864,44.97,43.267
872,44.61,42.986
880,44.31,42.984
888,44.14,42.751
896,43.87,42.086
904,43.69,41.437
912,43.46,42.374
920,43.21,45.875
928,42.95,51.571
936,42.62,56.619
944,42.32,58.859
952,41.93,57.859
960,41.66,55.091
968,41.27,52.760
976,40.98,51.784
984,40.59,50.470
992,40.29,49.122
1000,40.09,48.396
1008,39.71,48.493
1016,39.47,49.274
1024,39.12,50.430
1032,38.76,51.165
1040,38.47,50.931
1048,38.13,50.507
1056,37.78,49.968
1064,37.59,49.487
1072,37.35,48.842
1080,37.10,47.943
1088,36.83,46.363
1096,36.55,45.337
1104,36.21,45.102
1112,35.93,44.977
1120,35.58,44.670
1128,35.24,43.666
1136,34.93,42.310
1144,34.65,41.424
1152,34.44,39.874
1160,34.17,36.295
1168,33.88,32.045
1176,33.68,29.780
1184,33.41,28.509
1192,33.16,27.335
1200,32.98,26.562
1208,32.75,25.940
1216,32.56,25.300
1224,32.38,24.879
1232,32.13,25.026
1240,31.87,25.147
1248,31.70,24.946
1256,31.38,24.729
1264,31.20,24.258
1272,31.03,23.188
1280,30.79,22.201
1288,30.64,21.504
1296,30.41,20.752
1304,30.16,19.993
1312,29.95,19.697
1320,29.72,20.162
1328,29.48,20.946
1336,29.29,21.029
1344,29.06,20.623
1352,28.87,19.660
1360,28.69,18.468
1368,28.46,17.680
1376,28.17,17.241
1384,27.88,17.464
1392,27.77,17.974
1400,27.59,18.244
1408,27.54,18.022
1416,27.49,17.479
1424,27.29,17.518
1432,27.15,17.614
1440,26.90,17.905
1448,26.65,17.755
1456,26.42,17.164
1464,26.13,15.964
1472,25.95,15.207
1480,25.76,14.892
1488,25.59,15.230
1496,25.44,15.502
1504,25.24,16.087
1512,25.04,16.493
1520,24.84,15.573
1528,24.67,14.554
1536,24.51,13.915
1544,24.39,13.763
1552,24.11,13.626
1560,23.93,13.594
1568,23.72,13.543
1576,23.44,13.574
1584,23.29,13.002
1592,23.13,12.097
1600,22.90,11.261
1608,22.84,11.346
1616,22.67,11.669
1624,22.47,12.141
1632,22.39,12.161
1640,22.15,12.157
1648,22.05,12.067
1656,21.99,12.322
1664,21.84,12.094
1672,21.79,11.757
1680,21.69,11.457
1688,21.40,11.610
1696,21.33,11.712
1704,21.38,11.454
1712,21.39,10.956
1720,21.53,10.593
1728,21.51,10.744
1736,21.35,10.487
1744,21.19,10.070
1752,21.03,9.720
1760,20.87,9.908
1768,20.71,10.278
1776,20.56,10.047
1784,20.40,9.624
1792,20.24,9.590
1800,20.08,9.431
1808,19.92,8.941
1816,19.76,8.869
1824,19.60,8.818
1832,19.44,8.756
1840,19.28,8.864
1848,19.12,8.944
1856,18.96,8.717
1864,18.80,8.475
1872,18.64,8.445
1880,18.48,8.087
1888,18.31,7.805
1896,18.15,7.942
1904,17.99,7.733
1912,17.87,6.725
1920,17.68,6.175
1928,17.59,6.606
1936,17.42,7.009
1944,17.18,7.171
1952,17.10,7.115
1960,16.88,6.436
1968,16.70,5.740
1976,16.62,5.213
1984,16.51,4.590
1992,16.46,3.761
2000,16.42,3.337
2008,16.37,3.543
2016,16.30,3.322
2024,16.12,3.868
2032,15.89,5.252
2040,15.74,6.163
2048,15.58,6.112
2056,15.49,5.211
2064,15.47,4.726
2072,15.35,5.199
2080,15.19,6.265
2088,15.11,6.534
2096,14.95,6.185
2104,14.79,5.346
2112,14.69,4.977
2120,14.51,4.375
2128,14.39,4.391
2136,14.29,4.230
2144,14.21,4.164
2152,14.17,3.713
2160,14.16,3.036
2168,14.00,1.983
2176,13.96,1.424
2184,13.75,1.758
2192,13.66,2.627
2200,13.63,2.435
2208,13.49,2.007
2216,13.41,1.707
2224,13.28,1.840
2232,13.13,1.921
2240,13.08,1.977
2248,12.93,2.307
2256,12.80,2.065
2264,12.74,1.665
2272,12.66,1.388
2280,12.58,1.370
2288,12.51,1.603
2296,12.34,1.467
2304,12.28,1.100
2312,12.25,0.454
2320,12.14,0.000
2328,12.10,0.000
2336,11.97,0.000
2344,11.86,0.000
2347,11.84,0.000