File: Wood/Calibration_Data/UMET/UMET_TGA_N2_10K_R3.csv
Time (s),Temperature (K),Mass (mg)
0,313.134,4.2207
18,316.134,4.2201
36,319.134,4.2216
54,322.134,4.221
72,325.134,4.221
90,328.134,4.2207
108,331.134,4.2215
126,334.134,4.2212
144,337.134,4.2211
162,340.134,4.2194
180,343.134,4.2195
198,346.134,4.2188
216,349.134,4.2187
234,352.134,4.2186
252,355.134,4.2183
270,358.134,4.2179
288,361.134,4.2186
306,364.134,4.2191
324,367.134,4.219
342,370.134,4.22
360,373.134,4.22
378,376.134,4.2193
396,379.134,4.2188
414,382.134,4.2193
432,385.134,4.2187
450,388.134,4.2185
468,391.134,4.2186
486,394.134,4.219
504,397.134,4.2177
522,400.134,4.217
540,403.134,4.2162
558,406.134,4.2153
576,409.134,4.2153
594,412.134,4.2147
612,415.134,4.2132
630,418.134,4.2139
648,421.134,4.2125
666,424.134,4.212
684,427.134,4.2095
702,430.134,4.2079
720,433.134,4.2058
738,436.134,4.2037
756,439.134,4.2006
774,442.134,4.1962
792,445.134,4.1914
810,448.134,4.1854
828,451.134,4.1813
846,454.134,4.1748
864,457.134,4.1692
882,460.134,4.1622
900,463.134,4.1548
918,466.134,4.1487
936,469.134,4.1401
954,472.134,4.1322
972,475.134,4.1242
990,478.134,4.1177
1008,481.134,4.1102
1026,484.134,4.1012
1044,487.134,4.0915
1062,490.134,4.0841
1080,493.134,4.0736
1098,496.134,4.0634
1116,499.134,4.0514
1134,502.134,4.0396
1152,505.134,4.0291
1170,508.134,4.0132
1188,511.134,3.9987
1206,514.134,3.9812
1224,517.134,3.9645
1242,520.134,3.9429
1260,523.134,3.9219
1278,526.134,3.8984
1296,529.134,3.8734
1314,532.134,3.8481
1332,535.134,3.822
1350,538.134,3.7943
1368,541.134,3.7646
1386,544.134,3.7338
1404,547.134,3.7024
1422,550.134,3.6695
1440,553.134,3.6358
1458,556.134,3.6003
1476,559.134,3.5621
1494,562.134,3.5206
1512,565.134,3.4801
1530,568.134,3.4363
1548,571.134,3.3891
1566,574.134,3.3419
1584,577.134,3.2889
1602,580.134,3.2355
1620,583.134,3.1771
1638,586.134,3.1168
1656,589.134,3.0529
1674,592.134,2.986
1692,595.134,2.9164
1710,598.134,2.8427
1728,601.134,2.7653
1746,604.134,2.6716
1764,607.134,2.5976
1782,610.134,2.5052
1800,613.134,2.4263
1818,616.134,2.3328
1836,619.134,2.2417
1854,622.134,2.1333
1872,625.134,2.0347
1890,628.134,1.9205
1908,631.134,1.8102
1926,634.134,1.6897
1944,637.134,1.5665
1962,640.134,1.4408
1980,643.134,1.3156
1998,646.134,1.1949
2016,649.134,1.1051
2034,652.134,1.0235
2052,655.134,0.9652
2070,658.134,0.9316
2088,661.134,0.9125
2106,664.134,0.9013
2124,667.134,0.8905
2142,670.134,0.8834
2160,673.134,0.8746
2178,676.134,0.8684
2196,679.134,0.8616
2214,682.134,0.8538
2232,685.134,0.8473
2250,688.134,0.8398
2268,691.134,0.8332
2286,694.134,0.8267
2304,697.134,0.8202
2322,700.134,0.8155
2340,703.134,0.8079
2358,706.134,0.801
2376,709.134,0.7953
2394,712.134,0.7901
2412,715.134,0.7826
2430,718.134,0.7787
2448,721.134,0.7733
2466,724.134,0.7656
2484,727.134,0.7612
2502,730.134,0.755
2520,733.134,0.7505
2538,736.134,0.745
2556,739.134,0.7413
2574,742.134,0.7368
2592,745.134,0.7309
2610,748.134,0.727
2628,751.134,0.7226
2646,754.134,0.7174
2664,757.134,0.7092
2682,760.134,0.7047
2700,763.134,0.701
2718,766.134,0.6971
2736,769.134,0.6917
2754,772.134,0.6864
2772,775.134,0.6816
2790,778.134,0.678
2808,781.134,0.6727
2826,784.134,0.6689
2844,787.134,0.6647
2862,790.134,0.6608
2880,793.134,0.6537
2898,796.134,0.6512
2916,799.134,0.6441
2934,802.134,0.6406
2952,805.134,0.6353
2970,808.134,0.6309
2988,811.134,0.6271
3006,814.134,0.6208
3024,817.134,0.6158
3042,820.134,0.6128
3060,823.134,0.6043
3078,826.134,0.5994
3096,829.134,0.5953
3114,832.134,0.591
3132,835.134,0.5864
3150,838.134,0.5808
3168,841.134,0.5766
3186,844.134,0.5703
3204,847.134,0.5674
3222,850.134,0.5612
3240,853.134,0.558
3258,856.134,0.5523
3276,859.134,0.5476
3294,862.134,0.5435
3312,865.134,0.5392
3330,868.134,0.5348
3348,871.134,0.5296
3366,874.134,0.5244
3384,877.134,0.5207
3402,880.134,0.5155
3420,883.134,0.5121
3438,886.134,0.507
3456,889.134,0.5024
3474,892.134,0.4988
3492,895.134,0.4935
3510,898.134,0.4898
3528,901.134,0.4862
3546,904.134,0.4823
3564,907.134,0.4776
3582,910.134,0.473
3600,913.134,0.4699
3618,916.134,0.4635
3636,919.134,0.4611
3654,922.134,0.4568
3672,925.134,0.4537
3690,928.134,0.449
3708,931.134,0.4449
3726,934.134,0.4411
3744,937.134,0.4373
3762,940.134,0.4323
3780,943.134,0.4295
3798,946.134,0.428
3816,949.134,0.4237
3834,952.134,0.4189
3852,955.134,0.4161
3870,958.134,0.4138
3888,961.134,0.409
3906,964.134,0.4064
3924,967.134,0.401
3942,970.134,0.4002
3960,973.134,0.3937
3978,976.134,0.3919
3996,979.134,0.3894
4014,982.134,0.3857
4032,985.134,0.3819
4050,988.134,0.3782
4068,991.134,0.3747
4086,994.134,0.3711
4104,997.134,0.3667
4122,1000.134,0.3657
4140,1003.134,0.3646
4158,1006.134,0.3619
4176,1009.134,0.356
4194,1012.134,0.3521
4212,1015.134,0.3508
4230,1018.134,0.3488
4248,1021.134,0.3458
4266,1024.134,0.3428
4284,1027.134,0.3401
4302,1030.134,0.3364
4320,1033.134,0.333
4338,1036.134,0.332
4356,1039.134,0.3263
4374,1042.134,0.3256
4392,1045.134,0.3218
4410,1048.134,0.3177
4428,1051.134,0.3156
4446,1054.134,0.3142
4464,1057.134,0.3099
4482,1060.134,0.3084
4500,1063.134,0.3052
4518,1066.134,0.3003
4536,1069.134,0.2997
4554,1072.134,0.2975
4557,1072.634,0.2977