File: Wood/Calibration_Data/UMET/UMET_Wood_TGA_O2-21_10K_R1.csv
Time (s),Temperature (K),Mass (mg)
0,313.14,2.3484
18,316.14,2.3481
36,319.14,2.3476
54,322.14,2.3473
72,325.14,2.3467
90,328.14,2.3467
108,331.14,2.3463
126,334.14,2.3456
144,337.14,2.3445
162,340.14,2.3442
180,343.14,2.3437
198,346.14,2.3434
216,349.14,2.3434
234,352.14,2.3426
252,355.14,2.3422
270,358.14,2.3418
288,361.14,2.3414
306,364.14,2.3409
324,367.14,2.3399
342,370.14,2.3398
360,373.14,2.3396
378,376.14,2.3394
396,379.14,2.3394
414,382.14,2.3389
432,385.14,2.3387
450,388.14,2.3384
468,391.14,2.3383
486,394.14,2.338
504,397.14,2.3376
522,400.14,2.3368
540,403.14,2.3363
558,406.14,2.3353
576,409.14,2.3346
594,412.14,2.3336
612,415.14,2.3329
630,418.14,2.3323
648,421.14,2.3311
666,424.14,2.3298
684,427.14,2.3283
702,430.14,2.3268
720,433.14,2.3253
738,436.14,2.3235
756,439.14,2.3207
774,442.14,2.3174
792,445.14,2.314
810,448.14,2.311
828,451.14,2.3079
846,454.14,2.3046
864,457.14,2.3009
882,460.14,2.2971
900,463.14,2.2936
918,466.14,2.2907
936,469.14,2.287
954,472.14,2.283
972,475.14,2.2792
990,478.14,2.2748
1008,481.14,2.2702
1026,484.14,2.2654
1044,487.14,2.2601
1062,490.14,2.2548
1080,493.14,2.2485
1098,496.14,2.2412
1116,499.14,2.234
1134,502.14,2.2246
1152,505.14,2.2142
1170,508.14,2.2059
1188,511.14,2.1941
1206,514.14,2.1824
1224,517.14,2.1718
1242,520.14,2.1586
1260,523.14,2.1449
1278,526.14,2.1304
1296,529.14,2.1146
1314,532.14,2.0979
1332,535.14,2.0807
1350,538.14,2.0621
1368,541.14,2.043
1386,544.14,2.0224
1404,547.14,2.0007
1422,550.14,1.9779
1440,553.14,1.9526
1458,556.14,1.9268
1476,559.14,1.8984
1494,562.14,1.8688
1512,565.14,1.8369
1530,568.14,1.8027
1548,571.14,1.764
1566,574.14,1.7247
1584,577.14,1.6811
1602,580.14,1.6339
1620,583.14,1.5827
1638,586.14,1.5284
1656,589.14,1.468
1674,592.14,1.3984
1692,595.14,1.313
1710,598.14,1.203
1728,601.14,1.0829
1746,604.14,0.952
1764,607.14,0.8513
1782,610.14,0.7862
1800,613.14,0.7471
1818,616.14,0.7219
1836,619.14,0.7023
1854,622.14,0.6858
1872,625.14,0.6722
1890,628.14,0.659
1908,631.14,0.6466
1926,634.14,0.6351
1944,637.14,0.6234
1962,640.14,0.6121
1980,643.14,0.6012
1998,646.14,0.59
2016,649.14,0.5784
2034,652.14,0.5676
2052,655.14,0.5566
2070,658.14,0.5455
2088,661.14,0.5339
2106,664.14,0.522
2124,667.14,0.5105
2142,670.14,0.4992
2160,673.14,0.4876
2178,676.14,0.475
2196,679.14,0.4622
2214,682.14,0.4491
2232,685.14,0.4359
2250,688.14,0.4224
2268,691.14,0.4076
2286,694.14,0.3928
2304,697.14,0.3775
2322,700.14,0.3614
2340,703.14,0.3443
2358,706.14,0.3276
2376,709.14,0.3107
2394,712.14,0.2941
2412,715.14,0.2762
2430,718.14,0.2581
2448,721.14,0.2386
2466,724.14,0.2188
2484,727.14,0.1982
2502,730.14,0.1763
2520,733.14,0.1519
2538,736.14,0.1278
2556,739.14,0.1014
2574,742.14,0.0723
2592,745.14,0.0419
2610,748.14,0.0217
2628,751.14,0.0151
2646,754.14,0.0126
2664,757.14,0.0117
2682,760.14,0.0115
2700,763.14,0.0115
2718,766.14,0.0112
2736,769.14,0.0112
2754,772.14,0.0106
2772,775.14,0.0109
2790,778.14,0.011
2808,781.14,0.0109
2826,784.14,0.0108
2844,787.14,0.0102
2862,790.14,0.01
2880,793.14,0.0096
2898,796.14,0.0097
2916,799.14,0.0095
2934,802.14,0.0098
2952,805.14,0.0097
2970,808.14,0.0092
2988,811.14,0.0089
3006,814.14,0.0086
3024,817.14,0.0084
3042,820.14,0.0081
3060,823.14,0.0077
3078,826.14,0.0075
3096,829.14,0.0079
3114,832.14,0.0075
3132,835.14,0.008
3150,838.14,0.0069
3168,841.14,0.007
3186,844.14,0.0066
3204,847.14,0.0061
3222,850.14,0.0064
3240,853.14,0.0065
3258,856.14,0.0064
3276,859.14,0.0062
3294,862.14,0.0063
3312,865.14,0.0063
3330,868.14,0.0061
3348,871.14,0.0066
3366,874.14,0.0069
3384,877.14,0.0062
3402,880.14,0.0059
3420,883.14,0.0059
3438,886.14,0.0054
3456,889.14,0.0053
3474,892.14,0.005
3492,895.14,0.0049
3510,898.14,0.0051
3528,901.14,0.0053
3546,904.14,0.0053
3564,907.14,0.0054
3582,910.14,0.0056
3600,913.14,0.0054
3618,916.14,0.0053
3636,919.14,0.0052
3654,922.14,0.0046
3672,925.14,0.0043
3690,928.14,0.0041
3708,931.14,0.0035
3726,934.14,0.0033
3744,937.14,0.0033
3762,940.14,0.0035
3780,943.14,0.0039
3798,946.14,0.004
3816,949.14,0.0036
3834,952.14,0.0024
3852,955.14,0.002
3870,958.14,0.0023
3888,961.14,0.0024
3906,964.14,0.0018
3924,967.14,0.0016
3942,970.14,0.0017
3960,973.14,0.0028
3978,976.14,0.0025
3996,979.14,0.0029
4014,982.14,0.0027
4032,985.14,0.0024
4050,988.14,0.0023
4068,991.14,0.0023
4086,994.14,0.0024
4104,997.14,0.0033
4122,1000.14,0.0035
4140,1003.14,0.0037
4158,1006.14,0.0038
4176,1009.14,0.0037
4194,1012.14,0.003
4212,1015.14,0.0024
4230,1018.14,0.0027
4248,1021.14,0.0011
4266,1024.14,0.0012
4284,1027.14,0.0011
4302,1030.14,0.0008
4320,1033.14,0.0008
4338,1036.14,0.0008
4356,1039.14,0.0008
4374,1042.14,0.0008
4392,1045.14,0.0005
4410,1048.14,0.0006
4428,1051.14,0.0001
4446,1054.14,0.0004
4464,1057.14,0
4482,1060.14,0.0005
4500,1063.14,0.0009
4518,1066.14,0.0009
4536,1069.14,0.0012
4554,1072.14,0.0009
4557,1072.64,0.0009