File: Wood/Calibration_Data/UMET/UMET_Cone_60KW_hor_R2.csv
Time (s),Mass (g),HRR (kW/m2)
0,96.64,0
7,96.64,35.73
14,96.64,97.99
21,96.64,148.43
28,95.880,169.75
35,94.551,172.99
42,94.361,170.07
49,93.126,163.89
56,92.841,157.46
63,91.037,151.68
70,90.847,147.34
77,89.992,143.81
84,89.138,139.92
91,88.758,136.59
98,87.998,134.15
105,87.998,133.21
112,86.953,132.81
119,86.763,132.82
126,85.624,133.34
133,85.624,134.10
140,84.199,133.94
147,83.250,132.91
154,82.870,131.53
161,82.585,131.37
168,81.540,131.29
175,81.540,130.72
182,81.445,128.91
189,80.495,126.99
196,79.071,125.78
203,79.641,124.63
210,78.311,123.81
217,76.697,123.11
224,77.267,122.77
231,77.077,122.14
238,76.507,121.46
245,75.842,120.96
252,76.222,120.82
259,74.607,120.81
266,74.702,120.59
273,73.088,120.10
280,72.993,119.38
287,72.328,118.55
294,71.853,117.72
301,71.853,116.49
308,71.379,114.39
315,69.764,112.56
322,70.144,111.70
329,69.194,111.57
336,68.245,110.91
343,68.624,109.38
350,67.865,107.73
357,67.770,106.22
364,67.200,104.80
371,66.345,104.05
378,66.155,102.97
385,65.206,102.04
392,65.111,101.22
399,64.826,100.55
406,63.496,100.23
413,63.496,100.17
420,63.781,100.39
427,63.021,100.28
434,62.262,99.46
441,62.452,98.33
448,61.027,97.20
455,60.457,96.02
462,60.077,95.42
469,60.267,94.70
476,60.457,94.32
483,59.887,93.69
490,58.368,93.42
497,58.463,92.79
504,57.988,92.20
511,57.133,91.56
518,57.418,91.09
525,56.469,90.30
532,55.994,89.22
539,56.374,88.45
546,55.994,88.29
553,54.949,88.38
560,53.904,88.70
567,54.569,89.10
574,53.619,89.66
581,52.860,89.08
588,53.050,88.75
595,53.145,88.80
602,51.910,89.24
609,51.340,88.75
616,51.910,87.82
623,50.011,86.48
630,49.441,85.39
637,50.581,84.72
644,50.011,84.46
651,49.726,84.55
658,49.156,84.82
665,49.251,85.81
672,48.206,86.17
679,47.921,85.32
686,47.257,83.90
693,47.542,82.82
700,46.782,82.17
707,46.877,81.60
714,46.022,81.42
721,45.832,81.04
728,44.882,80.37
735,45.452,79.60
742,44.313,79.57
749,44.218,79.57
756,43.458,79.02
763,43.173,78.43
770,43.173,78.16
777,42.223,78.13
784,42.413,77.58
791,41.274,77.04
798,41.748,76.60
805,40.229,76.30
812,40.229,76.07
819,40.039,75.66
826,39.944,75.29
833,39.374,74.53
840,39.374,73.21
847,38.235,71.71
854,38.994,70.14
861,37.950,69.60
868,37.855,69.57
875,37.950,70.06
882,36.905,70.30
889,37.380,69.46
896,36.715,68.49
903,35.860,67.39
910,36.145,67.36
917,35.291,67.01
924,35.101,66.85
931,34.721,66.04
938,35.006,65.10
945,34.531,64.12
952,33.771,64.37
959,33.961,65.23
966,33.771,65.71
973,33.961,65.23
980,32.916,64.84
987,32.537,64.04
994,32.727,63.51
1001,31.207,62.60
1008,31.587,62.12
1015,31.872,61.64
1022,31.112,61.47
1029,30.732,61.59
1036,31.112,61.50
1043,30.637,61.28
1050,30.067,61.03
1057,30.542,60.48
1064,29.972,59.30
1071,29.118,58.51
1078,28.263,58.21
1085,28.358,58.48
1092,28.643,58.55
1099,28.168,58.33
1106,27.408,57.94
1113,27.503,57.42
1120,26.364,56.84
1127,26.364,56.19
1134,26.269,55.36
1141,26.459,54.93
1148,25.984,54.60
1155,26.364,54.28
1162,25.319,53.69
1169,24.844,53.41
1176,25.034,53.10
1183,23.989,52.90
1190,23.325,52.12
1197,24.369,51.13
1204,23.800,49.84
1211,24.274,49.60
1218,23.230,49.69
1225,22.850,49.84
1232,22.090,49.54
1239,23.135,49.43
1246,22.185,48.89
1253,22.090,48.09
1260,21.140,47.35
1267,21.900,47.26
1274,21.615,46.95
1281,20.381,45.51
1288,20.950,43.26
1295,20.666,41.71
1302,20.286,41.20
1309,19.716,41.59
1316,20.001,41.37
1323,19.906,40.74
1330,19.431,39.70
1337,18.481,38.77
1344,18.576,38.22
1351,17.817,37.82
1358,19.146,37.10
1365,17.532,35.78
1372,17.817,34.15
1379,18.006,32.66
1386,17.247,31.65
1393,16.772,30.71
1400,16.677,30.14
1407,17.247,29.26
1414,16.867,28.26
1421,16.487,27.15
1428,16.962,26.02
1435,16.297,25.56
1442,16.582,25.29
1449,15.822,25.25
1456,16.107,24.73
1463,15.632,23.26
1470,15.347,21.91
1477,15.442,21.36
1484,14.778,21.73
1491,15.442,21.64
1498,14.588,20.56
1505,14.398,19.53
1512,14.778,19.13
1519,14.588,19.39
1526,14.208,18.92
1533,13.733,17.74
1540,13.638,16.04
1547,13.448,14.93
1554,13.543,14.67
1561,13.923,14.80
1568,14.208,14.66
1575,13.543,13.94
1582,12.973,12.94
1589,12.593,12.39
1596,12.403,12.01
1603,12.213,12.25
1610,12.498,12.83
1617,12.213,12.94
1624,11.834,12.30
1631,12.308,10.85
1638,12.783,9.98
1645,12.213,8.72
1652,11.359,7.68
1659,12.973,6.85
1666,11.739,6.66
1673,11.834,6.27
1680,11.169,5.83
1687,10.979,4.84
1694,11.359,3.95
1701,11.454,4.04
1708,10.979,4.60
1715,11.264,4.87
1722,10.789,4.19
1729,10.884,4.05
1736,10.409,4.40
1743,9.649,4.27
1750,10.694,3.26
1757,10.124,2.29
1764,10.124,1.89
1771,10.789,2.21
1778,9.554,2.31
1785,9.459,1.92
1792,9.174,1.04
1799,9.744,0.63
1806,7.560,0.26
1813,9.079,0.38
1820,9.649,0.35
1827,9.364,0.38
1834,9.554,0.36
1840,8.605,0.00