File: Wood/Calibration_Data/UMET/UMET_Wood_TGA_O2-21_10K_R2.csv
Time (s),Temperature (K),Mass (mg)
0,313.14,4.0253
18,316.14,4.0249
36,319.14,4.0249
54,322.14,4.025
72,325.14,4.0241
90,328.14,4.0237
108,331.14,4.0235
126,334.14,4.0231
144,337.14,4.0223
162,340.14,4.0218
180,343.14,4.0214
198,346.14,4.0208
216,349.14,4.0204
234,352.14,4.0209
252,355.14,4.021
270,358.14,4.0204
288,361.14,4.0195
306,364.14,4.0189
324,367.14,4.0177
342,370.14,4.0173
360,373.14,4.017
378,376.14,4.0163
396,379.14,4.0161
414,382.14,4.0151
432,385.14,4.0147
450,388.14,4.014
468,391.14,4.0136
486,394.14,4.0133
504,397.14,4.0125
522,400.14,4.0117
540,403.14,4.0108
558,406.14,4.0099
576,409.14,4.0094
594,412.14,4.0084
612,415.14,4.0079
630,418.14,4.0068
648,421.14,4.0056
666,424.14,4.0043
684,427.14,4.0027
702,430.14,4.0008
720,433.14,3.9984
738,436.14,3.9957
756,439.14,3.993
774,442.14,3.99
792,445.14,3.9865
810,448.14,3.9822
828,451.14,3.9777
846,454.14,3.9721
864,457.14,3.9667
882,460.14,3.961
900,463.14,3.9553
918,466.14,3.9492
936,469.14,3.9418
954,472.14,3.9339
972,475.14,3.9273
990,478.14,3.9208
1008,481.14,3.9131
1026,484.14,3.9059
1044,487.14,3.8972
1062,490.14,3.8883
1080,493.14,3.8789
1098,496.14,3.8678
1116,499.14,3.8564
1134,502.14,3.8425
1152,505.14,3.8286
1170,508.14,3.8136
1188,511.14,3.797
1206,514.14,3.7785
1224,517.14,3.7604
1242,520.14,3.7395
1260,523.14,3.7172
1278,526.14,3.691
1296,529.14,3.6652
1314,532.14,3.6372
1332,535.14,3.6087
1350,538.14,3.5789
1368,541.14,3.5457
1386,544.14,3.5106
1404,547.14,3.4719
1422,550.14,3.4332
1440,553.14,3.3924
1458,556.14,3.3476
1476,559.14,3.2985
1494,562.14,3.2483
1512,565.14,3.1937
1530,568.14,3.1358
1548,571.14,3.0721
1566,574.14,3.0038
1584,577.14,2.9302
1602,580.14,2.8356
1620,583.14,2.7569
1638,586.14,2.6498
1656,589.14,2.5432
1674,592.14,2.4201
1692,595.14,2.2743
1710,598.14,2.098
1728,601.14,1.8843
1746,604.14,1.6597
1764,607.14,1.4816
1782,610.14,1.3861
1800,613.14,1.3244
1818,616.14,1.2811
1836,619.14,1.247
1854,622.14,1.2182
1872,625.14,1.1933
1890,628.14,1.1701
1908,631.14,1.1473
1926,634.14,1.127
1944,637.14,1.1075
1962,640.14,1.0871
1980,643.14,1.067
1998,646.14,1.0473
2016,649.14,1.0282
2034,652.14,1.0082
2052,655.14,0.9878
2070,658.14,0.9684
2088,661.14,0.9482
2106,664.14,0.9276
2124,667.14,0.9074
2142,670.14,0.8878
2160,673.14,0.867
2178,676.14,0.8455
2196,679.14,0.8237
2214,682.14,0.8017
2232,685.14,0.7799
2250,688.14,0.7563
2268,691.14,0.7319
2286,694.14,0.7072
2304,697.14,0.682
2322,700.14,0.6552
2340,703.14,0.6264
2358,706.14,0.5973
2376,709.14,0.5671
2394,712.14,0.5372
2412,715.14,0.5053
2430,718.14,0.4736
2448,721.14,0.4417
2466,724.14,0.4084
2484,727.14,0.3736
2502,730.14,0.336
2520,733.14,0.2963
2538,736.14,0.2553
2556,739.14,0.2105
2574,742.14,0.1603
2592,745.14,0.0307
2610,748.14,0.0155
2628,751.14,0.0134
2646,754.14,0.0121
2664,757.14,0.0118
2682,760.14,0.0115
2700,763.14,0.0115
2718,766.14,0.0112
2736,769.14,0.0109
2754,772.14,0.0106
2772,775.14,0.0104
2790,778.14,0.0103
2808,781.14,0.0103
2826,784.14,0.0101
2844,787.14,0.0099
2862,790.14,0.0096
2880,793.14,0.0095
2898,796.14,0.0092
2916,799.14,0.0092
2934,802.14,0.0091
2952,805.14,0.0087
2970,808.14,0.0086
2988,811.14,0.0085
3006,814.14,0.0081
3024,817.14,0.0079
3042,820.14,0.0073
3060,823.14,0.0071
3078,826.14,0.0063
3096,829.14,0.0065
3114,832.14,0.0061
3132,835.14,0.0059
3150,838.14,0.0051
3168,841.14,0.0053
3186,844.14,0.0054
3204,847.14,0.0054
3222,850.14,0.006
3240,853.14,0.005
3258,856.14,0.0048
3276,859.14,0.0056
3294,862.14,0.006
3312,865.14,0.0059
3330,868.14,0.0058
3348,871.14,0.0056
3366,874.14,0.0061
3384,877.14,0.0059
3402,880.14,0.0054
3420,883.14,0.005
3438,886.14,0.0048
3456,889.14,0.0046
3474,892.14,0.0046
3492,895.14,0.0045
3510,898.14,0.005
3528,901.14,0.0048
3546,904.14,0.0048
3564,907.14,0.0052
3582,910.14,0.0051
3600,913.14,0.0054
3618,916.14,0.0055
3636,919.14,0.0053
3654,922.14,0.0046
3672,925.14,0.0045
3690,928.14,0.0045
3708,931.14,0.0042
3726,934.14,0.0043
3744,937.14,0.0038
3762,940.14,0.0043
3780,943.14,0.0044
3798,946.14,0.0031
3816,949.14,0.0023
3834,952.14,0.0018
3852,955.14,0.0007
3870,958.14,0.0014
3888,961.14,0.0015
3906,964.14,0.0008
3924,967.14,0.0009
3942,970.14,0.0006
3960,973.14,0.0019
3978,976.14,0.002
3996,979.14,0.0023
4014,982.14,0.0022
4032,985.14,0.0014
4050,988.14,0.0018
4068,991.14,0.0018
4086,994.14,0.0011
4104,997.14,0.0013
4122,1000.14,0.0013
4140,1003.14,0.001
4158,1006.14,0.0013
4176,1009.14,0.0012
4194,1012.14,0.0007
4212,1015.14,0.0006
4230,1018.14,0.0006
4248,1021.14,0.001
4266,1024.14,0.0009
4284,1027.14,0.0009
4302,1030.14,0.0007
4320,1033.14,0.0008
4338,1036.14,0.0011
4356,1039.14,0.0013
4374,1042.14,0.0014
4392,1045.14,0.0012
4410,1048.14,0.0011
4428,1051.14,0.001
4446,1054.14,0.0008
4464,1057.14,0.0004
4482,1060.14,0.0006
4500,1063.14,0.0006
4518,1066.14,0.0007
4536,1069.14,0.0004
4554,1072.14,0.0002
4557,1072.64,0.0002