File: PMMA/Calibration_Data/FM/FM_FPA_25kW_3.csv
Time,Mass,Temperature Front
[s],[g],[K]
1,168.263,304.834
4,168.156,350.911
7,168.497,378.524
10,168.73,398.94
13,168.741,414.706
16,168.753,429.143
19,168.741,441.662
22,168.697,453.36
25,168.706,464.319
28,168.67,473.718
31,168.66,482.896
34,168.662,491.424
37,168.623,499.629
40,168.637,507.105
43,168.592,514.408
46,168.582,521.013
49,168.564,526.746
52,168.571,532.791
55,168.547,538.134
58,168.566,544.435
61,168.568,549.644
64,168.524,554.913
67,168.526,559.927
70,168.527,564.415
73,168.52,568.798
76,168.564,573.657
79,168.537,578.327
82,168.5236,583.447
85,168.536,588.012
88,168.5,591.984
91,168.488,595.487
94,168.472,599.181
97,168.475,602.238
100,168.458,606.068
103,168.472,609.178
106,168.501,611.841
109,168.497,616.245
112,168.442,619.853
115,168.429,623.304
118,168.414,626.344
121,168.373,628.859
124,168.378,630.947
127,168.334,632.782
130,168.321,634.649
133,168.309,636.054
136,168.276,638.236
139,168.239,639.26
142,168.24,638.899
145,168.187,640.343
148,168.155,641.043
151,168.127,639.713
154,168.085,640.701
157,167.992,642.743
160,167.975,641.521
163,167.917,642.855
166,167.829,642.555
169,167.725,642.872
172,167.654,640.782
175,167.591,639.838
178,167.473,643.623
181,167.394,639.099
184,167.28,643.208
187,167.182,639.365
190,167.066,649.876
193,166.991,636.26
196,166.868,649.875
199,166.758,647.912
202,166.625,647.946
205,166.515,647.181
208,166.3863,647.813
211,166.268,650.494
214,166.134,643.166
217,166.005,648.607
220,165.875,653.492
223,165.738,652.609
226,165.596,663.459
229,165.471,645.139
232,165.349,650.384
235,165.212,652.849
238,165.088,657.916
241,164.915,652.413
244,164.791,648.628
247,164.636,657.552
250,164.491,655.478
253,164.335,653.894
256,164.164,655.88
259,164.024,647.253
262,163.834,655.972
265,163.669,657.211
268,163.517,657.62
271,163.377,656.961
274,163.226,658.849
277,163.056,654.763
280,162.91,662.754
283,162.778,660.126
286,162.589,664.153
289,162.408,665.816
292,162.242,666.781
295,162.071,667.593
298,161.861,668.364
301,161.679,669.901
304,161.54,667.197
307,161.358,662.855
310,161.155,668.768
313,160.96,667.857
316,160.764,668.36
319,160.56,666.334
322,160.408,667.313
325,160.181,669.781
328,159.96,670.56
331,159.77,669.984
334,159.561,664.018
337,159.346,671.554
340,159.142,670.767
343,158.927,662.063
346,158.755,670.3
349,158.521,664.212
352,158.283,660.785
355,158.095,661.622
358,157.859,663.249
361,157.661,670.942
364,157.443,662.432
367,157.195,670.976
370,156.983,662.121
373,156.778,657.344
376,156.525,660.873
379,156.317,653.306
382,156.089,658.212
385,155.871,666.003
388,155.644,657.881
391,155.424,663.12
394,155.187,656.288
397,154.938,666.934
400,154.735,662.5
403,154.504,668.047
406,154.25,672.475
409,154.034,665.97
412,153.772,658.063
415,153.494,659.403
418,153.285,660.349
421,153.047,644.89
424,152.787,642.733
427,152.53,660.8
430,152.256,653.73
433,152.041,653.272
436,151.777,657.487
439,151.521,661.702
442,151.263,661.801
445,151,658.978
448,150.737,653.11
451,150.489,657.889
454,150.239,657.558
457,149.945,641.995
460,149.684,647.446
463,149.406,662.272
466,149.117,656.274
469,148.84,658.525
472,148.574,637.542
475,148.272,637.797
478,147.988,645.595
481,147.731,659.969
484,147.422,641.113
487,147.142,639.077
490,146.839,652.907
493,146.558,638.453
496,146.254,638.077
499,145.986,639.759
502,145.688,641.404
505,145.368,642.094
508,145.091,661.487
511,144.781,642.382
514,144.443,636.185
517,144.133,654.768
520,143.837,648.039
523,143.544,621.651
526,143.203,645.829
529,142.888,617.598
532,142.589,620.277
535,142.252,619.208
538,141.944,617.846
541,141.628,613.834
544,141.2653,611.895
547,140.942,622.163
550,140.651,623.176
553,140.268,620.564
556,139.932,628.479
559,139.59,623.547
562,139.241,606.043
565,138.896,605.475
568,138.581,612.682
571,138.232,620.003
574,137.871,624.008
577,137.496,614.27
580,137.157,614.117
583,136.798,610.798
586,136.425,601.593
589,136.056,609.11
592,135.711,611.413
595,135.348,597.177
598,134.972,603.409
601,134.637,607.726
604,134.248,615.854
607,133.877,598.753
610,133.54,605.289
613,133.179,611.047
616,132.783,617.484
619,132.387,611.444
622,132.059,625.098
625,131.691,606.96
628,131.325,604.915
631,130.962,593.668
634,130.592,596.591
637,130.231,594.908
640,129.877,591.207
643,129.519,613.138
646,129.156,609.068
649,128.821,607.373
652,128.464,613.552
655,128.099,624.235
658,127.743,628.623
661,127.425,643.915
664,127.099,638.615
667,126.805,663.117
670,126.531,644.227
673,126.252,667.882
676,126.02,684.147
679,125.8,694.208
682,125.582,696.668
685,125.394,690.46
688,125.232,695.021
691,125.066,701.87
694,124.89,697.907
697,124.743,699.287
700,124.636,704.55
703,124.498,710.868
706,124.392,716.709
709,124.278,709.37
712,124.191,719.922
715,124.117,726.058
718,124.01,724.302
721,123.946,720.293
724,123.867,730.379
727,123.823,731.43
730,123.771,736.003
733,123.712,733.968
736,123.7,738.098
739,123.677,739.551
742,123.681,741.335
745,123.643,740.986
748,123.629,738.588
751,123.578,741.824
754,123.604,742.639
757,123.564,742.431
760,123.551,744.883
763,123.53,746.077
766,123.494,741.664
769,123.514,743.069
772,123.474,742.493
775,123.446,742.851
778,123.44,748.22
779,123.451,746.18