File: PMMA/Calibration_Data/FM/FM_FPA_25kW_2.csv
Time,Mass,Temperature Front
[s],[g],[K]
1,168.48,299.081
4,168.483,338.401
7,168.55,369.296
10,168.48,391.062
13,168.525,407.832
16,168.538,422.416
19,168.564,435.05
22,168.575,446.954
25,168.592,457.537
28,168.578,467.577
31,168.59,476.595
34,168.607,485.443
37,168.626,493.58
40,168.613,501.012
43,168.619,507.629
46,168.638,514.769
49,168.638,520.52
52,168.628,527.046
55,168.677,533.479
58,168.659,538.846
61,168.672,544.324
64,168.674,548.985
67,168.684,553.769
70,168.678,559.59
73,168.702,564.137
76,168.683,568.816
79,168.678,573.126
82,168.676,577.95
85,168.69,582.933
88,168.71,587.729
91,168.709,590.716
94,168.712,595.02
97,168.696,597.932
100,168.702,601.56
103,168.683,604.213
106,168.694,606.675
109,168.697,610.655
112,168.69,612.849
115,168.691,616.427
118,168.685,618.753
121,168.662,622.576
124,168.676,625.246
127,168.638,627.332
130,168.626,629.79
133,168.594,631.82
136,168.577,634.324
139,168.533,633.971
142,168.514,637.413
145,168.478,636.757
148,168.453,637.758
151,168.39,640.622
154,168.365,636.949
157,168.266,640.764
160,168.217,640.265
163,168.159,638.312
166,168.11,640.413
169,167.996,638.682
172,167.923,638.948
175,167.825,641.536
178,167.745,639.453
181,167.619,641.995
184,167.511,641.882
187,167.405,639.75
190,167.284,640.666
193,167.189,640.639
196,167.036,642.05
199,166.9407,641.072
202,166.816,647.067
205,166.702,643.747
208,166.555,639.978
211,166.435,642.468
214,166.322,649.523
217,166.171,645.662
220,166.038,645.998
223,165.908,651.3
226,165.775,644.345
229,165.614,648.771
232,165.477,644.797
235,165.317,652.077
238,165.177,641.677
241,165.037,647.678
244,164.878,643.325
247,164.727,652.742
250,164.569,650.018
253,164.392,651.031
256,164.213,654.316
259,164.073,653.804
262,163.887,654.203
265,163.733,654.239
268,163.574,651.229
271,163.429,655.051
274,163.237,658.672
277,163.031,658.195
280,162.838,658.599
283,162.695,657.874
286,162.529,654.171
289,162.309,659.3
292,162.155,660.48
295,162.002,661.404
298,161.78,658.208
301,161.585,656.53
304,161.418,660.005
307,161.211,663.433
310,161.086,659.387
313,160.875,656.027
316,160.613,661.167
319,160.496,665.397
322,160.212,657.966
325,160.042,657.094
328,159.781,660.245
331,159.644,661.16
334,159.42,660.875
337,159.184,660.591
340,158.913,663.985
343,158.763,654.118
346,158.496,663.81
349,158.371,658.289
352,158.065,658.23
355,157.853,662.075
358,157.606,660.182
361,157.437,661.428
364,157.19,653.772
367,156.946,660.533
370,156.664,653.489
373,156.457,652.862
376,156.206,660.26
379,156.018,652.345
382,155.745,651.469
385,155.508,661.092
388,155.239,656.56
391,155.067,657.543
394,154.781,663.069
397,154.589,650.175
400,154.262,649.111
403,154.036,653.19
406,153.773,660.585
409,153.586,644.984
412,153.332,658.802
415,153.037,656.569
418,152.729,655.16
421,152.522,656.155
424,152.288,651.693
427,152.031,652.525
430,151.689,649.105
433,151.403,659.442
436,151.142,657.907
439,150.952,657.584
442,150.655,650.967
445,150.343,659.359
448,150.062,651.453
451,149.746,648.745
454,149.537,644.536
457,149.278,647.843
460,148.991,641.638
463,148.622,656.596
466,148.357,643.793
469,148.118,636.279
472,147.831,643.278
475,147.504,649.574
478,147.141,643.552
481,146.831,659.176
484,146.578,650.579
487,146.306,644.571
490,146.012,646.116
493,145.643,637.861
496,145.342,634.601
499,145.008,655.567
502,144.771,658.348
505,144.419,627.656
508,144.072,635.07
511,143.751,644.176
514,143.474,640.08
517,143.185,637.23
520,142.864,646.914
523,142.519,633.047
526,142.122,626.045
529,141.806,653.874
532,141.522,635.397
535,141.193,635.51
538,140.9,635.085
541,140.492,644.083
544,140.157,625.569
547,139.828,639.239
550,139.479,619.526
553,139.121,616.469
556,138.73,626.375
559,138.406,625.493
562,138.075,636.665
565,137.718,626.603
568,137.35,628.148
571,136.9907,638.958
574,136.625,622.273
577,136.294,623.564
580,135.917,624.42
583,135.57,622.704
586,135.159,642.38
589,134.815,623.872
592,134.457,629.507
595,134.104,639.493
598,133.742,635.66
601,133.366,621.354
604,132.993,614.952
607,132.644,627.949
610,132.239,634.228
613,131.855,620.687
616,131.474,632.203
619,131.086,638.064
622,130.72,639.621
625,130.348,625.725
628,129.978,629.204
631,129.591,625.169
634,129.239,615.449
637,128.858,604.752
640,128.455,638.02
643,128.077,625.924
646,127.726,622.143
649,127.336,607.91
652,126.994,611.133
655,126.666,609.072
658,126.31,634.392
661,125.901,627.734
664,125.562,632.358
667,125.198,636.941
670,124.917,658.151
673,124.619,650.455
676,124.35,692.888
679,124.134,707.732
682,123.953,712.225
685,123.787,723.948
688,123.64,733.657
691,123.5,736.06
694,123.386,742.122
697,123.314,757.997
700,123.196,759.51
703,123.169,751.695
706,123.111,761.214
709,123.071,755.068
712,123.027,757.357
715,122.995,764.229
718,122.9693,765.104
721,122.928,764.076
724,122.903,767.831
727,122.89,771.963
730,122.853,768.807
733,122.85,770.496
736,122.811,772.876
739,122.825,773.964
742,122.79,777.118
745,122.81,779.226
748,122.765,779.073
751,122.775,779.913
754,122.758,780.868
757,122.752,779.175
760,122.762,780.875
763,122.759,780.757
766,122.721,780.429
769,122.718,779.324
772,122.715,781.624
775,122.701,783.036
778,122.683,780.911
780,122.663,781.605