File: PMMA/Calibration_Data/UMD/UMD_CAPA_25kW_Mass.csv
Time,MLR_mean,Temp_avg_all4,MLR_error,Temperature_Error
[s],[kg/s/m2],[K],[kg/s/m2],[K]
2.493585,-0.000938839,0,0.000540742,0
12.4411,0.000468942,0,0.000117623,0
22.3921,0.0004123,0,0.000121883,0
32.4232,0.000292289,0,8.77E-05,0
42.458,0.000253962,0,0.00017945,0
52.49583,0.000330686,0,0.000146755,0
62.5256,2.45E-05,0,0.000236052,0
72.5581,0.0003016,0,0.000152919,0
82.587,0.000213859,0,0.000126045,0
92.6179,0.000315268,0,0.00022529,0
102.65,0.000388278,0,0.000106028,0
112.68,0.000310262,0,0.000101064,0
122.715,0.000726266,0,0.000183317,0
132.499,0.000484197,0,0.000211978,0
142.278,0.001308147,0,0.000133317,0
152.314,0.001452347,0,0.000141828,0
162.348,0.001610469,0,0.000155318,0
172.377,0.002275585,0,0.000128158,0
182.409,0.003193513,0,0.000287445,0
192.441,0.003280541,0,0.000381812,0
202.47,0.003515247,0,0.000284727,0
212.5,0.004345897,0,0.000281083,0
222.531,0.004128328,0,0.000276753,0
232.563,0.004591777,0,0.000257827,0
242.592,0.004519994,0,0.000249993,0
252.624,0.005392246,0,0.000294357,0
262.651,0.00519802,0,0.000325449,0
272.68,0.00556278,0,0.000345061,0
282.627,0.005412027,0,0.000430688,0
292.572,0.005960452,0,0.000296702,0
302.435,0.005804532,0,0.000277453,0
312.376,0.005897648,0,0.000389319,0
322.329,0.006234084,0,0.000410814,0
332.363,0.005478886,0,0.000368106,0
342.397,0.006854029,0,0.000417884,0
352.43,0.006679915,0,0.000386477,0
362.464,0.006592617,0,0.000345284,0
372.497,0.006262168,0,0.000480806,0
382.53,0.006842806,0,0.000331439,0
392.56,0.006984449,0,0.000349038,0
402.589,0.00626725,0,0.000437754,0
412.621,0.008316793,0,0.000356153,0
422.652,0.006823627,0,0.000391952,0
432.683,0.007400208,0,0.000378544,0
442.381,0.007067332,0,0.000269531,0
452.416,0.007037665,0,0.000274886,0
462.447,0.00655642,0,0.000394711,0
472.476,0.007109928,0,0.000352595,0
482.418,0.007571637,0,0.000359444,0
492.368,0.007281411,0,0.000320934,0
502.403,0.007274772,0,0.000299438,0
512.437,0.007803093,0,0.0003373,0
522.467,0.007545438,0,0.000234185,0
532.498,0.006366305,0,0.000415614,0
542.533,0.007241456,0,0.000332137,0
552.566,0.007237778,0,0.000266435,0
562.594,0.007032848,0,0.000305445,0
572.547,0.007238977,0,0.000256291,0
582.501,0.007228486,0,0.000257477,0
592.537,0.007384795,0,0.000209308,0
602.573,0.007558178,0,0.000335539,0
612.44,0.007055606,0,0.000291401,0
622.477,0.007150828,0,0.000328408,0
632.51,0.007041907,0,0.000256249,0
642.54,0.007089974,0,0.000288078,0
652.5697,0.006994963,0,0.000301943,0
662.52,0.006684625,0,0.000346411,0
672.465,0.007399596,0,0.000455507,0
682.498,0.007357717,0,0.000390257,0
692.525,0.00734333,0,0.000305392,0
702.554,0.006747526,0,0.000375047,0
712.422,0.007300222,0,0.000327259,0
722.458,0.006284964,0,0.000353113,0
732.489,0.007600134,0,0.000463441,0
742.522,0.006751649,0,0.000361608,0
752.555,0.007495446,0,0.000382337,0
762.423,0.007042791,0,0.000286203,0
772.458,0.006771718,0,0.000331102,0
782.489,0.006898723,0,0.00033621,0
792.521,0.006978912,0,0.000316192,0
802.548,0.0072178,0,0.000306488,0
812.573,0.00693189,0,0.000301655,0
822.6,0.006849391,0,0.000495707,0
832.548,0.00726145,0,0.000413054,0
842.493,0.006625417,0,0.000283579,0
852.524,0.007743629,0,0.000481312,0
862.387,0.006804319,0,0.000299314,0
872.417,0.006952873,0,0.000245522,0
882.445,0.007264931,0,0.000399108,0
892.477,0.006996043,0,0.000298465,0
902.507,0.006832108,0,0.000269154,0
912.535,0.006936617,0,0.000250706,0
922.478,0.006906759,0,0.000241672,0
932.423,0.007171452,0,0.000265281,0
942.45,0.00697033,0,0.000333976,0
952.484,0.006412585,0,0.000306831,0
962.512,0.006545263,0,0.000275566,0
972.538,0.006652724,0,0.00028349,0
982.568,0.006637542,0,0.000315144,0
992.6,0.006825153,0,0.000316731,0
1002.63,0.006440976,0,0.000262823,0
1012.49,0.006112104,0,0.000504325,0
1022.52,0.00677334,0,0.000315091,0
1032.38,0.005904874,0,0.000285201,0
1042.42,0.006150418,0,0.000359261,0
1052.45,0.006107616,0,0.000424447,0
1062.48,0.005908161,0,0.000353434,0
1072.52,0.005449158,0,0.000239147,0
1082.46,0.005488405,0,0.000408713,0
1092.41,0.005297237,0,0.000348249,0
1102.44,0.004792896,0,0.000278351,0
1112.47,0.005005179,0,0.000389307,0
1122.5,0.004373915,0,0.000330411,0
1132.53,0.004766959,0,0.000371124,0
1142.56,0.00439553,0,0.000502216,0
1152.58,0.004146942,0,0.000333447,0
1162.61,0.004071744,0,0.000471701,0
1172.64,0.003880335,0,0.00046103,0
1182.59,0.0037243,0,0.000434938,0
1192.36,0.003471801,0,0.000392601,0
1202.4,0.003444591,0,0.000368149,0
1212.43,0.002558952,0,0.000391452,0
1222.46,0.002867144,0,0.000240127,0
1232.49,0.002465634,0,0.000329903,0
1242.52,0.002742845,0,0.000293195,0
1252.39,0.002031831,0,0.000270302,0
1262.42,0.001619913,0,0.000313473,0
1272.44,0.001422879,0,0.000279825,0
1282.48,0.002200714,0,0.000244517,0
1292.5,0.00154366,0,0.000308034,0
1302.53,0.001580303,0,0.000346075,0
1312.56,0.001131464,0,0.000227463,0
1322.59,0.001236126,0,0.000230489,0
1332.62,0.000909401,0,0.000235263,0
1342.65,0.001027229,0,0.000237798,0
1352.67,0.000966789,0,0.000187812,0
1362.45,0.000772343,0,0.00027106,0
1372.4,0.000407457,0,0.000228462,0
1382.43,0.000630153,0,0.000147959,0
1392.46,0.000784031,0,0.000125058,0
1402.49,0.000809679,0,0.000140504,0
1412.44,0.000850405,0,0.000159049,0
1422.39,0.000405341,0,9.85E-05,0
1432.41,0.000184743,0,0.000139666,0
1442.44,0.000256977,0,0.000151849,0
1452.48,0.000455227,0,0.00026911,0
1462.5,0.000459946,0,0.000121643,0
1472.53,0.000389098,0,0.000120056,0
1482.56,0.000145924,0,0.000178683,0
1492.59,0.000233954,0,0.000180943,0
1502.62,0.000171309,0,0.000203038,0
1512.66,0.000340532,0,0.00011236,0
1522.61,0.000270272,0,0.000137006,0
1532.38,0.000255886,0,0.000102994,0
1542.41,8.77E-05,0,0.000159325,0
1552.44,0.00020779,0,0.000129431,0
1562.47,0.000567547,0,0.000356085,0
1572.5,0.000299756,0,0.000216309,0
1582.52,1.83E-05,0,0.000155955,0
1592.39,-0.000178477,0,0.000210462,0
1602.41,0.000163166,0,0.000240251,0
1612.44,0.000308098,0,0.000138209,0
1622.46,-1.13E-05,0,0.000161153,0
1632.49,0.000153312,0,0.000164803,0
1642.52,0.000226947,0,0.00010308,0
1652.55,5.52E-05,0,0.000160518,0
1662.57,0.000584407,0,0.000300068,0
1672.6,0.000533149,0,0.000375924,0
1682.55,-0.000162649,0,0.000244549,0