File: PMMA/Calibration_Data/UMD/UMD_CAPA_60kW_Mass.csv
Time,MLR_mean,Temp_avg_all4,MLR_error,Temperature_Error
[s],[kg/s/m2],[K],[kg/s/m2],[K]
2.49315,-0.000260366,0,0.001030198,0
7.50806,-0.0002508,0,0.000454634,0
12.5234,0.001199156,0,0.000289296,0
17.5398,0.000973333,0,0.000337859,0
22.55627,0.004774699,0,0.000927216,0
27.57311,0.01073036,0,0.001089449,0
32.5914,0.0156333,0,0.00069556,0
37.6118,0.0172381,0,0.00058606,0
42.6298,0.01814478,0,0.000399137,0
47.64548,0.0189136,0,0.000304719,0
52.6607,0.0205649,0,0.000364624,0
57.6754,0.0209623,0,0.000343216,0
62.5681,0.0226332,0,0.000691289,0
67.45539,0.02250719,0,0.000585457,0
72.4715,0.0228395,0,0.00071374,0
77.4877,0.0230462,0,0.000412467,0
82.5044,0.0221966,0,0.000592869,0
87.5186,0.023085,0,0.000342244,0
92.53275,0.0238895,0,0.000370589,0
97.54921,0.0241009,0,0.000748653,0
102.564,0.0234109,0,0.000630322,0
107.4496,0.0239424,0,0.0007359,0
112.342,0.0244553,0,0.000342419,0
117.36,0.0242955,0,0.000397993,0
122.377,0.0240836,0,0.000545008,0
127.394,0.02500547,0,0.000452827,0
132.409,0.0243988,0,0.000494299,0
137.423,0.0255058,0,0.000412429,0
142.439,0.0253787,0,0.000678547,0
147.456,0.0253273,0,0.000354926,0
152.47,0.0248779,0,0.00043408,0
157.485,0.0265038,0,0.000568927,0
162.5021,0.0262602,0,0.00040276,0
167.518,0.0267962,0,0.000324452,0
172.533,0.02711086,0,0.000432136,0
177.548,0.0273605,0,0.000420058,0
182.5651,0.02743618,0,0.000432462,0
187.581,0.0283264,0,0.000528299,0
192.599,0.0285004,0,0.000493924,0
197.616,0.028594,0,0.000610944,0
202.632,0.030101,0,0.000446942,0
207.647,0.0297525,0,0.000407067,0
212.663,0.0300825,0,0.000738712,0
217.678,0.0306388,0,0.000618145,0
222.691,0.0310901,0,0.000573707,0
227.585,0.0317358,0,0.000806875,0
232.471,0.0318161,0,0.000683193,0
237.486,0.0336127,0,0.000683338,0
242.505,0.0328179,0,0.000645993,0
247.399,0.0311889,0,0.000496448,0
252.298,0.0320065,0,0.000520398,0
257.316,0.031702,0,0.000572916,0
262.333,0.0317445,0,0.000656471,0
267.348,0.0295659,0,0.000658074,0
272.364,0.0279077,0,0.000555152,0
277.38,0.0214195,0,0.001515462,0
282.395,0.0194969,0,0.001064124,0
287.408,0.0122424,0,0.001137212,0
292.421,0.006669651,0,0.000769452,0
297.438,0.003084511,0,0.000419058,0
302.455,0.002055262,0,0.00053601,0
307.471,0.000547483,0,0.000117617,0
312.488,0.000442644,0,0.000154365,0
317.505,-2.57E-05,0,7.59E-05,0
322.521,0.000402156,0,7.62E-05,0
327.536,0.000171301,0,0.000169722,0
332.551,6.63E-05,0,0.000103988,0
337.568,0.000357048,0,0.000233377,0
342.587,-0.000455311,0,0.000257242,0
347.606,0.000117551,0,0.000105651,0
352.625,0.000141132,0,6.95E-05,0
357.643,0.001402371,0,0.001084554,0
362.544,0.002002406,0,0.001226431,0