File: Wood/Calibration_Data/TIFP+UCT/TIFP+UCT_Wood_Gasification_hor_perpendicular_30kW_R2.csv
Time (s),Mass (g),TC back 1 (K),TC back 2 (K),TC back 3 (K)
0,105.88,302.15,300.15,301.05
8,105.49,302.65,300.65,301.95
16,105.50,303.15,300.95,302.95
24,105.38,303.65,301.35,303.85
32,105.29,304.15,301.65,304.75
40,104.82,304.75,301.95,305.65
48,104.91,305.25,302.35,306.55
56,104.62,305.75,302.85,307.55
64,104.19,306.45,303.35,308.55
72,104.20,307.35,304.05,309.95
80,103.53,308.35,304.95,311.45
88,103.47,309.55,305.95,313.25
96,102.99,311.25,307.55,315.45
104,102.69,313.05,309.35,317.95
112,102.35,315.15,311.45,320.65
120,101.81,317.65,314.05,323.95
128,101.38,320.35,316.75,327.15
136,100.95,323.15,319.75,330.65
144,100.55,326.45,323.15,334.35
152,100.25,329.75,326.35,337.95
160,100.06,333.05,329.75,341.45
168,99.45,336.65,333.45,345.25
176,99.04,340.05,336.75,348.75
184,98.69,343.35,340.15,352.25
192,98.27,346.85,343.75,355.95
200,97.75,350.05,347.05,359.15
208,97.44,353.05,350.15,362.15
216,97.03,356.25,353.45,365.25
224,96.79,358.95,356.35,367.85
232,96.35,361.55,359.05,370.25
240,96.12,364.05,361.75,372.75
248,95.62,366.15,363.95,374.95
256,95.40,368.15,366.05,377.05
264,94.96,370.15,368.25,378.75
272,94.71,371.85,370.15,379.75
280,94.26,373.25,371.85,380.25
288,93.87,374.65,373.75,380.75
296,93.45,375.75,375.15,381.05
304,93.06,376.65,376.25,381.35
312,92.85,377.55,377.05,381.55
320,92.38,378.15,377.55,381.75
328,92.03,378.65,377.85,381.95
336,91.62,378.95,378.15,382.25
344,91.23,379.25,378.25,382.45
352,91.04,379.45,378.35,382.65
360,90.62,379.55,378.45,382.95
368,90.36,379.75,378.55,383.25
376,90.01,379.85,378.65,383.45
384,89.55,380.05,378.75,383.75
392,89.35,380.15,378.85,383.95
400,89.19,380.25,379.05,384.25
408,88.81,380.45,379.15,384.55
416,88.50,380.65,379.25,384.85
424,88.05,380.75,379.35,385.15
432,87.72,380.95,379.55,385.55
440,87.38,381.05,379.65,385.85
448,87.11,381.25,379.75,386.15
456,86.77,381.45,379.95,386.55
464,86.45,381.65,380.05,386.95
472,86.13,381.75,380.25,387.35
480,85.98,382.05,380.45,387.85
488,85.62,382.25,380.55,388.25
496,85.20,382.45,380.75,388.75
504,85.20,382.65,380.95,389.35
512,84.67,382.85,381.15,389.85
520,84.43,383.15,381.35,390.45
528,84.19,383.45,381.65,391.15
536,83.89,383.75,381.85,391.75
544,83.54,384.05,382.05,392.55
552,83.22,384.45,382.35,393.35
560,83.00,384.75,382.65,394.25
568,82.81,385.15,382.85,395.15
576,82.54,385.65,383.25,396.25
584,82.15,386.05,383.55,397.25
592,81.97,386.55,383.95,398.35
600,81.58,387.15,384.35,399.75
608,81.32,387.75,384.75,400.95
616,81.05,388.35,385.15,402.35
624,80.82,389.05,385.75,403.95
632,80.66,389.75,386.25,405.45
640,80.28,390.55,386.75,407.15
648,80.15,391.45,387.45,409.05
656,79.87,392.35,388.15,410.85
664,79.57,393.25,388.85,412.75
672,79.32,394.45,389.75,414.95
680,79.04,395.45,390.65,417.05
688,78.67,396.65,391.65,419.15
696,78.47,398.05,392.75,421.55
704,78.23,399.35,393.85,423.95
712,77.96,400.75,395.05,426.35
720,77.77,402.35,396.45,429.05
728,77.52,404.05,397.85,431.65
736,77.30,405.65,399.25,434.15
744,77.01,407.55,400.95,436.95
752,76.76,409.45,402.45,439.45
760,76.46,411.35,404.15,441.95
768,76.20,413.45,406.05,444.75
776,75.97,415.45,407.95,447.25
784,75.75,417.55,409.75,449.75
792,75.46,419.85,411.75,452.45
800,75.11,422.15,413.75,454.95
808,74.93,424.45,415.75,457.45
816,74.60,426.95,417.95,460.15
824,74.32,429.35,420.05,462.55
832,74.16,431.75,422.35,464.95
840,73.89,434.35,424.75,467.65
848,73.75,436.85,426.95,469.95
856,73.44,439.25,429.25,472.25
864,73.08,441.95,431.75,474.75
872,72.83,444.45,434.05,477.05
880,72.61,446.85,436.45,479.25
888,72.27,449.55,439.05,481.65
896,71.93,451.95,441.45,483.85
904,71.65,454.45,443.85,486.05
912,71.77,456.95,446.45,488.35
920,71.14,459.35,448.95,490.45
928,70.89,461.75,451.35,492.55
936,70.58,464.25,454.05,494.75
944,70.33,466.55,456.45,496.85
952,70.04,468.85,458.95,498.85
960,69.72,471.25,461.55,500.95
968,69.35,473.55,463.95,502.95
976,69.00,475.65,466.35,504.85
984,68.77,478.05,468.95,506.95
992,68.46,480.15,471.35,508.85
1000,68.20,482.25,473.75,510.75
1008,67.74,484.45,476.15,512.75
1016,67.46,486.45,478.45,514.65
1024,67.30,488.45,480.65,516.45
1032,66.82,490.55,483.05,518.35
1040,66.44,492.45,485.25,520.15
1048,66.18,494.35,487.45,521.95
1056,65.87,496.45,489.75,523.85
1064,65.46,498.35,491.85,525.65
1072,65.09,500.15,493.85,527.45
1080,64.78,502.15,496.05,529.25
1088,64.46,503.95,498.05,530.95
1096,64.06,505.75,500.05,532.65
1104,63.67,507.75,502.25,534.55
1112,63.38,509.45,504.15,536.25
1120,62.96,511.25,506.15,537.95
1128,62.60,513.15,508.35,539.75
1136,62.22,514.95,510.25,541.45
1144,61.78,516.65,512.15,543.05
1152,61.44,518.55,514.15,544.85
1160,61.02,520.35,516.05,546.55
1168,60.68,522.15,517.95,548.25
1176,60.28,524.05,520.05,550.05
1184,59.90,525.85,521.85,551.65
1192,59.54,527.55,523.75,553.35
1200,59.08,529.55,525.65,555.05
1208,58.63,531.25,527.55,556.65
1216,58.22,533.05,529.35,558.35
1224,57.80,534.95,531.25,560.05
1232,57.35,536.75,533.05,561.65
1240,57.00,538.55,534.75,563.15
1248,56.57,540.45,536.65,564.85
1256,56.07,542.25,538.55,566.35
1264,55.67,544.05,540.45,567.95
1272,55.27,545.95,542.55,569.55
1280,54.78,547.85,544.55,570.95
1288,54.38,549.65,546.45,572.45
1296,53.93,551.65,548.55,573.95
1304,53.46,553.45,550.55,575.35
1312,53.02,555.25,552.55,576.85
1320,52.53,557.25,554.65,578.25
1328,52.12,559.15,556.65,579.65
1336,51.66,560.95,558.65,580.95
1344,51.20,562.95,560.75,582.35
1352,50.74,564.75,562.75,583.75
1360,50.30,566.55,564.75,585.05
1368,49.82,568.55,566.95,586.35
1376,49.38,570.25,568.85,587.65
1384,48.91,572.05,570.85,588.85
1392,48.43,573.85,572.85,590.25
1400,47.96,575.65,574.75,591.45
1408,47.49,577.25,576.75,592.65
1416,47.04,579.05,578.65,593.85
1424,46.55,580.65,580.45,595.05
1432,46.10,582.35,582.25,596.25
1440,45.64,583.95,584.15,597.45
1448,45.17,585.55,585.85,598.65
1456,44.71,587.15,587.55,599.75
1464,44.28,588.75,589.35,600.95
1472,43.79,590.15,590.95,601.95
1480,43.31,591.45,592.45,603.05
1488,42.92,592.75,594.05,604.15
1496,42.47,594.05,595.45,605.15
1504,41.99,595.15,596.85,606.05
1512,41.56,596.35,598.15,607.05
1520,41.13,597.25,599.45,607.95
1528,40.70,598.05,600.55,608.75
1536,40.28,598.95,601.75,609.65
1544,39.82,599.65,602.75,610.55
1552,39.42,600.25,603.65,611.35
1560,39.00,600.85,604.45,612.35
1568,38.58,601.45,605.05,612.95
1576,38.17,601.95,605.55,613.35
1584,37.79,602.55,606.05,613.75
1592,37.40,603.05,606.65,614.25
1600,37.02,603.65,607.35,614.75
1608,36.64,604.35,608.05,615.25
1616,36.25,605.05,608.25,615.75
1624,35.90,605.65,608.85,616.25
1632,35.62,606.45,609.65,616.95
1640,35.30,607.35,611.05,617.55
1648,34.96,608.45,613.05,618.25
1656,34.56,609.75,615.05,619.45
1664,34.26,610.95,616.85,620.15
1672,33.97,612.55,618.85,620.95
1680,33.66,614.35,621.25,622.05
1688,33.39,616.15,623.65,623.15
1696,33.12,618.15,626.15,624.35
1704,32.84,620.35,629.15,625.75
1712,32.63,622.75,632.15,627.35
1720,32.37,625.35,635.45,629.05
1728,32.21,628.45,639.35,631.05
1736,31.94,631.45,643.65,633.15
1744,31.71,634.85,648.05,635.35
1752,31.53,638.55,653.25,637.75
1760,31.36,642.35,658.35,640.05
1768,31.15,646.15,663.55,642.25
1776,31.02,650.25,668.95,644.55
1784,30.79,654.05,673.45,646.55
1792,30.75,657.75,677.25,648.35
1800,30.59,661.45,680.75,650.25
1808,30.45,664.45,683.35,651.85
1816,30.32,667.35,685.45,653.25
1824,30.17,670.15,687.15,654.65
1832,30.06,672.35,688.25,655.65
1840,29.95,674.35,689.25,656.75
1848,29.88,676.25,689.85,657.75
1856,29.71,677.85,690.35,658.45
1864,29.59,679.25,690.65,659.35
1872,29.48,680.55,690.75,659.95
1880,29.39,681.65,690.85,660.35
1888,29.31,682.65,690.85,660.85
1896,29.23,683.45,690.85,661.15
1904,29.12,684.05,690.75,661.45
1912,29.06,684.55,690.65,661.65
1920,28.99,685.15,690.55,661.95
1928,28.92,685.55,690.55,662.15
1936,28.80,685.95,690.35,662.25
1944,28.75,686.25,690.25,662.25
1952,28.67,686.45,690.05,662.35
1960,28.61,686.75,689.95,662.45
1968,28.56,686.85,689.75,662.35
1976,28.50,687.05,689.55,662.35
1984,28.42,687.25,689.45,661.95
1992,28.37,687.35,689.25,661.55
2000,28.32,687.55,689.15,661.35
2008,28.23,687.75,689.05,661.15
2016,28.20,687.75,688.85,661.05
2024,28.13,687.95,688.85,660.85
2032,28.09,687.95,688.65,660.65
2040,28.04,688.05,688.45,660.55
2048,27.96,688.05,688.25,660.25
2056,27.93,688.15,688.15,660.15
2064,27.87,688.15,687.95,659.85
2072,27.85,688.15,687.85,659.75
2080,27.83,688.05,687.75,659.65
2088,27.77,688.15,687.65,659.55
2096,27.73,688.25,687.55,659.45
2104,27.69,688.15,687.45,659.35
2112,27.64,688.25,687.35,659.15
2120,27.60,688.25,687.25,659.05
2128,27.58,688.25,687.25,658.95
2136,27.55,688.25,687.15,658.85
2144,27.48,688.25,687.15,658.75
2152,27.49,688.25,687.05,658.75
2160,27.46,688.15,686.95,658.65
2168,27.44,687.95,686.95,658.65
2176,27.40,687.95,686.85,658.55
2184,27.39,687.95,686.95,658.55
2192,27.34,687.85,686.85,658.55
2200,27.31,687.85,686.85,658.45
2208,27.29,687.75,686.75,658.35
2216,27.26,687.75,686.75,658.25
2224,27.22,687.75,686.75,658.15
2232,27.18,687.55,686.55,657.95
2240,27.16,687.45,686.65,657.95
2248,27.14,687.45,686.55,657.95
2256,27.13,687.35,686.45,657.85
2264,27.08,687.15,686.45,657.75
2272,27.07,687.25,686.45,657.65
2280,27.05,687.05,686.35,657.65
2288,27.03,687.05,686.25,657.55
2296,26.97,686.85,686.25,657.55
2304,27.00,686.75,686.15,657.35
2312,26.97,686.65,686.15,657.45
2320,26.95,686.55,686.15,657.35
2328,26.93,686.45,686.15,657.35
2336,26.89,686.45,686.15,657.25
2343,26.88,686.35,686.15,657.25