File: Wood/Calibration_Data/TIFP+UCT/TIFP+UCT_STA_N2_5K_R4.csv
Time (s),Temperature (K),Mass (mg),Heat Flow Rate (W/g)
0,303.153,5.0882,-0.0111
28,303.1607,5.0846,-0.0098
56,303.169,5.0814,-0.0092
84,303.179,5.0816,-0.0081
112,303.185,5.0788,-0.0075
140,303.183,5.0774,-0.0071
168,303.179,5.0753,-0.0066
196,303.176,5.0709,-0.0063
224,303.17,5.0694,-0.0066
252,303.165,5.068,-0.0065
280,303.1587,5.0663,-0.0064
308,303.1607,5.0639,-0.0064
336,303.324,5.0636,0.0039
364,304.1767,5.0628,0.0282
392,306.05,5.0635,0.0513
420,308.876,5.0633,0.0666
448,312.2827,5.0614,0.0713
476,315.8073,5.0587,0.0685
504,319.126,5.0573,0.0622
532,322.0973,5.0547,0.0549
560,324.737,5.0515,0.0491
588,327.155,5.0483,0.0457
616,329.463,5.0472,0.0439
644,331.7453,5.0449,0.0434
672,334.033,5.0429,0.0438
700,336.3397,5.0416,0.0441
728,338.6557,5.0416,0.0448
756,340.974,5.0382,0.0468
784,343.2853,5.0351,0.0492
812,345.603,5.0339,0.0525
840,347.919,5.0331,0.0561
868,350.2423,5.0307,0.0606
896,352.579,5.0281,0.0648
924,354.92,5.0281,0.0691
952,357.2643,5.0267,0.0734
980,359.6123,5.0257,0.0773
1008,361.96,5.024,0.0811
1036,364.3113,5.0234,0.0838
1064,366.6603,5.0227,0.087
1092,369.009,5.0214,0.0897
1120,371.3527,5.019,0.092
1148,373.692,5.0176,0.0941
1176,376.033,5.0173,0.096
1204,378.3703,5.016,0.0982
1232,380.7093,5.016,0.1
1260,383.056,5.0136,0.1026
1288,385.4007,5.0133,0.105
1316,387.747,5.012,0.1068
1344,390.09,5.0106,0.108
1372,392.4247,5.0082,0.1094
1400,394.7587,5.0079,0.1104
1428,397.097,5.0066,0.1118
1456,399.4417,5.0039,0.1127
1484,401.785,5.0044,0.1135
1512,404.131,5.0032,0.1139
1540,406.481,5.0026,0.1139
1568,408.83,4.9999,0.1142
1596,411.18,4.9985,0.1139
1624,413.5283,4.9973,0.1139
1652,415.8737,4.9942,0.1141
1680,418.212,4.9959,0.1136
1708,420.5513,4.9918,0.1133
1736,422.888,4.9904,0.1132
1764,425.221,4.9898,0.1129
1792,427.5513,4.9868,0.1132
1820,429.8817,4.9848,0.1133
1848,432.207,4.9926,0.1159
1876,434.5403,4.9842,0.1164
1904,436.8737,4.9805,0.1159
1932,439.207,4.9765,0.1162
1960,441.5417,4.9725,0.1163
1988,443.8697,4.9685,0.1165
2016,446.199,4.9661,0.1166
2044,448.52,4.9631,0.1166
2072,450.8393,4.9627,0.1183
2100,453.165,4.956,0.1183
2128,455.4923,4.9488,0.1178
2156,457.822,4.9414,0.1164
2184,460.157,4.9372,0.118
2212,462.4893,4.9305,0.1191
2240,464.8183,4.9235,0.1194
2268,467.143,4.9196,0.12
2296,469.4717,4.9111,0.121
2324,471.799,4.9031,0.1216
2352,474.132,4.8949,0.1223
2380,476.4673,4.8879,0.1236
2408,478.802,4.8788,0.1246
2436,481.135,4.8704,0.1254
2464,483.4603,4.859,0.1251
2492,485.786,4.8496,0.1251
2520,488.11,4.839,0.1261
2548,490.4377,4.8294,0.1266
2576,492.763,4.8174,0.1272
2604,495.092,4.8051,0.1278
2632,497.4193,4.7921,0.1275
2660,499.7437,4.7789,0.1276
2688,502.064,4.7648,0.128
2716,504.399,4.7321,0.1248
2744,506.7297,4.7234,0.1247
2772,509.059,4.7051,0.1257
2800,511.3943,4.6888,0.1263
2828,513.725,4.6717,0.1272
2856,516.06,4.6495,0.128
2884,518.393,4.6293,0.1287
2912,520.7273,4.6054,0.1289
2940,523.059,4.5816,0.1284
2968,525.3843,4.5558,0.1286
2996,527.711,4.5297,0.1292
3024,530.044,4.5024,0.1305
3052,532.378,4.4762,0.1324
3080,534.7117,4.4467,0.1338
3108,537.039,4.417,0.1354
3136,539.368,4.3867,0.1371
3164,541.6967,4.3567,0.1392
3192,544.036,4.3249,0.142
3220,546.372,4.2928,0.1442
3248,548.7007,4.2609,0.1457
3276,551.028,4.2276,0.1476
3304,553.358,4.1918,0.15
3332,555.6897,4.1573,0.1521
3360,558.021,4.1233,0.154
3388,560.3577,4.084,0.155
3416,562.6907,4.0454,0.1556
3444,565.023,4.0049,0.156
3472,567.3533,3.963,0.1554
3500,569.6823,3.9199,0.1546
3528,572.003,3.8726,0.1534
3556,574.333,3.8236,0.1529
3584,576.6733,3.7719,0.1527
3612,579.015,3.7194,0.1514
3640,581.355,3.6631,0.1496
3668,583.693,3.6038,0.147
3696,586.026,3.5421,0.1445
3724,588.3553,3.4794,0.1427
3752,590.68,3.413,0.141
3780,593.008,3.348,0.1411
3808,595.343,3.2787,0.1412
3836,597.6793,3.2067,0.1413
3864,600.012,3.134,0.1415
3892,602.3433,3.062,0.1419
3920,604.6703,2.9878,0.1413
3948,606.993,2.9124,0.14
3976,609.324,2.8368,0.139
4004,611.6597,2.7568,0.1371
4032,613.999,2.6767,0.1345
4060,616.34,2.5927,0.1294
4088,618.6787,2.5086,0.1244
4116,621.009,2.4119,0.1161
4144,623.3323,2.3148,0.1089
4172,625.6577,2.2172,0.1042
4200,627.989,2.1197,0.1028
4228,630.3277,2.0165,0.105
4256,632.669,1.912,0.1102
4284,635.004,1.8106,0.1222
4312,637.335,1.7115,0.1412
4340,639.66,1.6245,0.1696
4368,641.982,1.5464,0.2062
4396,644.3097,1.486,0.2484
4424,646.642,1.4359,0.2905
4452,648.984,1.4,0.3265
4480,651.322,1.381,0.3557
4508,653.661,1.3645,0.3741
4536,655.996,1.3494,0.3838
4564,658.3233,1.3424,0.3902
4592,660.65,1.3323,0.3958
4620,662.985,1.3246,0.4014
4648,665.321,1.3162,0.4058
4676,667.652,1.3068,0.4099
4704,669.981,1.2987,0.4137
4732,672.2973,1.2894,0.4179
4760,674.6203,1.2811,0.4229
4788,676.953,1.2721,0.4285
4816,679.2913,1.264,0.4336
4844,681.639,1.2467,0.4379
4872,683.983,1.2422,0.4415
4900,686.3163,1.2379,0.446
4928,688.6453,1.2285,0.4503
4956,690.973,1.2218,0.4552
4984,693.306,1.2127,0.4592
5012,695.6393,1.2056,0.4627
5040,697.968,1.1992,0.466
5068,700.294,1.1917,0.4693
5096,702.628,1.1834,0.4727
5124,704.963,1.1754,0.4763
5152,707.3017,1.1683,0.479
5180,709.6403,1.162,0.4814
5208,711.967,1.1556,0.4826
5236,714.285,1.1489,0.4846
5264,716.6097,1.1462,0.4875
5292,718.937,1.1388,0.4906
5320,721.276,1.1334,0.4939
5348,723.6177,1.1274,0.4965
5376,725.961,1.122,0.4989
5404,728.298,1.118,0.5016
5432,730.6297,1.1133,0.5038
5460,732.96,1.1093,0.5067
5488,735.29,1.1039,0.5087
5516,737.6143,1.1002,0.5115
5544,739.943,1.0952,0.5154
5572,742.2747,1.0922,0.5187
5600,744.609,1.0878,0.5222
5628,746.939,1.0841,0.5258
5656,749.2687,1.0807,0.5294
5684,751.5997,1.0774,0.5335
5712,753.937,1.0734,0.5384
5740,756.2817,1.0704,0.5424
5768,758.6217,1.0677,0.5462
5796,760.953,1.0634,0.5488
5824,763.2887,1.0602,0.5532
5852,765.6213,1.0573,0.5578
5880,767.958,1.056,0.5627
5908,770.2987,1.0531,0.5676
5936,772.6357,1.0496,0.5725
5964,774.976,1.0459,0.5774
5992,777.3123,1.0439,0.5811
6020,779.647,1.0402,0.5854
6048,781.974,1.0389,0.5887
6076,784.2953,1.0349,0.5928
6104,786.6177,1.0349,0.597
6132,788.95,1.0322,0.602
6160,791.2877,1.0285,0.6049
6188,793.6263,1.0271,0.6087
6216,795.966,1.0234,0.6127
6244,798.3067,1.0231,0.617
6272,800.6393,1.0202,0.6216
6300,802.965,1.0181,0.6245
6328,805.297,1.0147,0.6284
6356,807.634,1.0124,0.6327
6384,809.972,1.011,0.6369
6412,812.309,1.0077,0.6409
6440,814.6467,1.0053,0.6448
6468,816.98,1.0037,0.6483
6496,819.3124,1.0021,0.6519
6524,821.6397,1.0003,0.6571
6552,823.977,0.9976,0.6623
6580,826.315,0.997,0.6626
6608,828.642,0.9956,0.663
6636,830.966,0.9931,0.6663
6664,833.2917,0.9905,0.6703
6692,835.627,0.989,0.6754
6720,837.966,0.9864,0.6795
6748,840.305,0.9858,0.685
6776,842.6483,0.9838,0.6893
6804,844.986,0.9814,0.6935
6832,847.319,0.9796,0.6974
6860,849.653,0.9764,0.7021
6888,851.992,0.9764,0.7068
6916,854.323,0.9699,0.711
6944,856.652,0.9689,0.7169
6972,858.984,0.9702,0.7253
7000,861.3143,0.9699,0.7315
7028,863.6447,0.9676,0.7368
7056,865.967,0.9676,0.7418
7084,868.2897,0.9653,0.7468
7112,870.612,0.9655,0.7429
7140,872.946,0.9629,0.7398
7168,875.2807,0.9615,0.7462
7196,877.626,0.9592,0.7543
7224,879.968,0.9578,0.7635
7252,882.3043,0.9568,0.7719
7280,884.6344,0.9555,0.7806
7308,886.963,0.9528,0.7896
7336,889.295,0.9531,0.7988
7364,891.6353,0.9508,0.8092
7392,893.975,0.9498,0.8197
7420,896.31,0.9484,0.8304
7448,898.6386,0.9478,0.8407
7476,900.976,0.9468,0.851
7504,903.307,0.947,0.864
7532,905.6437,0.9461,0.8787
7560,907.986,0.9434,0.8908
7588,910.3227,0.9445,0.903
7616,912.6553,0.9424,0.9156
7644,914.984,0.94,0.9279
7672,917.3124,0.939,0.9428
7700,919.6497,0.938,0.9575
7728,921.989,0.936,0.973
7756,924.3247,0.9347,0.988
7784,926.6597,0.9327,1.0041
7812,928.989,0.9317,1.0199
7840,931.3197,0.931,1.0368
7868,933.6577,0.9307,1.0534
7896,935.99,0.9307,1.0696
7924,938.3223,0.9293,1.0875
7952,940.6577,0.9293,1.1064
7980,942.995,0.9293,1.1243
8008,945.3337,0.927,1.1426
8036,947.6646,0.9263,1.1625
8064,949.992,0.9263,1.1809
8092,952.3217,0.9267,1.2002
8120,954.658,0.925,1.22
8148,956.991,0.9256,1.2405
8176,959.325,0.927,1.2608
8204,961.6583,0.9246,1.282
8232,963.985,0.9253,1.3032
8260,966.3143,0.9216,1.3236
8288,968.651,0.9226,1.3468
8316,970.993,0.9213,1.3693
8343,973.194,0.9219,1.3902