File: Wood/Calibration_Data/TIFP+UCT/TIFP+UCT_Gasification_hor_perpendicular_60kW_R1.csv
Time (s),Mass (g),TC back 1 (K),TC back 2 (K),TC back 3 (K)
0,107.54,291.95,293.05,292.15
5,107.37,292.15,294.25,292.45
10,107.16,292.65,295.75,292.95
15,106.78,293.05,297.05,293.45
20,106.68,293.45,298.15,293.95
25,105.68,293.95,299.45,294.55
30,104.87,294.45,300.45,295.05
35,104.34,294.95,301.55,295.45
40,103.78,295.65,302.75,296.05
45,103.11,296.25,303.85,296.55
50,102.44,296.85,304.95,297.05
55,101.77,297.75,306.25,297.75
60,101.47,298.65,307.45,298.55
65,100.84,299.75,308.65,299.45
70,100.34,301.25,310.25,300.55
75,99.84,302.85,311.85,301.75
80,99.58,304.65,313.65,303.15
85,99.10,307.05,315.75,304.95
90,98.56,309.35,317.85,306.85
95,98.09,311.85,320.25,308.85
100,97.71,314.85,323.05,311.45
105,97.35,317.75,325.95,313.85
110,96.90,320.65,328.75,316.35
115,96.43,324.15,331.95,319.35
120,96.13,327.35,334.95,322.15
125,95.77,330.65,337.95,324.85
130,95.42,334.25,341.35,328.05
135,94.63,337.55,344.35,331.15
140,94.28,340.85,347.35,334.05
145,93.89,344.75,350.75,337.35
150,93.63,348.35,353.85,340.35
155,93.00,351.75,356.85,343.15
160,92.71,355.15,360.05,346.35
165,92.51,357.95,362.75,349.15
170,92.01,360.75,365.35,351.75
175,91.48,363.75,368.15,354.65
180,91.17,366.15,370.55,357.05
185,90.69,368.25,372.75,359.35
190,90.34,370.45,374.95,361.75
195,89.87,372.45,376.85,363.75
200,89.50,374.05,378.45,365.75
205,89.10,375.35,380.05,367.65
210,88.60,376.15,381.15,369.25
215,88.32,376.75,382.15,370.75
220,87.81,377.45,382.95,372.05
225,87.34,378.25,383.85,373.15
230,87.11,379.75,384.65,374.05
235,86.49,380.55,385.55,374.65
240,86.24,381.15,386.15,374.95
245,85.75,381.75,386.85,375.35
250,85.39,382.35,387.85,375.45
255,84.98,382.95,388.75,375.65
260,84.51,383.45,389.55,375.85
265,84.06,384.05,390.55,376.15
270,83.80,384.45,391.55,376.25
275,83.39,385.05,392.15,376.55
280,82.96,385.55,392.85,376.65
285,82.49,386.05,393.45,376.85
290,82.12,386.65,393.95,377.15
295,81.80,387.15,394.65,377.35
300,81.30,387.65,395.15,377.55
305,80.95,388.15,395.65,377.75
310,80.48,388.75,396.25,378.05
315,80.23,389.25,396.75,378.25
320,79.86,389.75,397.35,378.45
325,79.44,390.35,397.95,378.65
330,79.21,390.85,398.45,378.85
335,78.64,391.35,398.95,379.05
340,78.36,391.95,399.55,379.25
345,78.00,392.45,400.15,379.55
350,77.65,392.95,400.75,379.75
355,77.28,393.65,401.45,379.95
360,76.91,394.15,402.05,380.15
365,76.45,394.75,402.65,380.25
370,76.12,395.35,403.45,380.55
375,75.80,395.95,404.05,380.75
380,75.34,396.55,404.75,380.95
385,75.05,397.25,405.55,381.15
390,74.76,397.95,406.25,381.35
395,74.35,398.65,406.95,381.55
400,74.02,399.45,407.65,381.75
405,73.70,400.15,408.45,382.05
410,73.24,400.85,409.15,382.25
415,72.98,401.75,410.05,382.45
420,72.59,402.45,410.85,382.75
425,72.25,403.35,411.65,382.95
430,71.90,404.35,412.55,383.25
435,71.61,405.25,413.45,383.55
440,71.28,406.15,414.45,383.85
445,70.87,407.25,415.65,384.25
450,70.54,408.35,416.75,384.65
455,70.14,409.45,417.95,384.95
460,69.83,410.65,419.35,385.35
465,69.41,411.85,420.65,385.95
470,69.09,413.05,422.05,386.55
475,68.76,414.55,423.75,387.15
480,68.42,415.85,425.35,387.95
485,68.07,417.25,427.05,388.75
490,67.71,418.95,429.05,389.85
495,67.32,420.45,430.95,390.95
500,66.92,422.05,432.85,391.95
505,66.56,423.95,434.95,393.45
510,66.26,425.75,436.85,394.85
515,65.85,427.45,438.85,396.35
520,65.53,429.55,441.15,397.95
525,65.13,431.45,443.25,399.65
530,64.84,433.45,445.25,401.35
535,64.50,435.65,447.65,403.05
540,64.07,437.75,449.85,404.75
545,63.73,439.75,452.05,406.55
550,63.36,442.15,454.75,408.55
555,63.08,444.35,456.95,410.25
560,62.66,446.45,459.55,412.05
565,62.28,448.85,462.75,413.95
570,61.94,451.05,465.85,415.75
575,61.57,453.25,469.05,417.45
580,61.27,455.75,472.25,419.55
585,60.82,458.05,474.95,421.45
590,60.50,460.25,477.55,423.35
595,60.07,462.95,480.55,425.55
600,59.71,465.15,483.15,427.55
605,59.34,467.45,485.65,429.65
610,59.02,470.15,488.55,431.95
615,58.63,472.45,491.15,434.05
620,58.21,474.75,493.65,436.25
625,57.88,477.35,496.35,438.75
630,57.55,479.75,498.85,441.05
635,57.14,482.05,501.35,443.25
640,56.71,484.55,504.15,445.85
645,56.33,486.95,506.55,448.15
650,56.01,489.25,508.95,450.45
655,55.57,491.85,511.65,453.15
660,55.19,494.15,513.95,455.45
665,54.70,496.45,516.35,457.95
670,54.40,499.15,518.95,460.55
675,54.04,501.55,521.25,462.95
680,53.64,503.85,523.55,465.35
685,53.24,506.55,526.05,468.05
690,52.88,508.75,528.35,470.45
695,52.46,510.95,530.65,472.85
700,52.07,513.45,533.15,475.55
705,51.67,515.65,535.35,477.85
710,51.26,517.85,537.55,480.25
715,50.87,520.35,540.05,482.95
720,50.46,522.55,542.25,485.25
725,50.04,524.75,544.45,487.65
730,49.62,527.15,546.85,490.25
735,49.22,529.25,549.05,492.55
740,48.82,531.35,551.15,494.85
745,48.42,533.75,553.55,497.45
750,48.00,535.85,555.75,499.75
755,47.56,537.85,557.85,501.95
760,47.14,540.15,560.35,504.65
765,46.70,542.15,562.45,506.85
770,46.32,544.15,564.65,509.15
775,45.91,546.35,566.95,511.55
780,45.48,548.35,569.05,513.75
785,45.05,550.35,571.15,515.95
790,44.63,552.55,573.45,518.35
795,44.19,554.65,575.55,520.85
800,43.74,556.55,577.55,523.35
805,43.35,558.85,579.95,525.85
810,42.93,560.75,581.95,527.95
815,42.51,562.75,583.95,530.15
820,42.06,564.95,586.25,532.55
825,41.64,566.95,588.35,534.65
830,41.19,568.95,590.45,536.75
835,40.77,571.05,592.75,539.05
840,40.31,572.95,594.75,541.15
845,39.91,574.85,596.85,543.25
850,39.48,576.95,599.35,545.55
855,39.10,578.85,601.45,547.55
860,38.65,580.65,603.55,549.55
865,38.22,582.75,605.95,551.95
870,37.80,584.55,608.05,554.05
875,37.38,586.45,610.15,556.15
880,36.96,588.55,612.65,558.65
885,36.56,590.45,614.85,560.85
890,36.12,592.25,616.95,563.15
895,35.68,594.35,619.45,565.75
900,35.27,596.25,621.55,568.05
905,34.88,598.25,623.75,570.35
910,34.43,600.45,626.25,572.95
915,34.04,602.45,628.45,575.25
920,33.66,604.45,630.65,577.45
925,33.23,606.65,633.05,580.05
930,32.84,608.55,635.35,582.35
935,32.47,610.45,637.65,584.55
940,32.05,612.55,640.25,587.15
945,31.67,614.35,642.65,589.45
950,31.31,616.15,645.15,591.75
955,30.94,618.25,648.05,594.35
960,30.52,620.05,650.65,596.65
965,30.16,621.85,653.35,598.85
970,29.77,623.95,656.35,601.35
975,29.43,625.85,658.85,603.65
980,29.07,627.75,661.45,605.75
985,28.70,629.95,664.15,608.25
990,28.39,631.95,666.55,610.35
995,28.05,633.95,669.15,612.55
1000,27.70,636.25,672.15,615.05
1005,27.40,638.35,674.75,617.25
1010,27.08,640.65,677.45,619.55
1015,26.75,643.25,680.65,622.15
1020,26.45,645.85,683.65,624.55
1025,26.16,648.65,686.75,626.95
1030,25.85,652.25,690.25,629.85
1035,25.55,655.55,693.75,632.55
1040,25.28,659.45,697.15,635.35
1045,24.97,664.25,700.95,638.65
1050,24.69,669.05,704.75,641.75
1055,24.44,674.35,708.55,644.95
1060,24.15,681.15,712.65,648.65
1065,23.95,687.45,716.65,652.25
1070,23.70,693.75,720.05,655.85
1075,23.49,700.45,723.75,659.95
1080,23.25,705.95,727.05,663.85
1085,23.10,711.05,730.25,667.85
1090,22.88,716.35,733.75,672.95
1095,22.75,720.95,737.05,677.55
1100,22.59,725.15,740.15,682.85
1105,22.44,729.55,743.65,689.65
1110,22.32,733.45,746.75,696.55
1115,22.21,737.65,749.95,704.55
1120,22.14,742.75,753.25,715.15
1125,22.01,747.45,756.25,726.05
1130,21.96,751.95,759.15,737.95
1135,21.84,757.05,762.25,750.65
1140,21.80,761.55,764.85,756.55
1145,21.74,764.45,766.85,758.15
1150,21.72,768.15,768.55,759.95
1155,21.70,770.75,770.15,761.55
1160,21.62,772.95,771.65,763.35
1165,21.60,775.45,773.15,765.45
1170,21.59,777.75,774.45,767.25
1175,21.56,779.55,775.75,769.25
1180,21.52,781.85,777.15,771.15
1185,21.49,783.95,778.25,772.85
1190,21.48,785.85,779.15,774.55
1195,21.46,787.85,780.65,776.45
1200,21.43,789.45,781.75,778.15