File: Wood/Calibration_Data/TIFP+UCT/TIFP+UCT_STA_N2_5K_R1.csv
Time (s),Temperature (K),Mass (mg),Heat Flow Rate (W/g)
0,303.167,4.9303,-0.0072
28,303.1797,4.9319,-0.0071
56,303.194,4.9323,-0.007
84,303.199,4.9347,-0.0064
112,303.2007,4.9363,-0.0059
140,303.192,4.9385,-0.0052
168,303.186,4.9391,-0.0048
196,303.1793,4.9398,-0.0043
224,303.174,4.9401,-0.0044
252,303.165,4.9411,-0.0045
280,303.1597,4.9421,-0.0046
308,303.1627,4.9428,-0.0041
336,303.3382,4.9449,-0.0063
364,304.2199,4.9465,-0.0161
392,306.129,4.9467,-0.0328
420,308.9714,4.9481,-0.0492
448,312.3634,4.9469,-0.0617
476,315.8588,4.9467,-0.0695
504,319.1314,4.9482,-0.0732
532,322.0584,4.9477,-0.0745
560,324.6745,4.9474,-0.0751
588,327.0871,4.9468,-0.076
616,329.4088,4.9472,-0.0778
644,331.7098,4.9476,-0.0802
672,334.013,4.9458,-0.0829
700,336.336,4.9468,-0.0852
728,338.6673,4.9469,-0.0868
756,340.989,4.9478,-0.0865
784,343.3008,4.946,-0.0856
812,345.6125,4.9447,-0.0834
840,347.9298,4.9452,-0.0818
868,350.2535,4.9442,-0.0789
896,352.586,4.9442,-0.0764
924,354.9251,4.9442,-0.0738
952,357.2772,4.9455,-0.0714
980,359.6233,4.946,-0.0689
1008,361.97,4.9456,-0.0667
1036,364.3144,4.9456,-0.0654
1064,366.657,4.947,-0.0638
1092,368.9993,4.947,-0.063
1120,371.3442,4.947,-0.0624
1148,373.6843,4.9472,-0.062
1176,376.0179,4.947,-0.0616
1204,378.3558,4.947,-0.0615
1232,380.6943,4.947,-0.061
1260,383.0398,4.9456,-0.0606
1288,385.3856,4.947,-0.0603
1316,387.733,4.9483,-0.0597
1344,390.0814,4.947,-0.06
1372,392.4269,4.948,-0.0599
1400,394.768,4.9483,-0.0604
1428,397.1059,4.947,-0.061
1456,399.4428,4.9475,-0.062
1484,401.7843,4.9461,-0.0631
1512,404.1257,4.9476,-0.065
1540,406.4749,4.9476,-0.0672
1568,408.8258,4.9466,-0.0689
1596,411.1788,4.9456,-0.071
1624,413.5266,4.9458,-0.0727
1652,415.8735,4.9443,-0.0742
1680,418.2113,4.9443,-0.0762
1708,420.5486,4.9429,-0.078
1736,422.877,4.9416,-0.0801
1764,425.2079,4.9416,-0.082
1792,427.5364,4.9423,-0.0834
1820,429.8715,4.9392,-0.0848
1848,432.2027,4.9389,-0.0858
1876,434.5376,4.937,-0.0872
1904,436.8735,4.9362,-0.0889
1932,439.2057,4.9325,-0.0911
1960,441.5326,4.9312,-0.0934
1988,443.8598,4.9285,-0.0957
2016,446.1877,4.9268,-0.0978
2044,448.519,4.9232,-0.0996
2072,450.8475,4.9194,-0.1008
2100,453.1758,4.9174,-0.1029
2128,455.5018,4.9117,-0.1058
2156,457.8228,4.9067,-0.1113
2184,460.147,4.904,-0.1134
2212,462.4746,4.8973,-0.1116
2240,464.8098,4.8936,-0.1129
2268,467.1359,4.8869,-0.1144
2296,469.4664,4.8826,-0.1161
2324,471.797,4.8766,-0.1182
2352,474.1298,4.8683,-0.1203
2380,476.4576,4.8621,-0.122
2408,478.7898,4.8551,-0.1241
2436,481.118,4.847,-0.1257
2464,483.4408,4.839,-0.1281
2492,485.7685,4.8296,-0.1304
2520,488.0919,4.8205,-0.1326
2548,490.4186,4.8098,-0.135
2576,492.747,4.8004,-0.1369
2604,495.0788,4.7897,-0.139
2632,497.4156,4.7773,-0.1414
2660,499.7565,4.7638,-0.1443
2688,502.0929,4.7505,-0.1475
2716,504.4214,4.7351,-0.1512
2744,506.7433,4.7179,-0.1548
2772,509.0649,4.7014,-0.1585
2800,511.3868,4.683,-0.1618
2828,513.7208,4.6636,-0.165
2856,516.0539,4.6421,-0.168
2884,518.3889,4.6217,-0.1714
2912,520.721,4.5999,-0.1751
2940,523.0538,4.5782,-0.1788
2968,525.383,4.5535,-0.1827
2996,527.714,4.5292,-0.1861
3024,530.0456,4.5024,-0.1891
3052,532.3798,4.4766,-0.1915
3080,534.716,4.4488,-0.1945
3108,537.0439,4.4221,-0.1973
3136,539.3728,4.3932,-0.1999
3164,541.703,4.3646,-0.2027
3192,544.0301,4.3351,-0.2055
3220,546.3593,4.3055,-0.2075
3248,548.6975,4.2747,-0.2097
3276,551.0379,4.2435,-0.2123
3304,553.3768,4.2096,-0.2146
3332,555.7083,4.1769,-0.2184
3360,558.0338,4.1433,-0.2224
3388,560.3626,4.1056,-0.2268
3416,562.6893,4.0701,-0.2319
3444,565.0166,4.031,-0.2373
3472,567.3432,3.9925,-0.243
3500,569.677,3.9508,-0.2489
3528,572.015,3.9051,-0.2553
3556,574.3558,3.8602,-0.2627
3584,576.687,3.8103,-0.2706
3612,579.0139,3.7623,-0.2793
3640,581.3379,3.706,-0.2884
3668,583.6718,3.6499,-0.2972
3696,586.0019,3.5931,-0.3054
3724,588.3372,3.534,-0.3135
3752,590.6723,3.4696,-0.3213
3780,593.0069,3.4055,-0.3285
3808,595.3442,3.3394,-0.3355
3836,597.6855,3.2682,-0.3416
3864,600.0258,3.1999,-0.3477
3892,602.3586,3.1288,-0.3542
3920,604.6815,3.0573,-0.3617
3948,606.9979,2.9823,-0.3692
3976,609.3236,2.9076,-0.3764
4004,611.651,2.8299,-0.3847
4032,613.9878,2.7515,-0.3933
4060,616.3303,2.6713,-0.4038
4088,618.6713,2.5862,-0.4156
4116,621.0039,2.4983,-0.4288
4144,623.3342,2.4069,-0.4414
4172,625.6603,2.3122,-0.4518
4200,627.986,2.216,-0.4603
4228,630.3152,2.1164,-0.4659
4256,632.644,2.017,-0.4664
4284,634.9746,1.9189,-0.4599
4312,637.311,1.8242,-0.4449
4340,639.6478,1.7354,-0.4205
4368,641.9917,1.6593,-0.387
4396,644.3343,1.5933,-0.3451
4424,646.674,1.5429,-0.3016
4452,649.005,1.5065,-0.2627
4480,651.3314,1.4792,-0.2334
4508,653.6558,1.4616,-0.2158
4536,655.9878,1.4489,-0.207
4564,658.3188,1.4388,-0.2042
4592,660.6523,1.4288,-0.2046
4620,662.976,1.4185,-0.2061
4648,665.3016,1.4109,-0.2079
4676,667.6288,1.4035,-0.2097
4704,669.9638,1.3947,-0.2114
4732,672.2993,1.386,-0.2128
4760,674.6425,1.3778,-0.2145
4788,676.9856,1.3685,-0.2166
4816,679.3204,1.3617,-0.2198
4844,681.6545,1.354,-0.2224
4872,683.982,1.3453,-0.2257
4900,686.308,1.3376,-0.2294
4928,688.6345,1.3296,-0.233
4956,690.9579,1.3215,-0.2362
4984,693.2846,1.3138,-0.2397
5012,695.625,1.3058,-0.2429
5040,697.9638,1.299,-0.2473
5068,700.2978,1.2906,-0.2525
5096,702.6218,1.2833,-0.2585
5124,704.9409,1.2766,-0.2647
5152,707.2662,1.2705,-0.2707
5180,709.6033,1.2635,-0.2762
5208,711.9459,1.2581,-0.2822
5236,714.2912,1.2514,-0.2883
5264,716.6355,1.2474,-0.2948
5292,718.9701,1.2413,-0.3021
5320,721.2966,1.2363,-0.3099
5348,723.6138,1.2313,-0.3173
5376,725.9399,1.2258,-0.3239
5404,728.273,1.2231,-0.3299
5432,730.6165,1.2178,-0.3362
5460,732.9589,1.2144,-0.3421
5488,735.2976,1.2089,-0.3493
5516,737.6355,1.2066,-0.3567
5544,739.972,1.2026,-0.3633
5572,742.3099,1.1999,-0.3702
5600,744.64,1.1955,-0.3784
5628,746.9689,1.1928,-0.3856
5656,749.296,1.1884,-0.3933
5684,751.6228,1.1854,-0.4005
5712,753.9508,1.1828,-0.4071
5740,756.2878,1.1797,-0.4138
5768,758.626,1.1757,-0.4204
5796,760.9657,1.1737,-0.4281
5824,763.3062,1.171,-0.4352
5852,765.635,1.168,-0.4435
5880,767.9667,1.1667,-0.4512
5908,770.3024,1.1653,-0.4585
5936,772.6455,1.1619,-0.4655
5964,774.9917,1.1602,-0.474
5992,777.3268,1.1585,-0.4833
6020,779.6608,1.1548,-0.4918
6048,781.9899,1.1548,-0.501
6076,784.3056,1.1508,-0.5106
6104,786.621,1.1518,-0.5195
6132,788.9501,1.1472,-0.5271
6160,791.2966,1.1454,-0.5344
6188,793.6465,1.1443,-0.5427
6216,795.9887,1.1417,-0.5524
6244,798.3275,1.1404,-0.562
6272,800.6615,1.1377,-0.5715
6300,802.9939,1.1364,-0.5815
6328,805.3338,1.134,-0.591
6356,807.6735,1.1323,-0.6008
6384,810.0089,1.131,-0.6103
6412,812.3436,1.1289,-0.6213
6440,814.6685,1.1263,-0.6327
6468,816.9908,1.1237,-0.6445
6496,819.312,1.1225,-0.6556
6524,821.6415,1.1213,-0.6645
6552,823.9798,1.1189,-0.6747
6580,826.319,1.1169,-0.6851
6608,828.659,1.1153,-0.6971
6636,831.0005,1.1146,-0.7088
6664,833.334,1.1122,-0.7215
6692,835.6663,1.1105,-0.7339
6720,837.9928,1.1079,-0.7465
6748,840.3212,1.1065,-0.7583
6776,842.638,1.1058,-0.7725
6804,844.948,1.1048,-0.786
6832,847.2724,1.1005,-0.7983
6860,849.6192,1.0985,-0.809
6888,851.9718,1.0991,-0.8223
6916,854.3232,1.0985,-0.8355
6944,856.6653,1.0955,-0.8484
6972,859.0088,1.0938,-0.8605
7000,861.341,1.0938,-0.8749
7028,863.6645,1.0922,-0.8892
7056,865.9889,1.0904,-0.9034
7084,868.3102,1.0881,-0.9175
7112,870.6368,1.0878,-0.931
7140,872.9579,1.0854,-0.9425
7168,875.2908,1.084,-0.9519
7196,877.6278,1.083,-0.9635
7224,879.9728,1.0817,-0.975
7252,882.3122,1.0807,-0.9865
7280,884.65,1.0794,-0.9985
7308,886.9898,1.0767,-1.0092
7336,889.3256,1.0767,-1.0208
7364,891.6595,1.0737,-1.0319
7392,893.9859,1.072,-1.0406
7420,896.3122,1.072,-1.0499
7448,898.6423,1.071,-1.059
7476,900.9789,1.0703,-1.0676
7504,903.3218,1.07,-1.0745
7532,905.6603,1.0676,-1.0806
7560,908.004,1.0669,-1.0887
7588,910.3398,1.0674,-1.0975
7616,912.6733,1.0666,-1.1042
7644,915.004,1.0643,-1.1105
7672,917.3292,1.0623,-1.1165
7700,919.654,1.0609,-1.1221
7728,921.986,1.0609,-1.1272
7756,924.3148,1.0596,-1.1322
7784,926.6515,1.0576,-1.1357
7812,928.9869,1.0559,-1.1398
7840,931.3206,1.0555,-1.1439
7868,933.6665,1.0545,-1.1463
7896,936.0059,1.0549,-1.1545
7924,938.3409,1.0529,-1.1589
7952,940.664,1.0515,-1.1629
7980,942.9858,1.0508,-1.1659
8008,945.3162,1.0509,-1.1667
8036,947.6582,1.0488,-1.1685
8064,949.9937,1.0502,-1.1723
8092,952.3358,1.0495,-1.1741
8120,954.6765,1.0475,-1.1778
8148,957.0181,1.0462,-1.1805
8176,959.3524,1.0468,-1.1842
8204,961.6798,1.0451,-1.1877
8232,964.0001,1.0452,-1.1914
8260,966.3202,1.0425,-1.1944
8288,968.6528,1.0425,-1.196
8316,970.9949,1.0411,-1.2004
8343,973.212,1.0398,-1.2038