File: Wood/Calibration_Data/TIFP+UCT/TIFP+UCT_Wood_Gasification_30kW_hor_perpendicular_R1.csv
Time (s),Mass (g),MLR (g/s),TC back 1 (K),TC back 2 (K),TC back 3 (K)
0,118.55,0.62,299.85,299.25,301.35
12,118.39,-0.01,300.95,300.05,303.25
24,117.96,0.09,301.85,300.65,304.65
36,117.81,0.02,302.85,301.25,305.95
48,117.58,0.06,303.75,301.95,307.15
60,117.03,0.03,304.85,302.55,308.35
72,116.80,0.01,306.15,303.35,309.95
84,116.36,0.06,307.85,304.45,311.85
96,115.99,-0.05,310.25,305.85,314.25
108,115.50,0.11,313.05,307.75,317.15
120,114.90,0.06,316.45,310.25,320.65
132,114.40,0.14,320.35,313.25,324.55
144,113.83,-0.00,324.75,316.75,328.95
156,113.40,-0.01,329.45,320.65,333.45
168,112.90,0.04,334.35,324.95,338.05
180,112.44,0.04,339.25,329.35,342.65
192,111.92,0.01,344.15,333.85,347.15
204,111.53,0.01,348.95,338.35,351.45
216,111.10,0.09,353.65,342.75,355.65
228,110.53,0.01,357.95,347.05,359.45
240,110.06,0.04,361.95,351.25,362.85
252,109.67,0.02,365.95,355.05,365.95
264,109.17,0.08,369.45,358.65,368.85
276,108.74,0.02,372.65,361.85,371.35
288,108.24,0.06,375.55,364.95,373.65
300,107.63,0.06,378.05,367.85,375.55
312,107.43,-0.01,379.35,370.65,377.25
324,106.74,0.00,380.05,373.45,378.65
336,106.35,0.01,380.45,376.05,379.85
348,105.65,0.12,380.85,377.15,380.85
360,105.26,0.01,381.15,377.65,381.55
372,104.81,-0.00,381.55,378.05,382.25
384,104.38,0.04,381.85,378.25,382.75
396,103.88,-0.08,382.15,378.55,383.25
408,103.52,0.14,382.45,378.75,383.75
420,103.14,0.05,382.85,379.05,384.15
432,102.65,0.00,383.15,379.25,384.55
444,102.20,0.08,383.45,379.35,384.95
456,101.77,0.04,383.75,379.55,385.35
468,101.23,0.03,384.15,379.75,385.75
480,100.88,-0.01,384.45,379.95,386.05
492,100.53,0.03,384.95,380.05,386.55
504,99.97,-0.01,385.35,380.25,386.95
516,99.61,0.04,385.85,380.45,387.35
528,99.29,0.05,386.35,380.65,387.85
540,98.66,0.03,386.85,380.85,388.35
552,98.74,0.06,387.45,381.05,388.85
564,98.02,0.09,388.15,381.35,389.45
576,97.51,0.02,388.85,381.65,390.05
588,97.29,0.10,389.55,381.85,390.75
600,96.93,0.07,390.45,382.15,391.45
612,96.54,0.11,391.35,382.45,392.35
624,96.03,0.12,392.35,382.85,393.35
636,95.67,0.06,393.55,383.15,394.45
648,95.33,0.24,394.75,383.65,395.65
660,94.97,0.10,396.05,384.05,396.95
672,94.57,0.08,397.45,384.55,398.35
684,94.20,0.07,398.85,385.05,399.85
696,93.95,0.02,400.55,385.65,401.45
708,93.60,-0.06,402.15,386.25,403.15
720,93.16,0.05,403.95,386.95,405.15
732,92.84,0.07,405.95,387.75,407.15
744,92.51,-0.02,407.95,388.65,409.25
756,92.03,0.17,410.15,389.65,411.55
768,91.67,0.06,412.35,390.75,413.75
780,91.28,-0.01,414.65,391.85,416.05
792,90.95,-0.01,417.05,393.15,418.45
804,90.83,-0.01,419.55,394.65,420.85
816,90.41,0.05,422.15,396.15,423.35
828,90.15,-0.05,424.85,397.85,425.85
840,89.83,0.01,427.55,399.65,428.35
852,89.48,0.10,430.35,401.65,430.95
864,89.24,-0.02,433.15,403.75,433.45
876,88.79,-0.04,436.05,406.05,436.05
888,88.51,0.09,438.85,408.45,438.65
900,88.22,-0.07,441.75,410.85,441.15
912,87.95,0.03,444.65,413.45,443.75
924,87.55,-0.07,447.55,416.05,446.25
936,87.36,-0.01,450.35,418.65,448.75
948,86.93,0.04,453.25,421.45,451.25
960,86.67,0.01,456.05,424.35,453.65
972,86.27,0.04,458.85,427.15,456.15
984,86.04,0.09,461.65,430.05,458.55
996,85.67,-0.03,464.45,432.95,460.95
1008,85.40,0.01,467.05,435.95,463.25
1020,85.02,0.03,469.75,438.95,465.65
1032,84.78,0.04,472.45,441.85,467.85
1044,84.50,0.06,474.95,444.85,470.15
1056,84.05,0.05,477.55,447.75,472.45
1068,83.73,0.00,480.05,450.65,474.65
1080,83.41,0.06,482.45,453.55,476.85
1092,83.06,-0.03,484.95,456.45,478.95
1104,82.72,0.03,487.25,459.35,481.15
1116,82.49,0.08,489.65,462.15,483.25
1128,82.08,0.06,491.95,464.95,485.35
1140,81.65,0.07,494.25,467.65,487.45
1152,81.36,0.03,496.45,470.25,489.35
1164,81.04,0.00,498.75,472.95,491.35
1176,80.72,-0.01,500.85,475.55,493.35
1188,80.29,-0.02,503.05,478.05,495.25
1200,79.93,0.03,505.15,480.55,497.15
1212,79.44,0.04,507.35,483.05,499.05
1224,79.06,0.00,509.45,485.55,500.95
1236,78.84,0.00,511.45,487.95,502.75
1248,78.46,-0.01,513.55,490.35,504.65
1260,78.00,0.07,515.55,492.75,506.45
1272,77.53,-0.01,517.55,495.05,508.25
1284,77.15,-0.01,519.45,497.35,510.05
1296,76.71,0.07,521.35,499.65,511.75
1308,76.34,0.05,523.25,501.95,513.55
1320,75.88,0.04,525.15,504.25,515.25
1332,75.56,-0.01,527.05,506.45,517.05
1344,75.03,0.03,528.85,508.65,518.65
1356,74.59,0.02,530.65,510.85,520.45
1368,74.16,-0.01,532.45,512.95,522.05
1380,73.66,0.07,534.25,515.15,523.65
1392,73.27,0.05,535.95,517.25,525.35
1404,72.73,0.04,537.75,519.35,526.95
1416,72.30,-0.01,539.45,521.45,528.65
1428,71.81,0.03,541.25,523.55,530.15
1440,71.38,0.01,543.05,525.55,531.75
1452,70.87,0.04,544.75,527.65,533.25
1464,70.37,0.04,546.45,529.65,534.85
1476,69.88,0.05,548.15,531.65,536.35
1488,69.42,0.03,549.85,533.65,537.85
1500,68.84,0.03,551.65,535.65,539.35
1512,68.33,0.07,553.25,537.65,540.85
1524,67.83,0.05,554.95,539.75,542.25
1536,67.31,0.03,556.65,541.75,543.75
1548,66.78,0.08,558.25,543.75,545.15
1560,66.27,0.05,559.85,545.65,546.55
1572,65.77,-0.00,561.45,547.65,547.95
1584,65.23,0.04,563.05,549.55,549.25
1596,64.68,0.04,564.55,551.45,550.55
1608,64.16,0.07,566.05,553.45,551.95
1620,63.59,0.04,567.55,555.35,553.25
1632,63.09,0.02,568.95,557.15,554.55
1644,62.52,0.04,570.35,559.05,555.85
1656,61.98,0.02,571.65,560.95,557.05
1668,61.40,0.05,573.05,562.75,558.35
1680,60.83,0.09,574.25,564.55,559.55
1692,60.29,0.06,575.45,566.25,560.75
1704,59.72,0.03,576.65,568.05,561.95
1716,59.18,0.04,577.75,569.65,563.15
1728,58.62,0.06,578.75,571.15,564.35
1740,58.06,0.00,579.65,572.75,565.55
1752,57.50,0.06,580.65,574.15,566.65
1764,56.95,0.05,581.45,575.75,567.85
1776,56.41,0.04,582.25,577.15,568.95
1788,55.88,0.04,583.05,578.55,570.15
1800,55.29,0.05,583.85,580.05,571.25
1812,54.76,0.06,584.55,581.35,572.35
1824,54.21,0.04,585.25,582.75,573.35
1836,53.65,0.05,585.85,584.05,574.45
1848,53.15,0.04,586.65,585.45,575.55
1860,52.62,0.01,587.35,586.65,576.65
1872,52.11,0.02,587.95,587.95,577.75
1884,51.62,0.03,588.55,589.05,578.75
1896,51.04,0.01,589.15,590.35,579.85
1908,50.55,0.05,589.75,591.45,580.85
1920,50.05,0.02,590.25,592.45,581.85
1932,49.55,0.06,590.85,593.45,582.85
1944,49.08,0.02,591.55,594.35,583.85
1956,48.60,0.03,592.15,595.25,584.85
1968,48.09,0.04,592.75,596.05,585.85
1980,47.65,0.01,593.65,596.85,586.75
1992,47.21,0.05,594.35,597.75,587.75
2004,46.74,0.04,595.15,598.65,588.65
2016,46.29,0.06,595.85,599.45,589.55
2028,45.86,0.05,596.65,600.45,590.45
2040,45.42,0.04,597.35,601.25,591.25
2052,44.96,0.04,598.45,604.35,592.15
2064,44.56,0.03,599.55,605.35,592.95
2076,44.17,0.03,600.55,606.35,593.75
2088,43.80,0.04,601.45,607.45,594.35
2100,43.43,0.03,602.45,608.75,595.15
2112,43.07,0.04,603.55,610.05,595.85
2124,42.72,0.02,604.55,611.55,596.55
2136,42.37,0.03,605.65,612.85,597.35
2148,42.06,0.05,606.75,614.35,598.15
2160,41.74,0.03,607.95,616.05,598.85
2172,41.43,0.03,609.35,617.65,599.75
2184,41.12,0.03,610.65,619.15,600.65
2196,40.81,0.01,612.15,620.75,601.65
2208,40.53,0.04,613.65,622.45,602.55
2220,40.25,0.02,615.25,623.85,603.45
2232,40.01,0.02,616.85,625.45,604.75
2244,39.69,0.01,618.45,626.65,605.85
2256,39.46,0.00,620.15,627.95,606.85
2268,39.19,0.02,621.75,629.15,607.95
2280,38.94,0.03,623.45,630.15,608.35
2292,38.67,0.01,625.05,631.25,608.95
2304,38.44,0.03,626.55,632.15,610.25
2316,38.22,0.03,628.05,633.25,611.05
2328,37.98,0.02,629.35,634.05,611.75
2340,37.76,0.01,630.65,634.65,612.75
2352,37.56,0.02,631.95,635.55,614.35
2364,37.35,0.02,633.25,636.35,615.85
2376,37.14,0.03,634.45,637.25,617.45
2388,36.98,0.02,635.45,637.85,618.65
2400,36.78,0.02,636.55,638.55,620.25
2412,36.58,-0.00,637.45,639.25,621.85
2424,36.39,0.01,638.35,639.85,622.35
2436,36.21,0.00,639.15,640.45,623.35
2448,36.06,-0.01,639.95,640.85,624.35
2460,35.90,0.00,640.85,641.45,625.55
2472,35.75,0.01,641.65,641.95,626.65
2484,35.59,0.00,642.35,642.35,625.35
2496,35.41,0.01,643.15,642.85,621.05
2508,35.26,0.02,643.75,643.25,621.25
2520,35.14,-0.02,644.35,643.65,621.35
2532,35.03,0.02,644.95,644.15,621.75
2544,34.91,0.00,645.45,644.45,622.15
2556,34.79,0.01,645.95,644.75,622.35
2568,34.69,0.01,646.35,645.05,622.75
2580,34.59,-0.00,646.65,645.35,623.55
2592,34.51,0.01,647.05,645.65,624.25
2604,34.37,0.01,647.45,645.95,624.95
2616,34.28,0.01,647.75,646.15,625.85
2628,34.18,0.01,647.95,646.35,626.35
2640,34.07,0.03,648.35,646.65,626.75
2652,34.00,-0.01,648.55,646.75,627.25
2664,33.89,0.01,648.85,646.95,627.75
2676,33.82,0.03,649.05,647.25,628.05
2688,33.72,0.01,649.25,647.35,628.35
2700,33.65,0.01,649.45,647.45,628.85
2712,33.60,0.01,649.65,647.65,629.25
2724,33.52,0.02,649.85,647.75,629.65
2736,33.45,0.00,649.95,647.85,629.75
2748,33.40,0.00,650.35,648.05,629.95
2760,33.31,0.00,650.55,648.15,630.05
2772,33.27,0.00,650.65,648.15,630.25
2784,33.18,0.00,650.75,648.35,630.25
2796,33.13,-0.01,650.85,648.35,630.35
2808,33.08,0.01,650.95,648.45,630.45
2820,33.02,0.01,651.05,648.45,630.65
2832,32.95,0.00,651.05,648.45,630.85
2844,32.90,0.00,651.15,648.45,631.05
2856,32.85,0.01,651.25,648.45,631.25
2868,32.79,0.00,651.35,648.45,631.55
2880,32.66,0.01,651.35,648.45,631.75
2892,32.72,0.01,651.35,648.45,632.05
2904,32.66,0.01,651.45,648.45,632.25
2916,32.62,0.01,651.45,648.45,632.25
2928,32.57,0.02,651.55,648.45,632.35
2940,32.52,-0.00,651.55,648.45,632.45
2952,32.47,-0.01,651.65,648.45,632.55
2964,32.46,0.01,651.65,648.45,632.65
2976,32.43,0.01,651.65,648.35,632.75
2988,32.36,0.01,651.65,648.35,632.95
3000,32.33,0.01,651.55,648.35,633.15
3012,32.27,-0.00,651.55,648.15,633.05
3024,32.26,-0.01,651.65,648.25,633.15
3030,32.25,0.02,651.65,648.25,633.15