File: Wood/Calibration_Data/TIFP+UCT/TIFP+UCT_Wood_STA_N2_10K_R3.csv
Time (s),Temperature (K),Mass (mg),Heat Flow Rate (W/g)
0,303.158,5.1394,0.0005
15,303.1595,5.1392,0.0006
30,303.159,5.1394,0.0008
45,303.158,5.1399,0.0012
60,303.163,5.1403,0.0012
75,303.1625,5.1381,0.0012
90,303.161,5.1391,0.0013
105,303.1605,5.1393,0.0013
120,303.162,5.1389,0.0012
135,303.1605,5.1398,0.001
150,303.163,5.1405,0.001
165,303.161,5.1405,0.0008
180,303.161,5.1406,0.0007
195,303.1625,5.1393,0.0006
210,303.162,5.1393,0.0005
225,303.1645,5.1396,0.0004
240,303.165,5.1393,0.0004
255,303.17,5.1413,0.0003
270,303.167,5.1407,0.0007
285,303.167,5.1409,0.0008
300,303.166,5.1406,0.001
315,303.183,5.1399,0.0008
330,303.352,5.1396,-0.0035
345,303.881,5.1389,-0.0074
360,304.93,5.14,-0.0036
375,306.609,5.1381,0.0099
390,308.942,5.1387,0.0316
405,311.87,5.1373,0.0563
420,315.254,5.1375,0.0808
435,318.936,5.1372,0.102
450,322.739,5.1376,0.1172
465,326.523,5.1365,0.1268
480,330.175,5.1361,0.1304
495,333.63,5.135,0.1278
510,336.864,5.1337,0.1218
525,339.879,5.1337,0.1142
540,342.702,5.1324,0.1056
555,345.37,5.131,0.0966
570,347.931,5.1297,0.087
585,350.423,5.1297,0.0773
600,352.882,5.1277,0.0676
615,355.332,5.1253,0.0577
630,357.795,5.1243,0.0482
645,360.278,5.1231,0.0385
660,362.783,5.1241,0.0291
675,365.307,5.1227,0.0196
690,367.841,5.1214,0.01
705,370.387,5.1224,0.0013
720,372.93,5.1214,-0.0067
735,375.471,5.1201,-0.0148
750,378.005,5.1204,-0.0223
765,380.527,5.1201,-0.0292
780,383.045,5.1201,-0.0358
795,385.554,5.1201,-0.042
810,388.051,5.1201,-0.0475
825,390.552,5.1191,-0.0526
840,393.048,5.1187,-0.057
855,395.554,5.1201,-0.0611
870,398.066,5.1187,-0.0652
885,400.581,5.1187,-0.0688
900,403.104,5.1184,-0.072
915,405.631,5.1174,-0.0747
930,408.167,5.1157,-0.0772
945,410.702,5.116,-0.079
960,413.239,5.116,-0.0814
975,415.779,5.1147,-0.0826
990,418.309,5.1144,-0.0822
1005,420.834,5.1133,-0.0817
1020,423.354,5.1124,-0.0822
1035,425.865,5.112,-0.0824
1050,428.367,5.1107,-0.0833
1065,430.862,5.1107,-0.0841
1080,433.353,5.1093,-0.0854
1095,435.846,5.1067,-0.086
1110,438.332,5.107,-0.0872
1125,440.818,5.104,-0.0886
1140,443.306,5.102,-0.0898
1155,445.793,5.1006,-0.091
1170,448.283,5.0979,-0.0923
1185,450.775,5.0942,-0.0931
1200,453.264,5.0909,-0.0934
1215,455.756,5.0869,-0.094
1230,458.252,5.0838,-0.0932
1245,460.745,5.0785,-0.0946
1260,463.241,5.0745,-0.0968
1275,465.737,5.0691,-0.0979
1290,468.236,5.065,-0.099
1305,470.73,5.0582,-0.0999
1320,473.223,5.0529,-0.101
1335,475.718,5.0448,-0.1026
1350,478.209,5.0395,-0.1036
1365,480.698,5.0331,-0.1043
1380,483.185,5.024,-0.1061
1395,485.667,5.016,-0.1074
1410,488.152,5.0078,-0.1091
1425,490.635,4.9998,-0.11
1440,493.119,4.9917,-0.1087
1455,495.61,4.9816,-0.1073
1470,498.099,4.9707,-0.1077
1485,500.587,4.9618,-0.1087
1500,503.081,4.9509,-0.1103
1515,505.576,4.9399,-0.1131
1530,508.071,4.9278,-0.1161
1545,510.567,4.9134,-0.1181
1560,513.067,4.8979,-0.1199
1575,515.565,4.8822,-0.1212
1590,518.061,4.8667,-0.1225
1605,520.553,4.8482,-0.1241
1620,523.046,4.829,-0.1254
1635,525.539,4.8095,-0.1267
1650,528.031,4.7866,-0.1276
1665,530.521,4.764,-0.1284
1680,533.008,4.7428,-0.13
1695,535.497,4.7163,-0.1305
1710,537.99,4.6915,-0.1314
1725,540.481,4.6644,-0.1322
1740,542.975,4.6361,-0.1341
1755,545.479,4.6064,-0.1364
1770,547.982,4.5792,-0.1394
1785,550.489,4.5479,-0.1429
1800,552.993,4.5175,-0.1462
1815,555.495,4.4836,-0.149
1830,557.995,4.4494,-0.1522
1845,560.493,4.4155,-0.155
1860,562.987,4.38,-0.1579
1875,565.484,4.3417,-0.1601
1890,567.98,4.3066,-0.1629
1905,570.477,4.2669,-0.1645
1920,572.975,4.2244,-0.1652
1935,575.471,4.185,-0.1666
1950,577.968,4.1402,-0.1672
1965,580.465,4.095,-0.1674
1980,582.969,4.047,-0.1662
1995,585.467,3.9968,-0.1635
2010,587.966,3.943,-0.1606
2025,590.466,3.8869,-0.1571
2040,592.963,3.8274,-0.153
2055,595.46,3.7649,-0.1479
2070,597.958,3.6997,-0.1428
2085,600.453,3.635,-0.1382
2100,602.945,3.5662,-0.1335
2115,605.443,3.4927,-0.1293
2130,607.937,3.4206,-0.1258
2145,610.432,3.345,-0.1223
2160,612.93,3.2698,-0.1203
2175,615.43,3.1907,-0.1174
2190,617.925,3.1133,-0.1148
2205,620.423,3.0334,-0.1111
2220,622.918,2.951,-0.1065
2235,625.407,2.8677,-0.1005
2250,627.9,2.7805,-0.0923
2265,630.393,2.693,-0.0808
2280,632.89,2.5998,-0.0674
2295,635.386,2.5021,-0.0527
2310,637.883,2.3999,-0.0379
2325,640.385,2.2966,-0.0248
2340,642.887,2.1915,-0.0161
2355,645.392,2.083,-0.0146
2370,647.895,1.9775,-0.0249
2385,650.395,1.8789,-0.0514
2400,652.895,1.7834,-0.0966
2415,655.389,1.6996,-0.159
2430,657.885,1.6318,-0.2364
2445,660.386,1.5828,-0.32
2460,662.886,1.5446,-0.3986
2475,665.385,1.521,-0.4624
2490,667.886,1.5044,-0.508
2505,670.388,1.4901,-0.5374
2520,672.887,1.479,-0.5557
2535,675.379,1.4678,-0.5693
2550,677.873,1.4588,-0.5804
2565,680.369,1.4501,-0.5904
2580,682.865,1.4416,-0.599
2595,685.363,1.4315,-0.6073
2610,687.855,1.4214,-0.6152
2625,690.352,1.4136,-0.6226
2640,692.848,1.4039,-0.6294
2655,695.34,1.3971,-0.6366
2670,697.838,1.388,-0.6435
2685,700.339,1.3782,-0.6505
2700,702.845,1.3692,-0.658
2715,705.347,1.3623,-0.6661
2730,707.849,1.3545,-0.6736
2745,710.348,1.3475,-0.6815
2760,712.84,1.3398,-0.6875
2775,715.334,1.3316,-0.6938
2790,717.826,1.3231,-0.6994
2805,720.319,1.3176,-0.7053
2820,722.817,1.3108,-0.7106
2835,725.312,1.3053,-0.7154
2850,727.811,1.2972,-0.7196
2865,730.308,1.2907,-0.7236
2880,732.811,1.2867,-0.7279
2895,735.314,1.2807,-0.7313
2910,737.816,1.2757,-0.7355
2925,740.315,1.2678,-0.7395
2940,742.815,1.2652,-0.7117
2955,745.312,1.2588,-0.722
2970,747.809,1.2557,-0.7291
2985,750.308,1.2516,-0.735
3000,752.807,1.2489,-0.7413
3015,755.306,1.2422,-0.7476
3030,757.809,1.2409,-0.7537
3045,760.315,1.2375,-0.7598
3060,762.816,1.2298,-0.7663
3075,765.314,1.2271,-0.774
3090,767.809,1.2258,-0.7814
3105,770.306,1.2221,-0.788
3120,772.806,1.2184,-0.7947
3135,775.306,1.2167,-0.8016
3150,777.811,1.2137,-0.8088
3165,780.316,1.2097,-0.8157
3180,782.824,1.2057,-0.8232
3195,785.331,1.2043,-0.8302
3210,787.838,1.2017,-0.8378
3225,790.338,1.198,-0.8455
3240,792.834,1.1949,-0.8524
3255,795.331,1.1926,-0.8591
3270,797.827,1.1896,-0.8652
3285,800.325,1.1862,-0.8719
3300,802.824,1.1849,-0.8786
3315,805.329,1.1822,-0.8842
3330,807.831,1.1795,-0.8901
3345,810.338,1.1762,-0.8966
3360,812.847,1.1762,-0.9026
3375,815.359,1.1718,-0.9094
3390,817.87,1.1705,-0.9151
3405,820.38,1.1688,-0.93
3420,822.89,1.1654,-0.9561
3435,825.398,1.1638,-0.9692
3450,827.896,1.1607,-0.9755
3465,830.393,1.1607,-0.9802
3480,832.89,1.1567,-0.9852
3495,835.387,1.1554,-0.9896
3510,837.883,1.154,-0.9955
3525,840.379,1.1513,-1.0021
3540,842.878,1.1487,-1.0082
3555,845.375,1.1487,-1.015
3570,847.875,1.1473,-1.0213
3585,850.376,1.144,-1.0286
3600,852.869,1.1416,-1.0355
3615,855.364,1.1383,-1.0409
3630,857.855,1.1369,-1.0472
3645,860.35,1.1356,-1.0513
3660,862.85,1.1342,-1.058
3675,865.345,1.1316,-1.0656
3690,867.834,1.1295,-1.0728
3705,870.318,1.1289,-1.079
3720,872.804,1.1259,-1.085
3735,875.295,1.1245,-1.0876
3750,877.791,1.1242,-1.0871
3765,880.293,1.1188,-1.0947
3780,882.798,1.1195,-1.1048
3795,885.311,1.1168,-1.1084
3810,887.825,1.1158,-1.113
3825,890.34,1.1161,-1.1204
3840,892.853,1.1141,-1.1347
3855,895.36,1.1138,-1.1493
3870,897.862,1.1111,-1.158
3885,900.361,1.1098,-1.1659
3900,902.861,1.1084,-1.1743
3915,905.364,1.1057,-1.1824
3930,907.87,1.1047,-1.1924
3945,910.376,1.1037,-1.2079
3960,912.879,1.1031,-1.2189
3975,915.374,1.1017,-1.2253
3990,917.866,1.099,-1.2325
4005,920.36,1.099,-1.2418
4020,922.859,1.098,-1.2526
4035,925.359,1.0957,-1.2633
4050,927.862,1.0947,-1.2744
4065,930.364,1.0947,-1.2918
4080,932.869,1.0927,-1.3107
4095,935.373,1.0933,-1.323
4110,937.884,1.0913,-1.3302
4125,940.386,1.09,-1.3388
4140,942.888,1.09,-1.3505
4155,945.387,1.0873,-1.3647
4170,947.884,1.0883,-1.3795
4185,950.383,1.087,-1.3946
4200,952.88,1.0843,-1.4102
4215,955.368,1.0856,-1.4252
4230,957.861,1.0833,-1.4421
4245,960.352,1.0846,-1.4596
4260,962.847,1.0839,-1.4773
4275,965.348,1.0823,-1.4932
4290,967.848,1.0819,-1.5096
4305,970.346,1.0813,-1.5233
4320,972.849,1.0813,-1.5391
4323,973.25,1.0813,-1.5414