File: Wood/Calibration_Data/TIFP+UCT/TIFP+UCT_STA_N2_5K_R2.csv
Time (s),Temperature (K),Mass (mg),Heat Flow Rate (W/g)
0,303.16,5.0767,-0.0037
28,303.1757,5.0765,-0.0038
56,303.188,5.0776,-0.004
84,303.2,5.0794,-0.0034
112,303.204,5.0802,-0.003
140,303.203,5.0815,-0.0023
168,303.194,5.0812,-0.002
196,303.188,5.0818,-0.0015
224,303.1817,5.083,-0.002
252,303.175,5.0846,-0.002
280,303.1693,5.0858,-0.0023
308,303.1673,5.086,-0.0024
336,303.3344,5.0869,-0.0021
364,304.2049,5.0877,-0.015
392,306.1015,5.0896,-0.0476
420,308.9455,5.0899,-0.0859
448,312.3491,5.0884,-0.1161
476,315.8505,5.0894,-0.1322
504,319.1336,5.0909,-0.1347
532,322.0694,5.0909,-0.1288
560,324.688,5.0888,-0.1204
588,327.1005,5.0882,-0.1122
616,329.4136,5.0896,-0.1079
644,331.7063,5.089,-0.1066
672,334.0138,5.0883,-0.1073
700,336.3384,5.0883,-0.1087
728,338.6655,5.0883,-0.1097
756,340.9838,5.0883,-0.1086
784,343.3022,5.0862,-0.1069
812,345.6135,5.0853,-0.1042
840,347.929,5.0865,-0.1014
868,350.251,5.0842,-0.0978
896,352.5855,5.0842,-0.095
924,354.9218,5.0842,-0.0915
952,357.2678,5.0855,-0.0884
980,359.618,5.0851,-0.0852
1008,361.9726,5.0855,-0.0823
1036,364.3194,5.0855,-0.0801
1064,366.6638,5.0855,-0.0772
1092,369.0028,5.0869,-0.0752
1120,371.3406,5.0865,-0.0732
1148,373.6818,5.0858,-0.0716
1176,376.0219,5.0869,-0.0702
1204,378.3612,5.0869,-0.0685
1232,380.706,5.0869,-0.0671
1260,383.0468,5.0869,-0.0653
1288,385.3924,5.0869,-0.0636
1316,387.739,5.088,-0.0623
1344,390.0819,5.0882,-0.0611
1372,392.421,5.0867,-0.0597
1400,394.7568,5.0869,-0.0591
1428,397.1007,5.0857,-0.0583
1456,399.4422,5.0853,-0.0579
1484,401.7913,5.0862,-0.0574
1512,404.1349,5.0863,-0.0578
1540,406.4826,5.087,-0.0583
1568,408.827,5.0857,-0.0587
1596,411.1738,5.0833,-0.059
1624,413.5162,5.0844,-0.0593
1652,415.8568,5.084,-0.0589
1680,418.1987,5.0846,-0.0591
1708,420.5418,5.0823,-0.0596
1736,422.8823,5.0823,-0.0593
1764,425.2216,5.0823,-0.0591
1792,427.5518,5.0814,-0.0586
1820,429.8755,5.0793,-0.0586
1848,432.2011,5.0789,-0.0581
1876,434.5332,5.0766,-0.0578
1904,436.8618,5.0756,-0.0579
1932,439.1989,5.0729,-0.0582
1960,441.5302,5.0699,-0.0581
1988,443.863,5.0679,-0.0578
2016,446.1879,5.0659,-0.0579
2044,448.5159,5.0612,-0.058
2072,450.8423,5.0585,-0.0575
2100,453.1688,5.0561,-0.0578
2128,455.4966,5.0514,-0.0584
2156,457.8218,5.0464,-0.0601
2184,460.1519,5.0424,-0.0601
2212,462.4778,5.0368,-0.0591
2240,464.8088,5.0319,-0.0586
2268,467.136,5.0239,-0.0581
2296,469.4702,5.017,-0.0576
2324,471.802,5.0099,-0.0581
2352,474.131,5.0026,-0.0582
2380,476.4578,4.9951,-0.0581
2408,478.783,4.9867,-0.0578
2436,481.1118,4.9787,-0.0568
2464,483.4368,4.9706,-0.0563
2492,485.7615,4.9599,-0.0563
2520,488.0868,4.9507,-0.056
2548,490.4112,4.9413,-0.056
2576,492.7445,4.9291,-0.056
2604,495.0818,4.9184,-0.0558
2632,497.4218,4.9049,-0.0559
2660,499.751,4.8902,-0.0565
2688,502.08,4.8765,-0.0573
2716,504.4062,4.8605,-0.0584
2744,506.7325,4.8446,-0.0589
2772,509.0599,4.8275,-0.0597
2800,511.3883,4.8077,-0.0605
2828,513.7163,4.7888,-0.0613
2856,516.0389,4.7659,-0.0621
2884,518.3742,4.7455,-0.0628
2912,520.707,4.7228,-0.0636
2940,523.0407,4.7,-0.0642
2968,525.3762,4.6752,-0.0644
2996,527.7095,4.6486,-0.0644
3024,530.0408,4.6215,-0.0643
3052,532.3726,4.5966,-0.0636
3080,534.703,4.5679,-0.0626
3108,537.0319,4.5378,-0.0618
3136,539.3648,4.5091,-0.0603
3164,541.6953,4.4784,-0.059
3192,544.027,4.4491,-0.0574
3220,546.3594,4.4184,-0.0557
3248,548.6908,4.3864,-0.0542
3276,551.0267,4.3542,-0.0521
3304,553.3676,4.3193,-0.0501
3332,555.704,4.2854,-0.0487
3360,558.0281,4.2515,-0.0479
3388,560.3462,4.2104,-0.0478
3416,562.668,4.1743,-0.0477
3444,564.9949,4.1353,-0.0478
3472,567.3334,4.0947,-0.0479
3500,569.672,4.0523,-0.0487
3528,572.0138,4.0052,-0.0499
3556,574.3522,3.9592,-0.0516
3584,576.6888,3.9084,-0.0535
3612,579.019,3.8573,-0.056
3640,581.3512,3.8009,-0.0593
3668,583.6828,3.7438,-0.0624
3696,586.0209,3.6847,-0.0653
3724,588.3568,3.6232,-0.0681
3752,590.6915,3.5591,-0.0705
3780,593.0269,3.4934,-0.0726
3808,595.3574,3.426,-0.0748
3836,597.681,3.3548,-0.0765
3864,600.0039,3.282,-0.0777
3892,602.3356,3.2106,-0.0786
3920,604.672,3.1373,-0.0798
3948,607.0081,3.061,-0.0818
3976,609.3429,2.9861,-0.0843
4004,611.677,2.9056,-0.0873
4032,614.0075,2.826,-0.0914
4060,616.3332,2.7433,-0.0969
4088,618.6605,2.6574,-0.1033
4116,620.9928,2.567,-0.1101
4144,623.322,2.473,-0.1165
4172,625.6493,2.3765,-0.1222
4200,627.9718,2.2779,-0.1262
4228,630.3092,2.1771,-0.1274
4256,632.6515,2.0753,-0.1242
4284,634.9967,1.9739,-0.1138
4312,637.332,1.8775,-0.095
4340,639.6625,1.7883,-0.0672
4368,641.9888,1.7087,-0.0314
4396,644.3146,1.6418,0.0108
4424,646.6473,1.5917,0.0551
4452,648.9819,1.5546,0.0959
4480,651.3192,1.5273,0.1295
4508,653.6578,1.5101,0.1517
4536,655.993,1.4975,0.1658
4564,658.3286,1.4873,0.1742
4592,660.6658,1.4767,0.1799
4620,663.0057,1.4683,0.1846
4648,665.3372,1.4599,0.1888
4676,667.67,1.4505,0.193
4704,670.0018,1.4418,0.1977
4732,672.3258,1.4332,0.2019
4760,674.6488,1.4264,0.2067
4788,676.9669,1.4161,0.2107
4816,679.2902,1.4079,0.2142
4844,681.6248,1.4012,0.2183
4872,683.9589,1.391,0.2222
4900,686.2942,1.386,0.2261
4928,688.6333,1.3753,0.2296
4956,690.978,1.3686,0.2333
4984,693.3166,1.3595,0.2366
5012,695.6538,1.3527,0.2394
5040,697.9848,1.3448,0.2416
5068,700.3042,1.3379,0.2443
5096,702.6303,1.3311,0.2464
5124,704.9658,1.325,0.2483
5152,707.2976,1.3176,0.2499
5180,709.6325,1.3105,0.2512
5208,711.97,1.3049,0.2521
5236,714.3022,1.2996,0.2533
5264,716.634,1.2944,0.2543
5292,718.9627,1.2875,0.2554
5320,721.2898,1.283,0.2561
5348,723.6273,1.277,0.2576
5376,725.9599,1.2716,0.2585
5404,728.2942,1.2676,0.2597
5432,730.6265,1.2636,0.2611
5460,732.9578,1.2602,0.2632
5488,735.2894,1.2535,0.2647
5516,737.6275,1.2498,0.2664
5544,739.9647,1.2472,0.2686
5572,742.296,1.2445,0.2704
5600,744.6285,1.2401,0.2718
5628,746.9599,1.2374,0.2737
5656,749.2908,1.233,0.2756
5684,751.6173,1.23,0.2775
5712,753.9379,1.226,0.2794
5740,756.2652,1.2233,0.2818
5768,758.6125,1.2203,0.2838
5796,760.9559,1.217,0.2853
5824,763.2972,1.2142,0.2876
5852,765.6305,1.2113,0.2897
5880,767.9578,1.2089,0.2917
5908,770.2852,1.2062,0.294
5936,772.6238,1.2022,0.2964
5964,774.9668,1.2009,0.2983
5992,777.3104,1.1992,0.3
6020,779.6505,1.1955,0.3017
6048,781.9829,1.1942,0.303
6076,784.3126,1.1901,0.3046
6104,786.644,1.1901,0.3058
6132,788.9739,1.1881,0.3078
6160,791.3069,1.1854,0.3096
6188,793.6385,1.1844,0.3115
6216,795.9588,1.1818,0.3133
6244,798.2768,1.1791,0.3144
6272,800.6015,1.1764,0.3161
6300,802.9449,1.175,0.3171
6328,805.2994,1.1737,0.3179
6356,807.654,1.171,0.3196
6384,810.0038,1.171,0.3216
6412,812.3416,1.1676,0.3226
6440,814.6655,1.1653,0.3234
6468,816.9927,1.1636,0.3239
6496,819.3044,1.1608,0.3246
6524,821.619,1.1598,0.3263
6552,823.9498,1.1578,0.3273
6580,826.2942,1.1558,0.3277
6608,828.6425,1.1531,0.3278
6636,830.9907,1.1531,0.3286
6664,833.3346,1.1504,0.3291
6692,835.6675,1.1481,0.3293
6720,837.9911,1.1464,0.3289
6748,840.3172,1.1444,0.3296
6776,842.6473,1.1431,0.3296
6804,844.9809,1.1417,0.3295
6832,847.3126,1.1389,0.3292
6860,849.6287,1.137,0.3297
6888,851.9449,1.137,0.3299
6916,854.2802,1.1364,0.3304
6944,856.6298,1.1333,0.3317
6972,858.9697,1.1317,0.333
7000,861.3013,1.1317,0.3337
7028,863.6325,1.1293,0.3343
7056,865.9659,1.128,0.3347
7084,868.3024,1.1264,0.3349
7112,870.6343,1.1253,0.336
7140,872.9676,1.124,0.3377
7168,875.312,1.1226,0.3414
7196,877.6505,1.1216,0.3433
7224,879.9897,1.1203,0.345
7252,882.3188,1.1179,0.3455
7280,884.6515,1.1169,0.3479
7308,886.982,1.1143,0.351
7336,889.3193,1.1152,0.3545
7364,891.6575,1.1119,0.3581
7392,893.9898,1.1119,0.3626
7420,896.3142,1.1105,0.3663
7448,898.6388,1.1102,0.3702
7476,900.9729,1.1075,0.3736
7504,903.3132,1.1082,0.3786
7532,905.651,1.1055,0.3845
7560,907.9869,1.1058,0.3896
7588,910.3242,1.1043,0.394
7616,912.654,1.1038,0.3995
7644,914.9839,1.1016,0.4054
7672,917.3213,1.0998,0.4114
7700,919.6618,1.0991,0.4179
7728,921.999,1.0985,0.4243
7756,924.3358,1.0971,0.4306
7784,926.6698,1.0951,0.4258
7812,929.0029,1.0934,0.4335
7840,931.3378,1.0936,0.4414
7868,933.6608,1.0928,0.4491
7896,935.9856,1.0918,0.4565
7924,938.3136,1.0921,0.4647
7952,940.6435,1.0901,0.4734
7980,942.9848,1.0908,0.4813
8008,945.3288,1.0898,0.4896
8036,947.677,1.0877,0.4991
8064,950.0148,1.0884,0.5072
8092,952.3416,1.0877,0.515
8120,954.6645,1.0867,0.5238
8148,956.9919,1.0854,0.5333
8176,959.3186,1.0867,0.5425
8204,961.6533,1.085,0.5533
8232,963.9987,1.0851,0.5634
8260,966.3468,1.0825,0.5728
8288,968.6828,1.0824,0.5821
8316,971.006,1.0814,0.5945
8343,973.202,1.08,0.6044