File: Wood/Calibration_Data/TIFP+UCT/TIFP+UCT_Gasification_hor_parallel_60kW_R3.csv
Time (s),Mass (g),TC back 1 (K),TC back 2 (K),TC back 3 (K)
0,94.71,303.95,302.35,303.25
6,93.66,305.45,303.55,305.05
12,93.35,307.15,304.65,306.85
18,92.80,308.65,305.75,308.65
24,92.12,310.25,306.75,310.35
30,91.47,311.85,307.85,312.15
36,90.85,313.45,308.95,313.85
42,90.23,315.05,310.05,315.55
48,89.68,316.65,311.15,317.25
54,89.11,318.25,312.15,318.95
60,88.59,319.75,313.25,320.65
66,88.08,321.35,314.35,322.35
72,87.59,322.85,315.35,324.05
78,87.11,324.35,316.45,325.75
84,86.64,325.95,317.55,327.55
90,86.17,327.45,318.55,329.25
96,85.71,328.95,319.65,331.05
102,85.27,330.45,320.75,332.85
108,84.84,331.95,321.85,334.75
114,84.40,333.55,322.95,336.65
120,83.98,335.05,324.05,338.55
126,83.57,336.55,325.25,340.55
132,83.14,338.05,326.45,342.55
138,82.73,339.55,327.65,344.65
144,82.32,341.15,328.75,346.65
150,81.91,342.65,330.05,348.65
156,81.51,344.15,331.35,350.75
162,81.12,345.75,332.65,352.95
168,80.72,347.25,333.95,355.05
174,80.33,348.85,335.25,357.15
180,79.96,350.45,336.65,359.25
186,79.57,352.05,338.05,361.35
192,79.22,353.65,339.55,363.35
198,78.84,355.15,340.95,365.45
204,78.47,356.85,342.45,367.35
210,78.12,358.45,343.95,369.25
216,77.75,360.05,345.55,371.05
222,77.38,361.65,347.15,372.85
228,77.01,363.25,348.75,374.45
234,76.67,364.85,350.35,376.05
240,76.31,366.45,352.15,377.65
246,75.95,367.95,354.05,379.05
252,75.60,369.55,355.85,380.15
258,75.27,371.05,357.75,381.45
264,74.92,372.55,359.55,382.75
270,74.58,374.05,361.35,384.05
276,74.23,375.45,363.25,385.35
282,73.88,376.85,365.15,386.55
288,73.56,378.25,366.95,387.75
294,73.22,379.55,368.75,389.05
300,72.89,380.85,370.55,390.25
306,72.56,382.05,372.25,391.45
312,72.23,383.25,374.05,392.65
318,71.91,384.45,375.75,393.85
324,71.58,385.55,377.35,394.95
330,71.24,386.65,378.95,396.15
336,70.93,387.75,380.45,397.35
342,70.60,388.75,381.75,398.55
348,70.28,389.65,383.15,399.65
354,69.96,390.55,384.25,400.85
360,69.65,391.35,385.35,402.05
366,69.34,392.25,386.25,403.25
372,69.01,393.05,387.15,404.45
378,68.71,393.85,387.95,405.85
384,68.35,394.55,388.85,406.95
390,68.04,395.35,389.65,408.05
396,67.73,396.15,390.45,409.15
402,67.42,396.85,391.25,410.25
408,67.12,397.65,392.05,411.25
414,66.80,398.35,392.75,412.45
420,66.50,399.15,393.55,413.45
426,66.18,399.95,394.35,414.55
432,65.87,400.65,395.15,415.65
438,65.56,401.45,395.95,416.75
444,65.28,402.25,396.75,417.85
450,64.95,402.95,397.45,418.95
456,64.66,403.75,398.25,419.95
462,64.35,404.55,398.95,421.15
468,64.04,405.35,399.75,422.25
474,63.74,406.15,400.45,423.35
480,63.43,406.95,401.15,424.45
486,63.15,407.75,401.95,425.55
492,62.84,408.55,402.65,426.75
498,62.53,409.35,403.35,427.85
504,62.25,410.15,404.05,429.05
510,61.95,410.85,404.75,430.35
516,61.66,411.65,405.45,431.45
522,61.38,412.45,406.15,432.65
528,61.07,413.25,406.85,433.95
534,60.77,414.05,407.65,435.15
540,60.48,414.85,408.35,436.35
546,60.20,415.65,409.05,437.65
552,59.90,416.45,409.85,438.85
558,59.61,417.25,410.55,440.15
564,59.33,418.05,411.25,441.45
570,59.05,418.85,411.95,442.85
576,58.76,419.75,412.65,444.15
582,58.48,420.55,413.45,445.45
588,58.21,421.55,414.15,446.85
594,57.92,422.35,414.95,448.25
600,57.63,423.25,415.75,449.65
606,57.35,424.15,416.45,451.05
612,57.09,425.05,417.25,452.45
618,56.79,425.95,418.05,454.05
624,56.52,426.85,418.75,455.45
630,56.22,427.75,419.55,457.05
636,55.96,428.75,420.45,458.55
642,55.67,429.65,421.25,460.15
648,55.40,430.65,422.05,461.75
654,55.12,431.65,422.95,463.45
660,54.83,432.65,423.85,465.15
666,54.57,433.65,424.65,466.85
672,54.29,434.65,425.65,468.45
678,54.02,435.65,426.45,470.15
684,53.73,436.75,427.35,471.95
690,53.46,437.75,428.35,473.75
696,53.15,438.85,429.25,475.55
702,52.90,439.95,430.15,477.45
708,52.60,441.05,431.15,479.25
714,52.32,442.25,431.95,481.15
720,52.04,443.35,432.85,483.05
726,51.74,444.55,433.85,485.05
732,51.48,445.85,434.85,486.95
738,51.21,447.05,435.85,488.85
744,50.93,448.35,436.85,490.85
750,50.65,449.65,438.05,492.85
756,50.37,451.05,439.05,494.85
762,50.08,452.35,440.25,496.85
768,49.79,453.75,441.45,498.85
774,49.50,455.15,442.65,500.85
780,49.22,456.65,443.85,502.85
786,48.92,458.15,445.05,504.95
792,48.64,459.65,446.35,506.95
798,48.33,461.15,447.75,508.95
804,48.04,462.75,449.15,510.95
810,47.77,464.35,450.55,513.05
816,47.46,465.95,451.95,515.05
822,47.15,467.65,453.55,517.05
828,46.86,469.35,455.05,519.15
834,46.55,471.15,456.65,521.15
840,46.27,472.85,458.35,523.25
846,45.96,474.65,460.05,525.25
852,45.67,476.45,461.75,527.35
858,45.35,478.35,463.55,529.35
864,45.05,480.15,465.45,531.45
870,44.74,482.05,467.35,533.55
876,44.43,483.95,469.35,535.65
882,44.13,485.85,471.35,537.65
888,43.83,487.85,473.45,539.75
894,43.52,489.75,475.55,541.85
900,43.21,491.75,477.65,543.95
906,42.89,493.75,479.85,546.05
912,42.57,495.75,482.05,548.15
918,42.26,497.75,484.25,550.25
924,41.94,499.75,486.45,552.35
930,41.62,501.85,488.75,554.45
936,41.28,503.85,491.05,556.55
942,40.94,505.95,493.35,558.65
948,40.62,508.05,495.75,560.75
954,40.29,510.05,498.05,562.85
960,39.95,512.05,500.35,564.95
966,39.61,514.05,502.65,567.05
972,39.27,516.15,505.05,569.15
978,38.93,518.15,507.45,571.15
984,38.57,520.25,509.75,573.15
990,38.23,522.25,512.05,575.25
996,37.88,524.25,514.35,577.25
1002,37.53,526.35,516.65,579.25
1008,37.17,528.45,518.95,581.25
1014,36.82,530.45,521.25,583.35
1020,36.45,532.55,523.55,585.35
1026,36.10,534.65,525.85,587.35
1032,35.74,536.75,528.15,589.35
1038,35.37,538.95,530.45,591.35
1044,35.02,541.05,532.75,593.35
1050,34.65,543.15,535.15,595.35
1056,34.29,545.25,537.45,597.25
1062,33.92,547.25,539.85,599.25
1068,33.53,549.25,542.25,601.25
1074,33.16,551.25,544.55,603.15
1080,32.80,553.35,547.05,605.15
1086,32.43,555.35,549.55,607.05
1092,32.05,557.35,552.05,608.95
1098,31.67,559.45,554.65,610.95
1104,31.30,561.45,557.15,612.85
1110,30.92,563.55,559.85,614.75
1116,30.56,565.55,562.45,616.55
1122,30.19,567.65,565.05,618.35
1128,29.79,569.75,567.75,620.15
1134,29.41,571.75,570.25,621.95
1140,29.05,573.75,572.75,623.65
1146,28.68,575.85,575.35,625.35
1152,28.30,577.85,577.95,626.95
1158,27.93,579.95,580.65,628.55
1164,27.56,581.95,583.25,630.15
1170,27.21,584.05,586.05,631.85
1176,26.82,586.15,588.75,633.65
1182,26.46,588.25,591.45,635.55
1188,26.09,590.35,594.15,638.05
1194,25.76,592.45,596.75,640.45
1200,25.37,594.55,599.35,642.45
1206,25.01,596.65,601.95,644.75
1212,24.66,598.65,604.65,647.15
1218,24.28,600.75,607.45,649.95
1224,23.93,602.85,610.15,653.35
1230,23.59,604.85,612.85,656.85
1236,23.26,606.85,615.55,661.45
1242,22.93,608.95,618.15,666.65
1248,22.60,610.95,620.85,673.65
1254,22.28,613.05,623.35,681.15
1260,21.96,615.05,625.65,688.95
1266,21.64,617.35,627.65,695.55
1272,21.33,619.45,629.55,701.25
1278,21.09,621.55,631.65,707.25
1284,20.80,623.05,633.75,712.05
1290,20.56,624.85,636.05,714.95
1296,20.28,626.95,638.45,717.65
1302,20.01,629.25,640.85,720.05
1308,19.75,631.75,643.45,722.45
1314,19.49,634.25,646.55,724.45
1320,19.32,636.55,649.95,726.35
1326,19.09,638.95,653.85,729.25
1332,18.90,641.35,658.35,733.75
1338,18.74,643.55,664.55,738.95
1344,18.59,645.85,672.75,744.25
1350,18.45,645.95,683.05,741.65
1356,18.30,647.65,692.85,742.55
1362,18.12,651.15,705.45,743.35
1368,17.97,655.45,719.45,745.25
1374,17.81,660.15,732.35,748.25
1380,17.71,665.75,742.75,752.15
1386,17.55,673.05,750.15,755.55
1392,17.45,682.85,755.05,758.45
1398,17.34,693.95,758.85,761.05
1404,17.24,704.75,761.75,762.95
1410,17.16,715.35,764.55,764.65
1416,17.06,724.75,767.65,766.45
1422,16.95,732.95,771.35,768.75
1428,16.88,739.85,775.65,771.25
1434,16.78,745.25,780.35,773.65
1440,16.75,749.55,785.25,776.15
1446,16.67,752.95,789.35,778.35
1452,16.63,755.85,792.65,780.05
1458,16.60,758.45,795.45,781.65
1464,16.55,760.65,797.65,782.95
1470,16.51,762.65,799.35,784.15
1476,16.48,764.45,800.65,785.15
1482,16.47,766.15,801.75,786.05
1488,16.44,767.65,802.85,786.95
1494,16.42,769.05,803.65,787.55
1500,16.37,770.35,804.45,788.25
1506,16.34,771.65,805.25,789.05
1512,16.33,772.85,805.95,789.75
1518,16.31,773.75,806.55,790.35
1524,16.31,774.75,807.15,790.95
1530,16.27,775.65,807.55,791.45
1536,16.24,776.45,808.15,791.95
1542,16.22,777.25,808.65,792.45
1548,16.20,778.05,809.15,792.95
1554,16.20,778.75,809.55,793.35
1560,16.16,779.45,810.15,793.85
1566,16.15,780.15,810.75,794.35
1572,16.15,780.75,811.15,794.75
1578,16.13,781.35,811.45,795.05
1584,16.11,781.85,811.95,795.55
1590,16.11,782.45,812.35,795.95
1596,16.10,782.95,812.75,796.35
1600,16.09,783.25,812.85,796.55