File: Wood/Calibration_Data/TIFP+UCT/TIFP+UCT_Gasification_hor_parallel_60kW_R1.csv
Time (s),Mass (g),TC back 1 (K),TC back 2 (K),TC back 3 (K)
0,93.67,303.45,302.15,303.15
6,93.05,304.45,302.35,304.65
12,92.49,305.75,303.25,306.75
18,91.79,307.25,304.25,309.05
24,91.11,308.95,305.25,311.35
30,90.50,310.55,306.35,313.65
36,89.94,312.15,307.45,315.95
42,89.40,313.75,308.65,318.15
48,88.86,315.35,309.65,320.45
54,88.40,316.95,310.75,322.65
60,87.91,318.55,311.85,324.85
66,87.47,320.05,312.95,327.05
72,87.02,321.65,314.05,329.15
78,86.56,323.25,315.15,331.25
84,86.12,324.85,316.25,333.35
90,85.70,326.35,317.35,335.45
96,85.27,328.05,318.35,337.55
102,84.85,329.65,319.45,339.55
108,84.44,331.25,320.55,341.65
114,84.03,332.85,321.65,343.75
120,83.64,334.55,322.75,345.85
126,83.23,336.15,323.85,347.95
132,82.84,337.95,324.95,350.05
138,82.46,339.65,326.05,352.15
144,82.07,341.45,327.25,354.25
150,81.71,343.15,328.35,356.35
156,81.33,344.95,329.55,358.45
162,80.95,346.75,330.75,360.55
168,80.59,348.45,332.05,362.65
174,80.22,350.25,333.25,364.75
180,79.86,352.05,334.55,366.85
186,79.52,353.75,335.85,368.85
192,79.16,355.45,337.15,370.85
198,78.81,357.25,338.45,372.85
204,78.47,358.95,339.85,374.85
210,78.13,360.55,341.35,376.75
216,77.79,362.15,342.75,378.65
222,77.43,363.85,344.35,380.45
228,77.10,365.35,345.85,382.15
234,76.76,366.85,347.55,383.95
240,76.42,368.35,349.25,385.75
246,76.10,369.75,350.95,387.35
252,75.78,371.15,352.75,388.95
258,75.44,372.55,354.65,390.55
264,75.12,373.75,356.55,392.25
270,74.80,375.05,358.45,393.85
276,74.47,376.25,360.45,395.55
282,74.14,377.45,362.35,397.15
288,73.83,378.75,364.35,398.75
294,73.51,379.85,366.25,400.25
300,73.19,380.95,368.05,401.75
306,72.91,382.15,369.85,403.35
312,72.59,383.15,371.55,404.85
318,72.30,384.25,373.35,406.45
324,71.96,385.25,375.65,408.05
330,71.67,386.25,377.35,409.65
336,71.36,387.25,378.75,411.15
342,71.04,388.25,380.05,412.65
348,70.73,389.15,381.25,414.05
354,70.40,390.15,382.45,415.35
360,70.10,391.05,383.55,416.75
366,69.80,392.05,384.55,418.05
372,69.49,392.85,385.45,419.35
378,69.18,393.75,386.25,420.75
384,68.86,394.65,386.95,422.05
390,68.56,395.65,387.75,423.35
396,68.27,396.55,388.45,424.65
402,67.95,397.45,389.15,426.05
408,67.66,398.35,389.85,427.35
414,67.36,399.25,390.65,428.65
420,67.05,400.15,391.35,429.95
426,66.72,401.05,392.15,431.25
432,66.44,402.05,392.95,432.55
438,66.14,402.95,393.75,433.75
444,65.84,403.85,394.55,435.15
450,65.55,404.75,395.35,436.35
456,65.24,405.75,396.15,437.65
462,64.94,406.75,396.95,438.95
468,64.63,407.65,397.85,440.25
474,64.35,408.55,398.65,441.55
480,64.05,409.45,399.55,442.85
486,63.75,410.35,400.35,444.15
492,63.46,411.25,401.25,445.45
498,63.17,412.15,402.15,446.75
504,62.86,413.05,403.05,448.05
510,62.55,413.95,403.95,449.35
516,62.26,414.85,404.85,450.55
522,61.97,415.75,405.75,451.85
528,61.67,416.65,406.55,453.25
534,61.37,417.55,407.45,454.55
540,61.09,418.45,408.35,455.85
546,60.81,419.35,409.35,457.15
552,60.51,420.25,410.25,458.55
558,60.21,421.15,411.15,459.85
564,59.92,422.05,411.95,461.15
570,59.63,422.95,412.85,462.55
576,59.33,423.95,413.85,463.95
582,59.05,424.85,414.65,465.25
588,58.76,425.85,415.55,466.65
594,58.47,426.75,416.45,468.05
600,58.19,427.75,417.35,469.45
606,57.89,428.65,418.35,470.95
612,57.60,429.65,419.15,472.35
618,57.33,430.65,420.15,473.75
624,57.02,431.65,421.15,475.25
630,56.74,432.65,422.05,476.65
636,56.46,433.65,422.95,478.15
642,56.17,434.75,423.95,479.65
648,55.88,435.75,424.85,481.15
654,55.59,436.85,425.85,482.65
660,55.30,437.85,426.85,484.25
666,55.01,439.05,427.85,485.85
672,54.73,440.05,428.85,487.45
678,54.45,441.25,429.85,489.05
684,54.17,442.35,430.95,490.65
690,53.88,443.55,431.95,492.25
696,53.60,444.65,432.95,493.95
702,53.31,445.95,433.95,495.65
708,53.02,447.05,434.95,497.35
714,52.75,448.35,436.05,499.15
720,52.45,449.65,437.15,500.85
726,52.16,450.95,438.25,502.65
732,51.87,452.25,439.35,504.45
738,51.60,453.65,440.55,506.25
744,51.31,454.95,441.65,508.15
750,51.01,456.35,442.85,509.95
756,50.73,457.75,444.05,511.85
762,50.44,459.15,445.25,513.65
768,50.15,460.65,446.45,515.55
774,49.86,462.15,447.75,517.45
780,49.58,463.65,448.95,519.35
786,49.28,465.25,450.25,521.25
792,49.00,466.75,451.55,523.25
798,48.71,468.45,452.95,525.15
804,48.42,470.05,454.25,527.15
810,48.11,471.65,455.65,529.15
816,47.82,473.35,457.15,531.15
822,47.53,475.05,458.55,533.15
828,47.24,476.85,460.05,535.25
834,46.94,478.55,461.55,537.25
840,46.65,480.35,463.05,539.25
846,46.35,482.15,464.65,541.35
852,46.06,483.95,466.25,543.35
858,45.76,485.75,467.95,545.55
864,45.44,487.55,469.65,547.55
870,45.16,489.35,471.35,549.65
876,44.86,491.25,473.15,551.75
882,44.55,493.05,474.95,553.95
888,44.26,494.95,476.65,555.95
894,43.95,496.75,478.55,558.05
900,43.64,498.65,480.45,560.25
906,43.33,500.45,482.45,562.35
912,43.02,502.35,484.45,564.55
918,42.71,504.25,486.55,566.65
924,42.39,506.15,488.55,568.75
930,42.08,508.15,490.65,570.85
936,41.78,509.95,492.85,572.95
942,41.46,511.85,494.95,575.05
948,41.14,513.65,497.15,577.05
954,40.81,515.55,499.35,579.05
960,40.49,517.45,501.55,581.15
966,40.18,519.45,503.85,583.25
972,39.85,521.25,506.05,585.35
978,39.54,523.25,508.35,587.35
984,39.21,525.15,510.45,589.45
990,38.87,527.05,512.75,591.55
996,38.55,529.05,514.95,593.65
1002,38.22,530.95,517.15,595.65
1008,37.89,532.95,519.35,597.65
1014,37.56,534.85,521.55,599.65
1020,37.23,536.85,523.85,601.75
1026,36.89,538.85,526.05,603.75
1032,36.54,540.85,528.35,605.75
1038,36.20,542.85,530.55,607.85
1044,35.88,544.85,532.85,609.85
1050,35.53,546.85,535.15,611.85
1056,35.19,548.85,537.45,613.95
1062,34.85,550.85,539.75,616.05
1068,34.49,552.95,542.05,618.05
1074,34.15,554.95,544.35,620.05
1080,33.80,557.05,546.65,622.05
1086,33.46,559.05,549.05,624.05
1092,33.11,561.05,551.45,626.15
1098,32.75,563.15,553.85,628.15
1104,32.40,565.15,556.25,630.25
1110,32.05,567.25,558.65,632.25
1116,31.69,569.25,561.15,634.45
1122,31.34,571.35,563.55,636.55
1128,30.99,573.35,565.95,638.65
1134,30.63,575.35,568.45,640.85
1140,30.27,577.35,570.95,643.25
1146,29.93,579.35,573.35,645.85
1152,29.55,581.35,575.85,648.85
1158,29.20,583.45,578.25,651.95
1164,28.85,585.45,580.85,655.15
1170,28.49,587.45,583.35,658.45
1176,28.14,589.45,585.75,661.95
1182,27.79,591.45,588.25,665.85
1188,27.44,593.45,590.85,670.05
1194,27.08,595.45,593.35,674.65
1200,26.73,597.45,595.85,679.45
1206,26.38,599.35,598.35,684.35
1212,26.04,601.35,600.95,689.95
1218,25.69,603.35,603.35,696.25
1224,25.36,605.35,605.85,703.45
1230,25.02,607.35,608.45,710.65
1236,24.69,609.35,610.85,718.05
1242,24.35,611.25,613.35,724.75
1248,24.03,613.25,615.75,730.15
1254,23.72,615.15,618.15,734.15
1260,23.39,616.95,620.45,737.35
1266,23.07,618.75,622.75,739.25
1272,22.78,620.65,625.05,740.35
1278,22.47,622.55,627.35,740.95
1284,22.16,624.35,629.55,741.15
1290,21.88,626.05,631.75,741.45
1296,21.59,627.65,633.95,741.75
1302,21.31,629.65,636.15,742.15
1308,21.05,631.85,638.35,743.65
1314,20.80,633.45,640.65,743.85
1320,20.56,635.05,642.95,743.45
1326,20.34,636.55,644.95,744.15
1332,20.10,638.55,646.95,745.05
1338,19.86,640.55,648.85,745.35
1344,19.65,642.85,650.75,745.65
1350,19.42,645.35,652.75,745.65
1356,19.27,648.15,655.15,745.45
1362,19.09,651.35,658.05,745.55
1368,18.92,655.35,661.45,746.35
1374,18.80,659.85,666.25,747.45
1380,18.66,665.45,672.05,748.95
1386,18.56,672.25,679.05,750.65
1392,18.44,680.55,688.25,752.25
1398,18.33,690.55,698.95,754.15
1404,18.24,701.75,710.25,756.15
1410,18.15,713.25,721.25,758.25
1416,18.07,724.25,732.15,760.55
1422,18.01,733.45,742.25,763.05
1428,17.95,740.35,750.95,765.45
1434,17.90,745.15,756.35,768.15
1440,17.84,748.05,758.75,770.35
1446,17.79,749.95,760.15,772.45
1452,17.76,751.45,761.35,774.25
1458,17.71,752.75,762.55,775.85
1464,17.67,753.95,763.75,777.35
1470,17.65,755.25,764.85,778.65
1476,17.60,756.45,765.95,779.85
1482,17.58,757.55,766.95,781.15
1488,17.55,758.75,768.05,782.25
1494,17.50,759.95,769.15,783.25
1500,17.48,761.05,770.15,784.05
1506,17.46,762.15,771.15,784.95
1512,17.42,763.35,772.15,785.75
1518,17.39,764.45,773.25,786.65
1524,17.36,765.55,774.25,787.35
1530,17.35,766.55,775.15,788.15
1536,17.33,767.55,776.05,788.85
1542,17.28,768.55,776.95,789.45
1548,17.27,769.55,777.85,790.15
1554,17.25,770.45,778.65,790.65
1560,17.23,771.25,779.45,791.15
1566,17.21,772.15,780.15,791.75
1572,17.19,772.95,780.95,792.25
1578,17.17,773.75,781.65,792.85
1584,17.14,774.45,782.35,793.35
1590,17.13,775.25,783.05,793.95
1596,17.12,775.95,783.65,794.35
1600,17.11,776.45,784.15,794.55