File: Wood/Calibration_Data/TIFP+UCT/TIFP+UCT_Wood_Gasification_30kW_hor_parallel_R4.csv
Time (s),Mass (g),TC back 1 (K),TC back 2 (K),TC back 3 (K)
0,92.08,294.95,295.35,296.35
12,92.32,295.95,296.45,298.25
24,92.20,296.85,297.35,300.15
36,92.03,297.85,298.15,301.95
48,91.49,298.75,298.85,303.75
60,91.18,299.75,299.65,305.45
72,90.86,300.75,300.45,307.25
84,90.28,301.85,301.35,309.05
96,89.89,302.95,302.15,311.25
108,89.52,304.05,303.05,313.35
120,89.08,305.15,304.05,315.45
132,88.64,306.35,305.05,317.45
144,88.41,307.75,306.15,319.55
156,88.06,309.05,307.25,321.65
168,87.65,310.55,308.65,323.85
180,87.23,312.15,309.95,326.15
192,87.02,313.75,311.45,328.45
204,86.72,315.55,312.95,330.85
216,86.34,317.45,314.55,333.25
228,86.09,319.45,316.35,335.65
240,85.76,321.45,318.05,338.05
252,85.46,323.65,319.95,340.55
264,85.15,325.85,321.95,342.95
276,84.88,328.15,324.05,345.45
288,84.62,330.45,326.15,347.85
300,84.33,332.75,328.35,350.35
312,83.89,335.15,330.55,352.65
324,83.63,337.55,332.85,355.15
336,83.35,340.05,335.15,357.45
348,83.11,342.45,337.45,359.85
360,82.77,344.85,339.85,362.25
372,82.44,347.45,342.35,364.45
384,82.13,349.95,344.75,366.55
396,81.89,352.55,347.15,368.45
408,81.58,355.15,349.55,370.35
420,81.34,357.75,352.05,372.25
432,81.01,360.25,354.45,373.95
444,80.63,362.65,356.85,375.75
456,80.40,364.85,359.25,377.35
468,80.11,366.85,361.55,378.95
480,79.80,368.75,363.85,380.45
492,79.51,371.05,366.05,381.85
504,79.26,373.15,368.25,383.35
516,78.88,374.55,370.35,384.65
528,78.61,375.85,372.25,385.95
540,78.30,376.95,374.05,387.15
552,77.97,378.05,375.65,388.35
564,77.61,379.05,376.95,389.45
576,77.33,379.85,378.05,390.45
588,77.06,380.65,379.05,391.45
600,76.70,381.35,379.95,392.35
612,76.47,381.95,380.75,393.35
624,76.24,382.55,381.45,394.35
636,75.99,383.05,382.15,395.25
648,75.53,383.55,382.75,396.15
660,75.39,384.05,383.35,397.05
672,74.98,384.55,384.05,398.05
684,74.77,385.05,384.65,398.95
696,74.46,385.55,385.25,399.95
708,74.16,386.05,385.85,400.85
720,73.93,386.45,386.45,401.85
732,73.57,386.95,387.05,402.85
744,73.32,387.45,387.75,403.85
756,73.09,387.95,388.35,404.85
768,72.81,388.55,389.05,405.95
780,72.50,389.05,389.65,406.95
792,72.19,389.65,390.35,408.05
804,71.92,390.15,391.05,409.15
816,71.71,390.75,391.75,410.25
828,71.49,391.35,392.35,411.45
840,71.28,391.95,393.05,412.55
852,70.97,392.55,393.75,413.75
864,70.65,393.15,394.55,414.95
876,70.41,393.85,395.35,416.15
888,70.10,394.45,396.15,417.35
900,69.85,395.15,396.85,418.65
912,69.59,395.85,397.65,419.95
924,69.36,396.65,398.55,421.35
936,69.10,397.35,399.35,422.75
948,68.85,398.15,400.35,424.25
960,68.57,398.95,401.25,425.75
972,68.36,399.75,402.15,427.25
984,68.07,400.65,403.15,428.85
996,67.78,401.45,404.15,430.45
1008,67.53,402.45,405.25,432.15
1020,67.25,403.45,406.25,433.85
1032,67.05,404.55,407.45,435.65
1044,66.77,405.55,408.55,437.45
1056,66.52,406.75,409.75,439.25
1068,66.27,407.85,410.95,441.15
1080,66.09,409.05,412.15,443.05
1092,65.78,410.35,413.45,445.05
1104,65.52,411.55,414.75,447.05
1116,65.25,412.85,416.05,449.05
1128,65.04,414.25,417.45,451.05
1140,64.77,415.65,418.85,453.15
1152,64.53,417.05,420.35,455.15
1164,64.25,418.65,421.85,457.35
1176,64.00,420.25,423.45,459.35
1188,63.74,421.85,425.05,461.45
1200,63.50,423.55,426.65,463.55
1212,63.23,425.25,428.45,465.55
1224,62.98,426.95,430.15,467.65
1236,62.74,428.75,431.95,469.75
1248,62.51,430.55,433.75,471.85
1260,62.28,432.35,435.65,473.85
1272,61.99,434.25,437.55,475.95
1284,61.74,436.15,439.55,477.95
1296,61.47,438.05,441.55,479.95
1308,61.22,439.95,443.55,482.05
1320,60.95,441.95,445.65,484.05
1332,60.70,443.85,447.75,486.05
1344,60.47,445.75,449.85,487.95
1356,60.17,447.75,451.95,489.95
1368,59.91,449.65,454.05,491.85
1380,59.68,451.65,456.15,493.85
1392,59.40,453.55,458.35,495.75
1404,59.10,455.45,460.45,497.75
1416,58.86,457.45,462.65,499.65
1428,58.60,459.35,464.75,501.45
1440,58.28,461.15,466.85,503.35
1452,58.01,463.05,468.95,505.25
1464,57.73,464.95,471.15,507.15
1476,57.42,466.75,473.15,508.95
1488,57.18,468.45,475.25,510.75
1500,56.87,470.25,477.25,512.45
1512,56.53,472.05,479.25,514.25
1524,56.29,473.75,481.25,516.05
1536,56.06,475.55,483.25,517.85
1548,55.68,477.25,485.25,519.55
1560,55.37,478.85,487.15,521.25
1572,55.04,480.55,489.15,522.95
1584,54.74,482.15,491.05,524.75
1596,54.47,483.85,493.05,526.45
1608,54.11,485.35,494.95,528.15
1620,53.82,486.95,496.85,529.85
1632,53.50,488.45,498.65,531.45
1644,53.18,490.05,500.55,533.15
1656,52.86,491.55,502.45,534.65
1668,52.52,493.05,504.35,536.35
1680,52.20,494.65,506.15,537.85
1692,51.85,496.15,507.95,539.45
1704,51.56,497.65,509.65,541.05
1716,51.25,499.15,511.55,542.55
1728,50.89,500.65,513.35,544.15
1740,50.59,502.15,515.15,545.65
1752,50.26,503.65,516.95,547.05
1764,49.93,505.15,518.75,548.55
1776,49.57,506.75,520.55,550.05
1788,49.22,508.25,522.35,551.55
1800,48.89,509.85,524.15,552.95
1812,48.58,511.45,525.95,554.45
1824,48.21,512.95,527.75,555.85
1836,47.90,514.55,529.55,557.25
1848,47.52,516.05,531.25,558.55
1860,47.18,517.65,533.05,559.95
1872,46.86,519.15,534.85,561.35
1884,46.52,520.65,536.55,562.65
1896,46.18,522.15,538.35,563.95
1908,45.83,523.75,540.05,565.25
1920,45.48,525.25,541.85,566.55
1932,45.13,526.75,543.55,567.85
1944,44.79,528.25,545.25,569.05
1956,44.44,529.75,546.95,570.15
1968,44.09,531.25,548.65,571.45
1980,43.73,532.65,550.35,572.55
1992,43.39,534.15,551.95,573.65
2004,43.04,535.65,553.65,574.85
2016,42.72,537.15,555.25,575.95
2028,42.36,538.55,556.85,577.05
2040,42.00,539.85,558.35,578.05
2052,41.62,541.25,559.85,579.15
2064,41.27,542.65,561.25,580.15
2076,40.93,544.25,562.85,581.25
2088,40.58,545.75,564.25,582.15
2100,40.24,547.35,565.75,583.15
2112,39.88,548.85,567.25,584.05
2124,39.55,550.35,568.85,584.95
2136,39.19,551.85,570.25,585.85
2148,38.84,553.25,571.75,586.75
2160,38.52,554.65,573.15,587.75
2172,38.20,556.15,574.55,588.55
2184,37.85,557.55,576.05,589.45
2196,37.52,558.95,577.45,590.35
2208,37.18,560.25,578.75,591.15
2220,36.87,561.55,580.05,592.05
2232,36.54,562.75,581.35,592.85
2244,36.21,564.05,582.55,593.65
2256,35.94,565.25,583.65,594.45
2268,35.60,566.35,584.75,595.35
2280,35.29,567.55,585.85,596.05
2292,35.00,568.65,586.85,596.85
2304,34.69,569.75,587.95,597.65
2316,34.42,570.75,588.85,598.35
2328,34.11,571.85,589.75,599.15
2340,33.84,572.65,590.65,599.95
2352,33.56,572.55,591.45,600.75
2364,33.33,573.25,592.25,601.55
2376,33.07,573.85,593.05,602.25
2388,32.82,574.55,593.85,602.85
2400,32.58,575.15,594.55,603.45
2412,32.33,575.95,595.15,603.95
2424,32.12,576.55,595.85,604.45
2436,31.86,577.15,596.55,604.85
2448,31.67,577.85,597.25,605.35
2460,31.44,578.55,598.05,605.75
2472,31.21,579.15,598.75,606.15
2484,31.02,579.85,599.65,606.45
2496,30.81,580.45,600.55,606.75
2508,30.59,581.05,601.45,606.95
2520,30.41,581.65,602.35,607.35
2532,30.23,582.25,603.35,607.45
2544,30.02,582.75,604.15,607.65
2556,29.87,583.25,605.05,607.95
2568,29.70,583.65,605.75,608.25
2580,29.52,584.15,606.55,608.45
2592,29.33,584.65,607.25,608.65
2604,29.16,585.05,607.95,608.75
2616,29.02,585.45,608.65,608.95
2628,28.87,585.85,609.15,609.05
2640,28.73,586.15,609.45,609.25
2652,28.59,586.45,609.75,609.35
2664,28.45,586.85,610.15,609.45
2676,28.32,587.25,610.55,609.55
2688,28.20,587.65,610.85,609.45
2700,28.07,588.05,611.25,609.55
2712,27.95,588.35,611.45,609.45
2724,27.83,588.65,611.65,609.45
2736,27.77,588.95,611.85,609.45
2748,27.61,589.25,612.05,609.45
2760,27.51,589.45,612.15,609.55
2772,27.41,589.75,612.25,609.55
2784,27.31,590.05,612.25,609.65
2796,27.23,590.25,612.15,609.75
2808,27.14,590.45,612.25,609.65
2820,27.06,590.55,612.05,609.65
2832,26.98,590.85,612.25,609.85
2844,26.89,590.95,612.25,609.85
2856,26.81,591.05,612.35,609.85
2868,26.74,591.35,612.45,609.95
2880,26.66,591.45,612.55,610.05
2892,26.61,591.65,612.45,609.95
2904,26.53,591.75,612.45,610.15
2916,26.49,591.85,612.55,610.15
2928,26.42,592.05,612.55,610.25
2940,26.36,592.05,612.55,610.25
2952,26.28,592.15,612.45,610.25
2964,26.26,592.15,612.45,610.25
2976,26.19,592.05,612.45,610.25
2988,26.13,592.15,612.45,610.35
3000,26.12,592.15,612.45,610.45
3012,26.04,592.15,612.15,610.35
3024,25.99,592.05,612.15,610.25
3036,25.97,591.95,612.05,610.35
3048,25.92,591.85,611.95,610.35
3060,25.89,591.75,611.85,610.25
3072,25.83,591.75,611.85,610.35
3084,25.80,591.65,611.75,610.45
3096,25.74,591.55,611.55,610.45
3108,25.73,591.35,611.35,610.35
3120,25.69,591.25,611.25,610.35
3132,25.63,591.25,611.25,610.45
3144,25.61,590.95,611.15,610.35
3156,25.57,590.85,611.05,610.35
3168,25.54,590.65,610.95,610.35
3180,25.50,590.45,610.85,610.35
3192,25.47,590.25,610.55,610.25
3204,25.43,590.05,610.35,610.25
3216,25.39,589.95,610.25,610.25
3228,25.38,589.75,610.15,610.35
3240,25.34,589.55,610.05,610.25
3252,25.30,589.45,609.85,610.25
3264,25.27,589.35,609.75,610.25
3276,25.26,589.25,609.75,610.25
3288,25.21,589.05,609.35,610.15
3300,25.19,588.85,609.25,610.15
3312,25.17,588.75,609.15,610.25
3324,25.14,588.55,609.05,610.25
3336,25.09,588.45,608.95,610.25
3348,25.08,588.25,608.85,610.25
3360,25.06,588.05,608.75,610.25
3372,25.06,587.95,608.55,610.05
3384,25.00,587.85,608.45,610.05
3396,24.97,587.75,608.35,610.05
3408,24.96,587.55,608.25,610.15
3420,24.93,587.35,608.15,610.15
3432,24.92,587.25,608.15,610.15
3444,24.88,587.15,608.05,610.15
3456,24.87,586.95,607.95,610.15
3468,24.83,586.75,607.85,610.25
3480,24.81,586.65,607.75,610.25
3492,24.79,586.55,607.65,610.35
3500,24.78,586.45,607.55,610.45