File: Wood/Calibration_Data/TIFP+UCT/TIFP+UCT_Wood_Gasification_60kW_hor_perpendicular_R2.csv
Time (s),Mass (g),TC back 1 (K),TC back 2 (K),TC back 3 (K)
0,114.35,298.05,298.05,295.65
4,113.71,298.65,298.55,296.35
8,113.36,299.35,299.35,296.95
12,113.17,299.95,300.15,297.45
16,112.87,300.45,300.75,297.85
20,112.50,301.15,301.45,298.35
24,112.08,301.75,302.15,298.75
28,111.65,302.25,302.75,299.05
32,111.07,302.95,303.35,299.45
36,110.44,303.55,304.05,299.85
40,109.97,304.15,304.55,300.15
44,109.45,304.75,305.25,300.45
48,108.91,305.55,305.95,300.95
52,108.52,306.15,306.55,301.35
56,108.04,307.05,307.35,301.75
60,107.48,307.95,308.15,302.35
64,107.14,308.85,308.95,302.85
68,106.69,310.05,310.05,303.65
72,106.30,311.45,311.25,304.45
76,105.95,312.65,312.45,305.25
80,105.55,314.35,313.95,306.35
84,105.08,316.15,315.65,307.65
88,104.82,317.85,317.25,308.85
92,104.42,319.95,319.25,310.45
96,104.13,322.15,321.45,312.15
100,103.75,324.15,323.45,313.85
104,103.40,326.55,325.85,315.95
108,103.01,329.05,328.45,318.15
112,102.68,331.35,330.65,320.15
116,102.26,333.95,333.25,322.65
120,101.97,336.55,336.05,325.25
124,101.68,338.95,338.45,327.55
128,101.38,341.85,341.35,330.25
132,101.03,345.05,344.15,333.15
136,100.77,347.55,346.65,335.65
140,100.40,350.55,349.45,338.55
144,100.05,353.35,352.05,341.55
148,99.73,355.55,354.25,344.15
152,99.43,358.15,356.75,347.15
156,99.12,360.65,359.05,349.95
160,98.77,362.65,361.05,352.35
164,98.41,365.25,363.15,354.95
168,98.04,368.35,365.25,357.45
172,97.79,370.75,366.95,359.55
176,97.41,373.15,369.05,361.85
180,97.06,375.05,371.15,363.95
184,96.75,376.35,372.85,365.75
188,96.45,377.55,374.45,367.75
192,96.13,378.55,375.75,369.45
196,95.75,379.15,376.85,370.95
200,95.39,379.75,377.95,372.35
204,95.11,380.35,378.85,373.65
208,94.80,380.75,379.65,374.65
212,94.44,381.15,380.35,375.65
216,94.18,381.75,381.05,376.65
220,93.91,382.15,381.55,377.35
224,93.45,382.75,382.25,377.95
228,93.08,383.55,382.95,378.55
232,92.68,384.15,383.35,378.85
236,92.29,384.65,383.85,379.25
240,92.03,385.05,384.15,379.45
244,91.83,385.35,384.45,379.65
248,91.53,385.75,384.75,379.95
252,91.08,386.05,385.05,380.15
256,90.81,386.35,385.35,380.35
260,90.56,386.75,385.65,380.45
264,90.12,387.05,385.95,380.65
268,89.88,387.35,386.15,380.85
272,89.62,387.65,386.55,381.05
276,89.25,387.95,386.75,381.25
280,88.91,388.25,387.05,381.35
284,88.71,388.55,387.35,381.55
288,88.31,388.95,387.65,381.75
292,88.19,389.25,387.85,381.85
296,87.70,389.55,388.25,382.15
300,87.36,389.85,388.55,382.25
304,87.12,390.15,388.75,382.45
308,86.90,390.45,389.05,382.55
312,86.57,390.85,389.35,382.75
316,86.20,391.15,389.65,382.95
320,85.85,391.45,389.95,383.15
324,85.60,391.85,390.25,383.35
328,85.40,392.15,390.55,383.45
332,85.00,392.55,390.85,383.65
336,84.73,392.85,391.15,383.75
340,84.49,393.15,391.45,383.95
344,84.19,393.45,391.75,384.15
348,84.02,393.85,392.05,384.35
352,83.73,394.15,392.35,384.45
356,83.29,394.55,392.65,384.65
360,83.08,394.95,392.95,384.75
364,82.94,395.25,393.25,384.95
368,82.66,395.55,393.55,385.15
372,82.24,395.95,393.95,385.35
376,81.89,396.35,394.25,385.55
380,81.73,396.75,394.55,385.75
384,81.39,397.05,394.85,385.85
388,80.97,397.35,395.25,386.05
392,80.82,397.85,395.55,386.25
396,80.59,398.15,395.85,386.35
400,80.31,398.55,396.25,386.55
404,79.93,398.95,396.55,386.75
408,79.78,399.35,396.95,386.95
412,79.44,399.75,397.25,387.15
416,79.14,400.15,397.65,387.35
420,78.91,400.55,398.05,387.65
424,78.87,400.95,398.35,387.75
428,78.30,401.35,398.75,387.95
432,78.11,401.75,399.15,388.15
436,77.72,402.15,399.55,388.35
440,77.48,402.65,399.95,388.65
444,77.22,403.15,400.35,388.85
448,77.06,403.55,400.65,389.05
452,76.70,404.05,401.15,389.35
456,76.39,404.55,401.65,389.55
460,76.26,405.05,402.05,389.85
464,76.11,405.65,402.45,390.05
468,75.72,406.25,402.95,390.35
472,75.34,406.75,403.45,390.65
476,75.18,407.35,404.05,390.85
480,74.90,407.95,404.55,391.25
484,74.58,408.55,405.05,391.45
488,74.43,409.25,405.75,391.85
492,74.05,410.05,406.35,392.15
496,73.88,410.65,406.95,392.45
500,73.55,411.55,407.65,392.85
504,73.25,412.45,408.45,393.25
508,73.01,413.15,409.05,393.75
512,72.77,413.95,409.95,394.15
516,72.49,414.85,410.75,394.55
520,72.22,415.65,411.45,395.05
524,71.82,416.75,412.35,395.55
528,71.66,417.85,413.35,396.05
532,71.36,418.75,414.15,396.55
536,71.16,419.95,415.25,397.15
540,70.92,421.35,416.35,397.75
544,70.63,422.45,417.35,398.35
548,70.41,423.95,418.55,398.95
552,70.10,425.35,419.75,399.75
556,69.75,426.65,420.85,400.45
560,69.44,428.15,422.25,401.25
564,69.15,429.75,423.65,402.05
568,68.97,431.15,424.95,402.85
572,68.68,432.75,426.45,403.75
576,68.45,434.45,427.95,404.65
580,68.18,436.05,429.35,405.35
584,67.89,437.85,430.95,406.35
588,67.60,439.65,432.65,407.35
592,67.39,441.25,434.15,408.15
596,67.07,443.25,435.95,409.15
600,66.69,445.25,437.75,410.25
604,66.46,446.95,439.25,411.25
608,66.24,448.95,441.15,412.45
612,65.86,451.05,442.95,413.65
616,65.68,452.85,444.55,414.65
620,65.43,454.85,446.55,415.95
624,65.13,456.95,448.45,417.25
628,64.75,458.75,450.05,418.35
632,64.63,460.85,452.05,419.75
636,64.27,462.95,454.05,421.25
640,64.02,464.85,455.75,422.55
644,63.70,467.05,457.75,424.15
648,63.38,469.35,459.75,425.85
652,63.12,471.25,461.45,427.25
656,62.81,473.45,463.45,428.95
660,62.52,475.65,465.45,430.65
664,62.26,477.55,467.05,432.25
668,61.97,479.75,468.95,434.15
672,61.63,481.95,470.85,436.05
676,61.44,483.85,472.65,437.65
680,61.10,486.15,474.55,439.55
684,60.77,488.35,476.55,441.65
688,60.49,490.15,478.35,443.35
692,60.15,492.35,480.35,445.45
696,59.91,494.55,482.25,447.55
700,59.57,496.45,483.95,449.45
704,59.29,498.65,485.95,451.55
708,58.93,500.75,487.95,453.75
712,58.64,502.65,489.65,455.65
716,58.40,504.85,491.55,457.95
720,58.12,506.85,493.45,460.15
724,57.75,508.65,495.15,462.15
728,57.37,510.65,497.05,464.55
732,57.14,512.55,498.95,466.85
736,56.76,514.25,500.65,468.95
740,56.41,516.05,502.55,471.25
744,56.09,517.95,504.35,473.65
748,55.79,519.45,505.95,475.75
752,55.50,521.25,507.85,478.05
756,55.11,523.05,509.65,480.45
760,54.82,524.55,511.25,482.45
764,54.47,526.35,513.05,484.75
768,54.18,528.05,514.85,487.05
772,53.82,529.55,516.45,488.95
776,53.48,531.35,518.15,491.15
780,53.18,533.05,519.95,493.45
784,52.84,534.55,521.45,495.35
788,52.48,536.35,523.25,497.45
792,52.11,538.15,525.05,499.65
796,51.76,539.65,526.55,501.45
800,51.42,541.45,528.35,503.65
804,51.07,543.15,530.15,505.75
808,50.80,544.75,531.65,507.55
812,50.41,546.55,533.45,509.65
816,49.99,548.35,535.25,511.75
820,49.66,549.95,536.85,513.45
824,49.28,551.85,538.65,515.55
828,48.93,553.75,540.35,517.45
832,48.58,555.35,541.95,519.15
836,48.21,557.25,543.85,521.15
840,47.83,559.15,545.65,523.05
844,47.49,560.65,547.25,524.75
848,47.12,562.45,549.15,526.75
852,46.75,564.25,550.95,528.65
856,46.36,565.85,552.65,530.25
860,46.02,567.75,554.65,532.15
864,45.60,569.65,556.55,533.95
868,45.24,571.25,558.25,535.45
872,44.83,573.15,560.35,537.35
876,44.49,575.05,562.45,539.25
880,44.06,576.75,564.15,540.85
884,43.72,578.75,566.25,542.75
888,43.26,580.95,568.35,544.65
892,42.89,582.75,570.05,546.25
896,42.50,584.95,572.05,548.15
900,42.13,587.15,574.15,550.05
904,41.76,588.95,575.75,551.75
908,41.36,591.15,577.75,553.75
912,40.97,593.35,579.75,555.85
916,40.64,595.25,581.45,557.55
920,40.20,597.35,583.45,559.65
924,39.81,599.45,585.35,561.65
928,39.45,601.15,587.05,563.45
932,39.05,603.05,588.95,565.65
936,38.69,605.05,590.85,567.75
940,38.30,606.75,592.55,569.65
944,37.91,608.75,594.55,571.85
948,37.45,610.65,596.55,573.95
952,37.13,612.25,598.15,575.85
956,36.77,614.25,600.15,577.95
960,36.41,616.15,602.05,580.25
964,36.00,617.85,603.75,582.25
968,35.65,619.85,605.85,584.65
972,35.31,621.85,608.15,587.05
976,34.93,623.75,610.15,589.25
980,34.57,625.95,612.35,591.65
984,34.20,628.15,614.35,594.15
988,33.83,630.15,616.15,596.45
992,33.46,632.45,618.45,599.05
996,33.14,634.75,620.75,601.85
1000,32.79,636.75,622.75,604.25
1004,32.43,639.15,624.85,607.15
1008,32.10,641.85,627.55,610.15
1012,31.75,644.25,629.75,612.65
1016,31.42,647.25,632.85,615.75
1020,31.07,651.45,635.95,619.05
1024,30.76,655.95,638.55,621.75
1028,30.44,661.95,641.15,625.05
1032,30.07,661.95,642.65,628.35
1036,29.78,666.55,645.75,631.35
1040,29.49,673.75,650.35,634.95
1044,29.19,681.55,654.35,638.65
1048,28.87,685.35,658.15,641.95
1052,28.59,691.15,663.15,645.85
1056,28.26,704.75,668.95,649.95
1060,27.99,712.05,673.75,653.55
1064,27.75,719.75,679.45,657.85
1068,27.46,726.55,685.65,662.15
1072,27.23,731.65,691.25,665.65
1076,27.00,737.05,698.45,670.05
1080,26.76,741.55,706.95,675.15
1084,26.55,745.95,715.55,680.55
1088,26.33,751.05,726.05,687.45
1092,26.16,756.65,736.45,695.05
1096,25.99,761.25,743.95,701.85
1100,25.76,765.75,751.35,710.75
1104,25.60,770.05,758.35,721.55
1108,25.43,773.95,763.75,732.05
1112,25.30,777.75,768.85,745.55
1116,25.18,782.05,773.65,762.05
1120,25.09,785.15,777.65,782.85
1124,24.97,788.65,782.55,801.35
1128,24.89,792.25,785.85,805.95
1132,24.81,794.55,786.95,806.65
1136,24.83,796.65,788.25,807.55
1140,24.70,798.45,788.95,808.55
1144,24.67,799.85,789.55,809.25
1148,24.63,801.65,791.25,810.95
1152,24.59,803.15,792.65,812.45
1156,24.55,804.55,793.95,813.35
1160,24.54,805.95,794.95,814.65
1164,24.46,807.15,794.85,815.05
1168,24.43,808.25,796.05,816.05
1172,24.39,809.45,796.25,816.75
1174,24.40,809.95,796.95,817.35