File: Wood/Calibration_Data/TIFP+UCT/TIFP+UCT_Wood_STA_N2_10K_R1.csv
Time (s),Temperature (K),Mass (mg),Heat Flow Rate (W/g)
0,303.159,5.196,0.0002
15,303.1605,5.1954,-0.0
30,303.168,5.1963,-0.0002
45,303.1725,5.1974,-0.0005
60,303.18,5.1976,-0.0005
75,303.1815,5.1967,-0.0006
90,303.183,5.1963,-0.0008
105,303.1805,5.1959,-0.0007
120,303.178,5.1977,-0.0007
135,303.1785,5.1991,-0.0008
150,303.172,5.1996,-0.0008
165,303.1705,5.1992,-0.0008
180,303.167,5.1993,-0.0008
195,303.163,5.1987,-0.0007
210,303.159,5.2,-0.0009
225,303.156,5.1987,-0.0009
240,303.156,5.1986,-0.0009
255,303.156,5.2009,-0.0009
270,303.159,5.1997,-0.0013
285,303.1535,5.201,-0.0014
300,303.152,5.1998,-0.0014
315,303.168,5.2017,-0.0018
330,303.341,5.2018,-0.0051
345,303.866,5.1998,-0.0165
360,304.909,5.1993,-0.0395
375,306.588,5.1985,-0.0732
390,308.912,5.1999,-0.113
405,311.832,5.1993,-0.153
420,315.214,5.2004,-0.1894
435,318.89,5.1979,-0.2181
450,322.688,5.1964,-0.2374
465,326.473,5.1961,-0.2471
480,330.129,5.1957,-0.2496
495,333.594,5.1943,-0.2456
510,336.838,5.1916,-0.2382
525,339.862,5.1903,-0.2287
540,342.696,5.1876,-0.2188
555,345.376,5.1835,-0.2086
570,347.939,5.1831,-0.1961
585,350.437,5.1835,-0.1839
600,352.898,5.1795,-0.1722
615,355.356,5.1781,-0.161
630,357.817,5.1741,-0.1503
645,360.303,5.1725,-0.1392
660,362.805,5.1725,-0.1284
675,365.326,5.1712,-0.1171
690,367.854,5.1712,-0.1061
705,370.393,5.1698,-0.0959
720,372.93,5.1671,-0.0859
735,375.466,5.1686,-0.077
750,377.997,5.169,-0.0686
765,380.517,5.1674,-0.0615
780,383.034,5.1688,-0.055
795,385.546,5.1688,-0.0493
810,388.055,5.1675,-0.0438
825,390.558,5.1662,-0.0392
840,393.064,5.1648,-0.035
855,395.567,5.1673,-0.0315
870,398.076,5.1663,-0.0281
885,400.589,5.1649,-0.0253
900,403.106,5.1649,-0.0224
915,405.636,5.1626,-0.0204
930,408.167,5.1626,-0.0187
945,410.703,5.1636,-0.0174
960,413.238,5.1622,-0.016
975,415.777,5.1596,-0.0159
990,418.305,5.1596,-0.0163
1005,420.831,5.1596,-0.0172
1020,423.351,5.1569,-0.0182
1035,425.858,5.1575,-0.0195
1050,428.361,5.1569,-0.02
1065,430.857,5.1545,-0.0208
1080,433.35,5.1545,-0.0216
1095,435.839,5.1518,-0.0223
1110,438.324,5.1505,-0.0235
1125,440.811,5.1478,-0.0252
1140,443.304,5.1458,-0.027
1155,445.792,5.1438,-0.0295
1170,448.284,5.1411,-0.0317
1185,450.776,5.1381,-0.0344
1200,453.269,5.1347,-0.0376
1215,455.764,5.1304,-0.0419
1230,458.258,5.125,-0.0506
1245,460.754,5.1223,-0.0581
1260,463.245,5.1156,-0.0551
1275,465.739,5.1089,-0.0568
1290,468.23,5.1039,-0.0592
1305,470.716,5.0982,-0.0601
1320,473.201,5.0915,-0.0611
1335,475.69,5.0848,-0.0619
1350,478.181,5.076,-0.063
1365,480.669,5.0687,-0.0644
1380,483.163,5.0595,-0.0658
1395,485.659,5.051,-0.0667
1410,488.151,5.0418,-0.0677
1425,490.642,5.0324,-0.0691
1440,493.139,5.0235,-0.0729
1455,495.629,5.0137,-0.076
1470,498.12,5.0019,-0.0786
1485,500.614,4.9924,-0.0811
1500,503.102,4.9805,-0.0828
1515,505.595,4.9665,-0.0834
1530,508.09,4.9524,-0.084
1545,510.581,4.9391,-0.0854
1560,513.074,4.9244,-0.0875
1575,515.571,4.9063,-0.0897
1590,518.063,4.8888,-0.0921
1605,520.558,4.8706,-0.0945
1620,523.048,4.8484,-0.097
1635,525.539,4.8284,-0.1001
1650,528.03,4.8051,-0.1033
1665,530.524,4.7805,-0.1069
1680,533.014,4.7564,-0.1101
1695,535.505,4.7288,-0.114
1710,538.001,4.7038,-0.1176
1725,540.497,4.6746,-0.1213
1740,542.999,4.6447,-0.124
1755,545.502,4.6131,-0.1261
1770,548.003,4.5824,-0.1278
1785,550.499,4.5492,-0.1294
1800,552.994,4.5152,-0.1308
1815,555.49,4.4824,-0.1322
1830,557.983,4.4461,-0.1336
1845,560.477,4.41,-0.1352
1860,562.973,4.3725,-0.1369
1875,565.469,4.3335,-0.1388
1890,567.967,4.2963,-0.1407
1905,570.465,4.2558,-0.1435
1920,572.966,4.2138,-0.1469
1935,575.467,4.171,-0.1507
1950,577.963,4.1257,-0.1554
1965,580.464,4.0787,-0.1611
1980,582.963,4.0318,-0.168
1995,585.463,3.9785,-0.1756
2010,587.967,3.9245,-0.1849
2025,590.467,3.8666,-0.1954
2040,592.967,3.8054,-0.2064
2055,595.463,3.7429,-0.2185
2070,597.956,3.6791,-0.2302
2085,600.452,3.6114,-0.2421
2100,602.945,3.5414,-0.2534
2115,605.435,3.468,-0.2643
2130,607.931,3.3939,-0.2751
2145,610.43,3.3184,-0.2843
2160,612.926,3.2405,-0.2942
2175,615.423,3.1608,-0.3034
2190,617.919,3.081,-0.313
2205,620.416,2.9985,-0.323
2220,622.912,2.916,-0.3342
2235,625.411,2.8299,-0.3469
2250,627.913,2.7406,-0.3625
2265,630.413,2.6498,-0.3816
2280,632.912,2.555,-0.4014
2295,635.411,2.4559,-0.4227
2310,637.908,2.3541,-0.4436
2325,640.404,2.2477,-0.4613
2340,642.905,2.1398,-0.475
2355,645.403,2.0307,-0.4799
2370,647.9,1.9273,-0.4729
2385,650.398,1.8258,-0.4493
2400,652.893,1.7322,-0.4064
2415,655.389,1.6494,-0.345
2430,657.889,1.5844,-0.2701
2445,660.385,1.5371,-0.1908
2460,662.887,1.5009,-0.1185
2475,665.386,1.4757,-0.0622
2490,667.89,1.4587,-0.0256
2505,670.39,1.4446,-0.0057
2520,672.888,1.4342,0.0045
2535,675.387,1.4224,0.0097
2550,677.885,1.4136,0.0125
2565,680.386,1.4034,0.0139
2580,682.88,1.3949,0.0143
2595,685.376,1.3878,0.0143
2610,687.868,1.3777,0.014
2625,690.36,1.369,0.0125
2640,692.851,1.3581,0.0107
2655,695.348,1.3496,0.0087
2670,697.846,1.3405,0.0073
2685,700.346,1.3321,0.0059
2700,702.849,1.3236,0.0046
2715,705.354,1.315,0.0039
2730,707.864,1.3057,0.0026
2745,710.368,1.3001,0.001
2760,712.87,1.2922,-0.0022
2775,715.37,1.284,-0.0061
2790,717.866,1.277,-0.0104
2805,720.363,1.2685,-0.0153
2820,722.859,1.2593,-0.0208
2835,725.353,1.2546,-0.0264
2850,727.846,1.2479,-0.0327
2865,730.34,1.2414,-0.0392
2880,732.838,1.2344,-0.0458
2895,735.335,1.2287,-0.0526
2910,737.833,1.2233,-0.0591
2925,740.329,1.217,-0.0661
2940,742.823,1.2116,-0.1053
2955,745.319,1.2089,-0.1059
2970,747.814,1.2039,-0.1097
2985,750.311,1.2005,-0.1146
3000,752.811,1.1944,-0.1203
3015,755.31,1.189,-0.1253
3030,757.811,1.1863,-0.1303
3045,760.312,1.1847,-0.1344
3060,762.815,1.1793,-0.1391
3075,765.319,1.1766,-0.1436
3090,767.824,1.1711,-0.1486
3105,770.331,1.1674,-0.1526
3120,772.84,1.1651,-0.1571
3135,775.344,1.1606,-0.1611
3150,777.851,1.1581,-0.1649
3165,780.35,1.1547,-0.1686
3180,782.855,1.1507,-0.1737
3195,785.356,1.1479,-0.1787
3210,787.859,1.1452,-0.1829
3225,790.36,1.1402,-0.1864
3240,792.866,1.1385,-0.19
3255,795.373,1.1361,-0.193
3270,797.877,1.1331,-0.196
3285,800.387,1.1298,-0.201
3300,802.891,1.1271,-0.2059
3315,805.393,1.1244,-0.2103
3330,807.892,1.1217,-0.2138
3345,810.39,1.1197,-0.2184
3360,812.887,1.117,-0.2245
3375,815.384,1.114,-0.2297
3390,817.886,1.1127,-0.2357
3405,820.393,1.1096,-0.2324
3420,822.898,1.1063,-0.212
3435,825.411,1.1033,-0.2165
3450,827.919,1.1016,-0.2338
3465,830.42,1.1009,-0.2488
3480,832.916,1.0962,-0.2607
3495,835.405,1.0949,-0.2688
3510,837.899,1.0936,-0.2763
3525,840.391,1.0909,-0.2842
3540,842.884,1.0868,-0.2914
3555,845.375,1.0868,-0.2966
3570,847.867,1.0842,-0.302
3585,850.363,1.0808,-0.3068
3600,852.862,1.0788,-0.3133
3615,855.365,1.0764,-0.3225
3630,857.866,1.0738,-0.3294
3645,860.37,1.0724,-0.3373
3660,862.869,1.0724,-0.3433
3675,865.368,1.0697,-0.3474
3690,867.868,1.0674,-0.3553
3705,870.367,1.0654,-0.3634
3720,872.865,1.0624,-0.3698
3735,875.348,1.061,-0.3766
3750,877.825,1.0593,-0.3874
3765,880.303,1.0567,-0.3953
3780,882.787,1.055,-0.394
3795,885.278,1.0536,-0.3937
3810,887.78,1.0526,-0.3998
3825,890.288,1.0496,-0.4111
3840,892.802,1.0496,-0.4159
3855,895.321,1.0469,-0.4134
3870,897.844,1.0456,-0.4128
3885,900.363,1.0456,-0.415
3900,902.88,1.0429,-0.4269
3915,905.382,1.0429,-0.4384
3930,907.881,1.0412,-0.4463
3945,910.375,1.0366,-0.4447
3960,912.869,1.0373,-0.4346
3975,915.359,1.0363,-0.4276
3990,917.852,1.0343,-0.4269
4005,920.35,1.0333,-0.4406
4020,922.847,1.0306,-0.4531
4035,925.347,1.0306,-0.4618
4050,927.854,1.0299,-0.465
4065,930.358,1.0306,-0.46
4080,932.865,1.0283,-0.4511
4095,935.377,1.0256,-0.4464
4110,937.887,1.0236,-0.4437
4125,940.395,1.0249,-0.4478
4140,942.897,1.0207,-0.454
4155,945.403,1.023,-0.4558
4170,947.904,1.0202,-0.4541
4185,950.404,1.0199,-0.4519
4200,952.9,1.0189,-0.449
4215,955.395,1.0189,-0.4453
4230,957.889,1.0165,-0.4371
4245,960.382,1.0179,-0.4296
4260,962.884,1.0179,-0.4228
4275,965.381,1.0172,-0.4244
4290,967.881,1.0157,-0.4268
4305,970.386,1.0151,-0.427
4320,972.898,1.0137,-0.4228
4323,973.299,1.0137,-0.4214