File: Wood/Calibration_Data/TIFP+UCT/TIFP+UCT_STA_N2_5K_R3.csv
Time (s),Temperature (K),Mass (mg),Heat Flow Rate (W/g)
0,303.163,5.1073,-0.0091
28,303.172,5.1033,-0.0085
56,303.1847,5.1009,-0.0084
84,303.193,5.1005,-0.0077
112,303.1953,5.0977,-0.0073
140,303.188,5.097,-0.0067
168,303.177,5.093,-0.0065
196,303.1643,5.0923,-0.0062
224,303.156,5.0897,-0.0062
252,303.15,5.0883,-0.0061
280,303.1547,5.088,-0.0057
308,303.165,5.0855,-0.0051
336,303.3409,5.0853,-0.0042
364,304.1969,5.084,-0.0053
392,306.0625,5.0847,-0.0124
420,308.8783,5.0837,-0.022
448,312.2709,5.0815,-0.0319
476,315.7885,5.0816,-0.0384
504,319.1035,5.0802,-0.0398
532,322.075,5.0776,-0.039
560,324.7215,5.0741,-0.0383
588,327.1468,5.0715,-0.0377
616,329.4602,5.0702,-0.0386
644,331.7398,5.0683,-0.04
672,334.0282,5.0648,-0.0419
700,336.3392,5.0635,-0.0438
728,338.6545,5.0622,-0.0447
756,340.9758,5.0608,-0.0444
784,343.2866,5.0585,-0.043
812,345.5985,5.0558,-0.0408
840,347.9189,5.055,-0.0381
868,350.2458,5.0526,-0.0348
896,352.583,5.05,-0.0315
924,354.924,5.0495,-0.028
952,357.272,5.0486,-0.0247
980,359.6143,5.0463,-0.0219
1008,361.9548,5.0446,-0.0189
1036,364.2959,5.0446,-0.0167
1064,366.6435,5.0446,-0.0146
1092,368.998,5.0419,-0.0127
1120,371.3492,5.0419,-0.0107
1148,373.6928,5.0395,-0.009
1176,376.0357,5.0392,-0.0078
1204,378.3692,5.0365,-0.0062
1232,380.7068,5.0365,-0.0046
1260,383.0521,5.0352,-0.0026
1288,385.3936,5.0339,-0.0008
1316,387.7348,5.0325,0.0003
1344,390.0725,5.0312,0.0012
1372,392.4128,5.0296,0.0018
1400,394.752,5.0285,0.0023
1428,397.0949,5.0272,0.0026
1456,399.439,5.0258,0.0024
1484,401.7878,5.025,0.0019
1512,404.1396,5.0238,0.0009
1540,406.4863,5.0231,-0.0005
1568,408.8293,5.0204,-0.0018
1596,411.1718,5.0191,-0.0032
1624,413.5158,5.0179,-0.0046
1652,415.86,5.0151,-0.0052
1680,418.208,5.0154,-0.0063
1708,420.5548,5.0121,-0.0077
1736,422.893,5.0107,-0.0091
1764,425.2288,5.0087,-0.01
1792,427.5556,5.0068,-0.0111
1820,429.8845,5.004,-0.0123
1848,432.2067,5.0126,-0.0108
1876,434.5332,5.0036,-0.0117
1904,436.8648,4.9992,-0.0133
1932,439.1938,4.9938,-0.0151
1960,441.5238,4.9898,-0.0165
1988,443.8515,4.9865,-0.0177
2016,446.1848,4.9831,-0.0189
2044,448.5128,4.9781,-0.0202
2072,450.8445,4.9737,-0.0208
2100,453.1667,4.9742,-0.0216
2128,455.4906,4.9657,-0.0237
2156,457.8193,4.9594,-0.0255
2184,460.1546,4.9527,-0.0265
2212,462.4892,4.9463,-0.0281
2240,464.827,4.9395,-0.0295
2268,467.1588,4.9316,-0.0305
2296,469.4962,4.9247,-0.0317
2324,471.8265,4.9173,-0.0338
2352,474.1567,4.9084,-0.0353
2380,476.4812,4.8999,-0.0371
2408,478.7973,4.8925,-0.0389
2436,481.1148,4.8833,-0.0401
2464,483.4342,4.8727,-0.0417
2492,485.7553,4.8628,-0.0438
2520,488.0819,4.8492,-0.0468
2548,490.4086,4.8416,-0.0479
2576,492.7375,4.8325,-0.0487
2604,495.0627,4.8206,-0.0501
2632,497.3926,4.8094,-0.0517
2660,499.724,4.7918,-0.0539
2688,502.0589,4.7764,-0.0576
2716,504.3956,4.7618,-0.06
2744,506.735,4.7479,-0.0618
2772,509.0708,4.7294,-0.0639
2800,511.406,4.7107,-0.0665
2828,513.7365,4.69,-0.0695
2856,516.0678,4.6674,-0.0725
2884,518.3936,4.6447,-0.0756
2912,520.723,4.6202,-0.0788
2940,523.0508,4.5971,-0.0817
2968,525.3802,4.5724,-0.0843
2996,527.708,4.5468,-0.0862
3024,530.0398,4.5197,-0.0877
3052,532.3756,4.4927,-0.0888
3080,534.7115,4.4644,-0.0894
3108,537.0498,4.4364,-0.0907
3136,539.3814,4.4057,-0.0919
3164,541.705,4.3756,-0.0934
3192,544.0269,4.3446,-0.095
3220,546.3532,4.3136,-0.0957
3248,548.6795,4.2811,-0.0965
3276,551.0137,4.2476,-0.0967
3304,553.3525,4.2113,-0.097
3332,555.689,4.1773,-0.0981
3360,558.0287,4.1424,-0.0997
3388,560.3665,4.1032,-0.1021
3416,562.7008,4.0648,-0.1051
3444,565.0358,4.0238,-0.1087
3472,567.3652,3.9831,-0.1126
3500,569.691,3.9391,-0.117
3528,572.0191,3.8915,-0.1216
3556,574.3486,3.8443,-0.1261
3584,576.677,3.7911,-0.1311
3612,579.0029,3.7389,-0.1368
3640,581.3332,3.6816,-0.1425
3668,583.6625,3.6243,-0.1482
3696,585.9977,3.5632,-0.1534
3724,588.3338,3.5005,-0.1585
3752,590.6738,3.434,-0.163
3780,593.0159,3.3686,-0.167
3808,595.3538,3.2991,-0.1714
3836,597.6858,3.2273,-0.1754
3864,600.0159,3.1548,-0.1791
3892,602.3516,3.0822,-0.1821
3920,604.6818,3.009,-0.1863
3948,607.0129,2.9322,-0.191
3976,609.3432,2.8553,-0.1965
4004,611.672,2.7765,-0.2034
4032,614.0048,2.6962,-0.2107
4060,616.3376,2.611,-0.2197
4088,618.6763,2.5238,-0.2296
4116,621.0059,2.4338,-0.2406
4144,623.3362,2.3374,-0.2503
4172,625.6605,2.24,-0.2597
4200,627.9829,2.1399,-0.2663
4228,630.3142,2.0385,-0.2686
4256,632.65,1.9453,-0.2639
4284,634.9908,1.8296,-0.2575
4312,637.3236,1.7354,-0.2407
4340,639.654,1.6481,-0.2137
4368,641.9839,1.5681,-0.1795
4396,644.3186,1.5056,-0.1379
4424,646.6518,1.458,-0.0966
4452,648.9877,1.4253,-0.0605
4480,651.3278,1.3905,-0.0347
4508,653.6675,1.3785,-0.0199
4536,655.9989,1.3681,-0.0125
4564,658.326,1.3601,-0.0105
4592,660.6498,1.3487,-0.0107
4620,662.9758,1.3405,-0.0111
4648,665.297,1.3323,-0.0118
4676,667.627,1.3211,-0.0122
4704,669.9628,1.3131,-0.0124
4732,672.3028,1.3042,-0.0121
4760,674.6408,1.2968,-0.0124
4788,676.9808,1.2877,-0.0128
4816,679.3132,1.2797,-0.0147
4844,681.642,1.2716,-0.0161
4872,683.9687,1.2629,-0.0178
4900,686.2992,1.2534,-0.0197
4928,688.6303,1.2428,-0.0216
4956,690.9697,1.2357,-0.0228
4984,693.3066,1.2279,-0.0248
5012,695.6413,1.2206,-0.0278
5040,697.969,1.2132,-0.0317
5068,700.2998,1.2046,-0.0352
5096,702.6275,1.1974,-0.0394
5124,704.9577,1.1907,-0.0432
5152,707.2932,1.182,-0.0473
5180,709.6315,1.1758,-0.0515
5208,711.9696,1.1696,-0.0577
5236,714.2982,1.1629,-0.0634
5264,716.628,1.1588,-0.0692
5292,718.9589,1.1515,-0.0746
5320,721.2846,1.1474,-0.0808
5348,723.6065,1.1413,-0.0865
5376,725.9367,1.136,-0.0909
5404,728.2798,1.1309,-0.0949
5432,730.6263,1.128,-0.1
5460,732.9669,1.1246,-0.1058
5488,735.2974,1.1179,-0.113
5516,737.6278,1.1142,-0.1192
5544,739.9578,1.1105,-0.1252
5572,742.2878,1.1062,-0.1306
5600,744.6195,1.1029,-0.1366
5628,746.9479,1.0991,-0.1418
5656,749.2823,1.0947,-0.147
5684,751.6203,1.0921,-0.1528
5712,753.9529,1.0878,-0.158
5740,756.2895,1.0834,-0.1637
5768,758.628,1.082,-0.169
5796,760.9609,1.0777,-0.1759
5824,763.292,1.0746,-0.1815
5852,765.6278,1.0716,-0.1871
5880,767.9619,1.0716,-0.1937
5908,770.2953,1.0676,-0.2002
5936,772.6288,1.0639,-0.2056
5964,774.9706,1.0612,-0.2114
5992,777.3024,1.0596,-0.2187
6020,779.6348,1.0559,-0.2253
6048,781.961,1.0545,-0.2322
6076,784.2908,1.0505,-0.2384
6104,786.6323,1.0505,-0.2434
6132,788.9768,1.0468,-0.2486
6160,791.3202,1.0455,-0.2557
6188,793.656,1.0431,-0.263
6216,795.984,1.0404,-0.2711
6244,798.3112,1.0378,-0.2777
6272,800.6475,1.0351,-0.2828
6300,802.9817,1.0314,-0.2925
6328,805.3142,1.0284,-0.3021
6356,807.6533,1.0273,-0.3071
6384,809.9959,1.027,-0.3127
6412,812.3414,1.0236,-0.3197
6440,814.6715,1.0213,-0.3292
6468,816.9902,1.0197,-0.3374
6496,819.317,1.0168,-0.3443
6524,821.644,1.016,-0.3506
6552,823.9729,1.0136,-0.3581
6580,826.3102,1.0116,-0.3644
6608,828.6488,1.0089,-0.3724
6636,830.9869,1.0079,-0.3806
6664,833.3142,1.0052,-0.39
6692,835.6438,1.0039,-0.3983
6720,837.9728,1.0022,-0.4065
6748,840.306,1.0007,-0.4136
6776,842.6463,0.9992,-0.4243
6804,844.9818,0.9982,-0.4395
6832,847.3132,0.9964,-0.4502
6860,849.6415,0.9942,-0.4586
6888,851.9659,0.9932,-0.4665
6916,854.2972,0.9911,-0.4728
6944,856.6278,0.9895,-0.4788
6972,858.9658,0.9878,-0.4852
7000,861.3062,0.9878,-0.4915
7028,863.6488,0.9865,-0.4979
7056,865.9931,0.9841,-0.5057
7084,868.3272,0.9814,-0.5148
7112,870.6575,0.9814,-0.5227
7140,872.9807,0.9801,-0.5379
7168,875.3076,0.9787,-0.5452
7196,877.6415,0.9764,-0.5469
7224,879.974,0.9758,-0.5484
7252,882.3142,0.974,-0.5513
7280,884.645,0.973,-0.5557
7308,886.978,0.97,-0.5578
7336,889.3082,0.971,-0.5614
7364,891.6343,0.9677,-0.5699
7392,893.9677,0.9663,-0.5715
7420,896.3119,0.965,-0.5706
7448,898.654,0.9633,-0.5707
7476,900.9799,0.9633,-0.5694
7504,903.3042,0.9626,-0.56
7532,905.636,0.9617,-0.5495
7560,907.9786,0.9601,-0.543
7588,910.3168,0.9595,-0.5378
7616,912.6513,0.9588,-0.5313
7644,914.9858,0.9572,-0.5242
7672,917.3154,0.9558,-0.5175
7700,919.6438,0.9545,-0.5095
7728,921.9739,0.9531,-0.5016
7756,924.3083,0.9527,-0.4919
7784,926.6473,0.9501,-0.4818
7812,928.987,0.9484,-0.4709
7840,931.3262,0.9481,-0.4626
7868,933.659,0.9481,-0.4512
7896,935.994,0.9468,-0.4403
7924,938.3218,0.9461,-0.431
7952,940.6363,0.9454,-0.4186
7980,942.958,0.9441,-0.405
8008,945.3022,0.9437,-0.3888
8036,947.6563,0.9421,-0.3748
8064,949.9999,0.9417,-0.363
8092,952.3316,0.9411,-0.3515
8120,954.6543,0.9411,-0.3394
8148,956.9728,0.9397,-0.3242
8176,959.3072,0.9397,-0.3079
8204,961.65,0.9394,-0.2912
8232,963.9959,0.9387,-0.2774
8260,966.3346,0.9367,-0.263
8288,968.675,0.937,-0.2486
8316,971.0108,0.936,-0.2348
8343,973.203,0.9347,-0.2228