File: Wood/Calibration_Data/TIFP+UCT/TIFP+UCT_STA_N2_20K_R2.csv
Time (s),Temperature (K),Mass (mg),Heat Flow Rate (W/g)
0,303.147,5.112,-0.0015
8,303.149,5.1104,-0.0014
16,303.148,5.1118,-0.0013
24,303.152,5.1113,-0.0013
32,303.1533,5.1108,-0.0013
40,303.1583,5.1101,-0.0013
48,303.161,5.1094,-0.0015
56,303.164,5.1107,-0.0014
64,303.1647,5.1103,-0.0017
72,303.167,5.1093,-0.0015
80,303.1707,5.109,-0.0018
88,303.1697,5.1086,-0.0018
96,303.173,5.1088,-0.0017
104,303.173,5.1079,-0.002
112,303.1747,5.1102,-0.0019
120,303.176,5.109,-0.0021
128,303.175,5.1083,-0.0017
136,303.1753,5.1089,-0.0019
144,303.175,5.109,-0.0018
152,303.1763,5.109,-0.0016
160,303.1723,5.1081,-0.0017
168,303.173,5.109,-0.0015
176,303.1733,5.1076,-0.0015
184,303.1707,5.1085,-0.0013
192,303.169,5.1083,-0.0011
200,303.1667,5.1085,-0.0013
208,303.1663,5.109,-0.0015
216,303.162,5.1075,-0.0011
224,303.1627,5.1076,-0.0012
232,303.1647,5.1072,-0.0014
240,303.161,5.1077,-0.0015
248,303.1607,5.1072,-0.0015
256,303.1623,5.1059,-0.0012
264,303.161,5.106,-0.0016
272,303.1637,5.1063,-0.0015
280,303.1607,5.1064,-0.0015
288,303.162,5.1063,-0.0015
296,303.1607,5.1051,-0.0016
304,303.1605,5.105,-0.0017
312,303.1758,5.1049,-0.0021
320,303.253,5.1063,-0.0031
328,303.4577,5.1049,-0.0064
336,303.8598,5.1066,-0.0146
344,304.519,5.1051,-0.0289
352,305.4949,5.1062,-0.051
360,306.829,5.1055,-0.0797
368,308.5605,5.1066,-0.1146
376,310.6939,5.1033,-0.1528
384,313.2311,5.1049,-0.1939
392,316.1381,5.1048,-0.2354
400,319.3834,5.1047,-0.2769
408,322.9163,5.1048,-0.3159
416,326.6746,5.1045,-0.3507
424,330.6104,5.1035,-0.3808
432,334.6646,5.1038,-0.4046
440,338.7836,5.1021,-0.4227
448,342.9171,5.1036,-0.4355
456,347.0264,5.1018,-0.4443
464,351.0756,5.0994,-0.4502
472,355.0336,5.0991,-0.4529
480,358.8819,5.0979,-0.4509
488,362.6051,5.0954,-0.4434
496,366.1936,5.094,-0.4296
504,369.6478,5.092,-0.4097
512,372.9681,5.0897,-0.3844
520,376.1634,5.089,-0.3557
528,379.2422,5.0875,-0.3241
536,382.2121,5.0861,-0.2927
544,385.0921,5.0861,-0.2624
552,387.8907,5.0848,-0.2355
560,390.6276,5.0847,-0.2114
568,393.3119,5.0847,-0.1905
576,395.9572,5.0847,-0.1728
584,398.5721,5.0844,-0.1579
592,401.1709,5.0831,-0.1451
600,403.7656,5.0834,-0.1343
608,406.3591,5.0821,-0.1253
616,408.9559,5.0817,-0.1178
624,411.5632,5.0817,-0.1111
632,414.1856,5.082,-0.1047
640,416.8237,5.0808,-0.0998
648,419.4776,5.0797,-0.0962
656,422.1481,5.0784,-0.0929
664,424.8316,5.077,-0.091
672,427.5281,5.077,-0.0902
680,430.2351,5.0757,-0.0884
688,432.9497,5.0757,-0.087
696,435.6672,5.0734,-0.0851
704,438.3861,5.0717,-0.0833
712,441.1042,5.0703,-0.0808
720,443.8204,5.0703,-0.0777
728,446.5286,5.0676,-0.0743
736,449.2307,5.0649,-0.0706
744,451.9259,5.0649,-0.0677
752,454.6126,5.0623,-0.0644
760,457.2887,5.0596,-0.0632
768,459.9564,5.0566,-0.0677
776,462.6161,5.0542,-0.0601
784,465.2687,5.0497,-0.0517
792,467.9126,5.0448,-0.0446
800,470.5496,5.0407,-0.0395
808,473.1839,5.0365,-0.0342
816,475.8142,5.0295,-0.0294
824,478.4396,5.0237,-0.0249
832,481.0624,5.0164,-0.0202
840,483.6897,5.0107,-0.0149
848,486.3156,5.003,-0.0102
856,488.9426,4.9947,-0.0049
864,491.5724,4.9861,0.001
872,494.2056,4.9772,0.0072
880,496.8417,4.9681,0.0137
888,499.4797,4.9594,0.0206
896,502.1211,4.9485,0.0278
904,504.7684,4.9377,0.0346
912,507.4194,4.9278,0.0415
920,510.0721,4.9154,0.0479
928,512.7266,4.9022,0.0542
936,515.3827,4.8897,0.0602
944,518.0441,4.8758,0.0652
952,520.7026,4.862,0.0696
960,523.3637,4.8441,0.0737
968,526.0266,4.8277,0.0763
976,528.6896,4.8088,0.079
984,531.3507,4.7907,0.0809
992,534.0131,4.7703,0.082
1000,536.6729,4.7475,0.0828
1008,539.3362,4.7254,0.0831
1016,541.9976,4.7012,0.0824
1024,544.6571,4.6752,0.0807
1032,547.3161,4.6488,0.0779
1040,549.9736,4.6207,0.0754
1048,552.6299,4.5918,0.0729
1056,555.2866,4.5616,0.0704
1064,557.9406,4.529,0.0676
1072,560.5929,4.4954,0.0658
1080,563.2464,4.46,0.0639
1088,565.9031,4.4249,0.0628
1096,568.5571,4.3885,0.0619
1104,571.2127,4.3504,0.062
1112,573.8721,4.3125,0.0625
1120,576.5294,4.2738,0.0632
1128,579.1886,4.2317,0.0641
1136,581.8476,4.1906,0.0639
1144,584.5076,4.1471,0.0639
1152,587.1707,4.1035,0.062
1160,589.8366,4.0576,0.0585
1168,592.4999,4.0091,0.0529
1176,595.1646,3.9581,0.0448
1184,597.8331,3.9057,0.0343
1192,600.4977,3.8504,0.0216
1200,603.1604,3.7917,0.007
1208,605.8246,3.731,-0.0094
1216,608.4879,3.6673,-0.0275
1224,611.1522,3.6003,-0.0454
1232,613.8126,3.5317,-0.0631
1240,616.4732,3.4603,-0.081
1248,619.1349,3.3871,-0.0978
1256,621.7941,3.3122,-0.1136
1264,624.4537,3.2349,-0.1291
1272,627.1111,3.1562,-0.1452
1280,629.7686,3.0769,-0.163
1288,632.4262,2.9971,-0.183
1296,635.0812,2.9144,-0.2081
1304,637.7361,2.8291,-0.2374
1312,640.3899,2.7416,-0.2727
1320,643.0459,2.6509,-0.314
1328,645.7011,2.5589,-0.3609
1336,648.3564,2.4595,-0.4129
1344,651.0124,2.3577,-0.4663
1352,653.6661,2.2529,-0.5189
1360,656.3186,2.144,-0.567
1368,658.9737,2.0337,-0.6031
1376,661.6291,1.9247,-0.619
1384,664.2826,1.818,-0.6086
1392,666.9411,1.7199,-0.5652
1400,669.5991,1.6307,-0.4859
1408,672.2601,1.5571,-0.3747
1416,674.9244,1.4986,-0.2445
1424,677.5901,1.4558,-0.112
1432,680.2586,1.4286,0.0029
1440,682.9267,1.4065,0.0898
1448,685.5976,1.3921,0.1479
1456,688.2664,1.3806,0.1836
1464,690.9316,1.3694,0.2046
1472,693.5986,1.3589,0.2177
1480,696.2629,1.3482,0.2257
1488,698.9256,1.3384,0.2324
1496,701.5876,1.3284,0.2381
1504,704.2467,1.3172,0.2437
1512,706.9067,1.3092,0.2474
1520,709.5646,1.2998,0.2494
1528,712.2234,1.291,0.2505
1536,714.8806,1.2814,0.2511
1544,717.5406,1.2734,0.2498
1552,720.1996,1.2659,0.2477
1560,722.8587,1.2564,0.2447
1568,725.5211,1.2494,0.2402
1576,728.1807,1.2405,0.235
1584,730.8416,1.2346,0.2291
1592,733.5031,1.2271,0.2224
1600,736.1666,1.2187,0.2152
1608,738.8294,1.2123,0.2075
1616,741.4881,1.2046,0.1994
1624,744.1467,1.1986,0.1915
1632,746.8086,1.1927,0.1827
1640,749.4706,1.1881,0.1714
1648,752.1307,1.1816,0.1607
1656,754.7952,1.1763,0.1502
1664,757.4576,1.1696,0.1403
1672,760.1219,1.1654,0.1318
1680,762.7859,1.1628,0.1228
1688,765.4486,1.1584,0.1146
1696,768.1144,1.1541,0.1087
1704,770.7802,1.1501,0.1038
1712,773.4471,1.1472,0.098
1720,776.1147,1.1416,0.0927
1728,778.7827,1.1366,0.0867
1736,781.4536,1.1345,0.0814
1744,784.1266,1.1318,0.0763
1752,786.7987,1.1264,0.07
1760,789.4741,1.1235,0.0634
1768,792.1491,1.1207,0.0556
1776,794.8253,1.1182,0.0489
1784,797.4976,1.1145,0.0426
1792,800.1725,1.1101,0.0388
1800,802.8462,1.1088,0.0364
1808,805.5201,1.1061,0.0342
1816,808.1937,1.1021,0.0318
1824,810.8676,1.0994,0.0276
1832,813.5411,1.0953,0.0177
1840,816.2162,1.0927,0.0062
1848,818.892,1.0904,-0.0055
1856,821.5661,1.0875,-0.0151
1864,824.2355,1.0855,-0.024
1872,826.9074,1.0819,-0.0312
1880,829.5796,1.0792,-0.0387
1888,832.2517,1.0772,-0.0491
1896,834.9239,1.0759,-0.0608
1904,837.5885,1.0719,-0.073
1912,840.2485,1.0704,-0.0845
1920,842.8996,1.0678,-0.0965
1928,845.5481,1.0652,-0.1102
1936,848.1929,1.063,-0.1358
1944,850.8437,1.0598,-0.1671
1952,853.4931,1.0579,-0.1976
1960,856.1456,1.0571,-0.2262
1968,858.7959,1.0544,-0.2548
1976,861.4516,1.0531,-0.2832
1984,864.1064,1.0493,-0.3113
1992,866.7616,1.0464,-0.339
2000,869.4231,1.0464,-0.3653
2008,872.0826,1.044,-0.3897
2016,874.7432,1.0414,-0.4149
2024,877.4031,1.04,-0.4366
2032,880.0649,1.04,-0.4454
2040,882.7264,1.0361,-0.4137
2048,885.3911,1.0346,-0.3593
2056,888.0584,1.0333,-0.3079
2064,890.7197,1.032,-0.2718
2072,893.3811,1.0301,-0.2483
2080,896.0425,1.0269,-0.2335
2088,898.7045,1.0253,-0.228
2096,901.3706,1.0239,-0.2298
2104,904.0399,1.0226,-0.2341
2112,906.7104,1.02,-0.2397
2120,909.3846,1.0172,-0.2474
2128,912.0586,1.0151,-0.2548
2136,914.7316,1.0145,-0.2664
2144,917.4006,1.0132,-0.2785
2152,920.0718,1.0118,-0.2889
2160,922.7427,1.0094,-0.2993
2168,925.41,1.0092,-0.309
2176,928.0806,1.0078,-0.3171
2184,930.7498,1.0065,-0.3255
2192,933.423,1.0051,-0.334
2200,936.0928,1.0024,-0.3413
2208,938.7632,1.0018,-0.3497
2216,941.432,1.0024,-0.3629
2224,944.1037,0.9994,-0.3777
2232,946.7744,0.9981,-0.3902
2240,949.4496,0.9981,-0.3994
2248,952.1224,0.9967,-0.4079
2256,954.7954,0.9951,-0.4157
2264,957.4706,0.9954,-0.4241
2272,960.1441,0.9941,-0.4348
2280,962.8164,0.9927,-0.4462
2288,965.4896,0.9921,-0.4606
2296,968.1595,0.9894,-0.4788
2304,970.8324,0.9895,-0.495
2312,973.5033,0.9894,-0.5104
2320,976.1187,0.988,-0.5451
2328,978.4664,0.9854,-0.6406
2336,980.3904,0.9853,-0.811
2344,981.8338,0.984,-1.0445
2352,982.7794,0.985,-1.3197
2357,983.113,0.985,-1.4982