File: Wood/Calibration_Data/TIFP+UCT/TIFP+UCT_Wood_STA_N2_10K_R2.csv
Time (s),Temperature (K),Mass (mg),Heat Flow Rate (W/g)
0,303.151,4.9516,0.004
15,303.152,4.9529,0.0041
30,303.155,4.953,0.0041
45,303.159,4.9534,0.0039
60,303.164,4.9553,0.0038
75,303.1685,4.9541,0.0034
90,303.17,4.9517,0.0036
105,303.174,4.952,0.0035
120,303.172,4.9534,0.0035
135,303.1725,4.9547,0.0033
150,303.171,4.9534,0.0031
165,303.1685,4.9535,0.0032
180,303.166,4.9546,0.003
195,303.1655,4.9549,0.003
210,303.164,4.9549,0.0031
225,303.1605,4.9556,0.0029
240,303.158,4.9543,0.0029
255,303.1595,4.9556,0.0029
270,303.157,4.9549,0.003
285,303.157,4.9564,0.0031
300,303.158,4.955,0.003
315,303.171,4.9563,0.0027
330,303.344,4.9545,0.0017
345,303.872,4.9535,-0.0004
360,304.921,4.9553,-0.002
375,306.593,4.9541,-0.0018
390,308.924,4.954,-0.0011
405,311.846,4.9532,-0.0005
420,315.225,4.9545,0.0012
435,318.905,4.9534,0.0027
450,322.706,4.952,0.0037
465,326.494,4.9523,0.0055
480,330.155,4.9524,0.0075
495,333.621,4.9514,0.0089
510,336.861,4.9504,0.0105
525,339.881,4.949,0.0124
540,342.705,4.9474,0.0145
555,345.382,4.9463,0.0161
570,347.939,4.945,0.0163
585,350.434,4.9443,0.0144
600,352.895,4.9417,0.0115
615,355.346,4.9403,0.0066
630,357.813,4.9403,0.0009
645,360.294,4.9387,-0.0064
660,362.799,4.9388,-0.0139
675,365.324,4.9374,-0.0221
690,367.862,4.9374,-0.0304
705,370.405,4.9361,-0.0377
720,372.948,4.9361,-0.0445
735,375.486,4.9334,-0.0504
750,378.013,4.9337,-0.0557
765,380.534,4.9352,-0.0598
780,383.041,4.9352,-0.0635
795,385.545,4.9353,-0.0664
810,388.046,4.9339,-0.069
825,390.544,4.9336,-0.0708
840,393.047,4.9339,-0.0722
855,395.551,4.9349,-0.0742
870,398.063,4.9339,-0.0753
885,400.579,4.9326,-0.0764
900,403.103,4.9326,-0.0777
915,405.633,4.9299,-0.0781
930,408.165,4.9309,-0.0783
945,410.702,4.9313,-0.0782
960,413.236,4.9312,-0.0785
975,415.771,4.9287,-0.0773
990,418.302,4.9287,-0.0739
1005,420.827,4.9287,-0.0709
1020,423.348,4.9287,-0.0688
1035,425.858,4.926,-0.0665
1050,428.363,4.926,-0.0647
1065,430.855,4.926,-0.0627
1080,433.353,4.9247,-0.0604
1095,435.844,4.922,-0.058
1110,438.332,4.9233,-0.0562
1125,440.822,4.9193,-0.0544
1140,443.309,4.9186,-0.0528
1155,445.798,4.9139,-0.0505
1170,448.285,4.9112,-0.0484
1185,450.777,4.9082,-0.0455
1200,453.267,4.9072,-0.0431
1215,455.76,4.9019,-0.04
1230,458.252,4.8965,-0.0332
1245,460.748,4.8925,-0.0294
1260,463.242,4.8884,-0.0321
1275,465.73,4.8831,-0.0316
1290,468.222,4.8791,-0.0305
1305,470.712,4.8723,-0.0278
1320,473.203,4.8655,-0.0251
1335,475.694,4.8543,-0.0224
1350,478.186,4.8486,-0.0195
1365,480.681,4.8412,-0.0167
1380,483.172,4.8289,-0.0148
1395,485.664,4.8207,-0.0131
1410,488.159,4.8104,-0.0116
1425,490.652,4.7997,-0.0096
1440,493.148,4.7914,-0.0056
1455,495.639,4.7804,-0.0015
1470,498.13,4.7679,0.0007
1485,500.617,4.758,0.0031
1500,503.109,4.7457,0.005
1515,505.598,4.732,0.0057
1530,508.086,4.7194,0.0065
1545,510.575,4.7061,0.0083
1560,513.064,4.6917,0.0105
1575,515.551,4.6747,0.0128
1590,518.043,4.6529,0.0164
1605,520.536,4.6348,0.0197
1620,523.027,4.6213,0.022
1635,525.52,4.5986,0.0245
1650,528.009,4.5757,0.0277
1665,530.505,4.5524,0.031
1680,533,4.5318,0.0342
1695,535.497,4.5054,0.0378
1710,537.995,4.4803,0.0413
1725,540.497,4.448,0.0454
1740,542.997,4.4219,0.0486
1755,545.5,4.39,0.0511
1770,547.998,4.3625,0.0525
1785,550.5,4.3299,0.0537
1800,552.995,4.3001,0.0545
1815,555.494,4.2673,0.0549
1830,557.991,4.2343,0.0555
1845,560.492,4.1977,0.057
1860,562.994,4.166,0.0574
1875,565.494,4.1287,0.0585
1890,567.99,4.0944,0.0596
1905,570.486,4.0558,0.0619
1920,572.982,4.0167,0.0649
1935,575.476,3.9773,0.0681
1950,577.972,3.9333,0.0718
1965,580.47,3.8925,0.0756
1980,582.966,3.8432,0.0825
1995,585.465,3.7948,0.0891
2010,587.966,3.7431,0.0975
2025,590.462,3.6899,0.1068
2040,592.961,3.6366,0.1162
2055,595.462,3.5747,0.1268
2070,597.958,3.5143,0.1374
2085,600.454,3.4497,0.1478
2100,602.948,3.3849,0.1582
2115,605.444,3.3162,0.1679
2130,607.943,3.2454,0.1772
2145,610.435,3.1786,0.1852
2160,612.93,3.1031,0.1939
2175,615.424,3.0273,0.2024
2190,617.917,2.9562,0.2101
2205,620.413,2.878,0.219
2220,622.912,2.7992,0.2293
2235,625.411,2.7187,0.2416
2250,627.909,2.6377,0.2553
2265,630.405,2.5489,0.274
2280,632.898,2.4617,0.2935
2295,635.398,2.3646,0.315
2310,637.898,2.2677,0.3369
2325,640.397,2.1653,0.3571
2340,642.898,2.0629,0.373
2355,645.396,1.9602,0.3779
2370,647.893,1.86,0.3695
2385,650.388,1.7624,0.344
2400,652.883,1.6702,0.2987
2415,655.378,1.5914,0.2343
2430,657.878,1.5264,0.1546
2445,660.373,1.4779,0.07
2460,662.875,1.4422,-0.0085
2475,665.382,1.4177,-0.0705
2490,667.882,1.4024,-0.1113
2505,670.388,1.3893,-0.135
2520,672.892,1.3786,-0.1468
2535,675.391,1.3689,-0.1541
2550,677.892,1.3604,-0.1585
2565,680.387,1.3537,-0.1622
2580,682.882,1.3438,-0.1644
2595,685.377,1.3334,-0.1662
2610,687.875,1.3236,-0.1676
2625,690.369,1.3158,-0.169
2640,692.862,1.3075,-0.1702
2655,695.359,1.3005,-0.1716
2670,697.854,1.2933,-0.1732
2685,700.354,1.2832,-0.1745
2700,702.85,1.2758,-0.1759
2715,705.349,1.2686,-0.1776
2730,707.847,1.2615,-0.1776
2745,710.346,1.254,-0.1775
2760,712.845,1.2466,-0.1765
2775,715.348,1.238,-0.1756
2790,717.847,1.2307,-0.1737
2805,720.345,1.2267,-0.172
2820,722.84,1.2199,-0.1699
2835,725.336,1.2117,-0.1664
2850,727.828,1.2065,-0.1629
2865,730.323,1.1983,-0.1589
2880,732.821,1.1943,-0.155
2895,735.319,1.1899,-0.1516
2910,737.816,1.1844,-0.1484
2925,740.316,1.1793,-0.1451
2940,742.814,1.1738,-0.1082
2955,745.307,1.1701,-0.111
2970,747.8,1.1674,-0.1107
2985,750.296,1.1634,-0.1097
3000,752.796,1.1594,-0.1087
3015,755.298,1.154,-0.1079
3030,757.796,1.1512,-0.107
3045,760.299,1.1482,-0.1062
3060,762.804,1.1428,-0.105
3075,765.314,1.1402,-0.1047
3090,767.823,1.1371,-0.1031
3105,770.328,1.1331,-0.1022
3120,772.828,1.1294,-0.1008
3135,775.326,1.1264,-0.1005
3150,777.824,1.1258,-0.101
3165,780.321,1.1218,-0.1016
3180,782.824,1.1191,-0.1017
3195,785.332,1.1178,-0.1
3210,787.832,1.1155,-0.099
3225,790.338,1.1101,-0.0986
3240,792.843,1.1084,-0.0989
3255,795.351,1.1061,-0.0985
3270,797.862,1.1034,-0.0977
3285,800.37,1.0997,-0.0965
3300,802.875,1.0997,-0.096
3315,805.381,1.0957,-0.0942
3330,807.887,1.0943,-0.0924
3345,810.388,1.0923,-0.091
3360,812.893,1.0896,-0.0887
3375,815.393,1.0893,-0.0878
3390,817.895,1.0853,-0.0854
3405,820.397,1.0835,-0.0937
3420,822.898,1.0821,-0.1182
3435,825.405,1.0778,-0.1223
3450,827.91,1.0761,-0.116
3465,830.409,1.0748,-0.1098
3480,832.904,1.0707,-0.1058
3495,835.401,1.0714,-0.1027
3510,837.893,1.0684,-0.0994
3525,840.383,1.0656,-0.0967
3540,842.874,1.0629,-0.0947
3555,845.368,1.0643,-0.0944
3570,847.862,1.0616,-0.0938
3585,850.358,1.0596,-0.0845
3600,852.855,1.0564,-0.0801
3615,855.356,1.0547,-0.0739
3630,857.86,1.0511,-0.0683
3645,860.362,1.049,-0.0621
3660,862.856,1.0488,-0.0593
3675,865.34,1.0475,-0.0587
3690,867.82,1.0468,-0.0539
3705,870.308,1.0461,-0.0475
3720,872.8,1.0418,-0.0458
3735,875.306,1.0378,-0.0375
3750,877.814,1.0388,-0.0279
3765,880.323,1.0374,-0.0234
3780,882.834,1.0374,-0.022
3795,885.347,1.0344,-0.02
3810,887.86,1.0321,-0.0175
3825,890.367,1.0304,-0.0055
3840,892.865,1.029,0.0046
3855,895.365,1.0277,0.0046
3870,897.864,1.0305,0.0039
3885,900.369,1.0265,0.0044
3900,902.87,1.0246,0.0094
3915,905.366,1.0219,0.0232
3930,907.862,1.0222,0.0331
3945,910.36,1.0239,0.032
3960,912.863,1.0203,0.0221
3975,915.367,1.0148,0.0147
3990,917.868,1.0152,0.0108
4005,920.365,1.0195,0.0098
4020,922.867,1.0147,0.0099
4035,925.366,1.0137,0.0153
4050,927.869,1.0124,0.0288
4065,930.368,1.0124,0.034
4080,932.87,1.011,0.0304
4095,935.369,1.0097,0.0257
4110,937.873,1.0097,0.0224
4125,940.369,1.01,0.0199
4140,942.869,1.01,0.0177
4155,945.373,1.0074,0.0149
4170,947.88,1.008,0.0128
4185,950.384,1.0074,0.0086
4200,952.887,1.0033,0.0068
4215,955.39,1.0047,0.0072
4230,957.878,1.0037,0.0063
4245,960.369,1.005,0.0026
4260,962.863,1.0037,-0.0014
4275,965.362,0.9996,-0.0055
4290,967.866,1.0001,-0.0088
4305,970.373,0.9998,-0.0104
4320,972.879,0.9998,-0.0128
4323,973.277,0.9998,0