File: Wood/Calibration_Data/TIFP+UCT/TIFP+UCT_STA_N2_20K_R1.csv
Time (s),Temperature (K),Mass (mg),Heat Flow Rate (W/g)
0,303.147,5.0232,-0.0036
8,303.148,5.0226,-0.0035
16,303.1497,5.0236,-0.0035
24,303.153,5.0233,-0.0034
32,303.156,5.0238,-0.0034
40,303.1563,5.0229,-0.0035
48,303.16,5.0217,-0.0034
56,303.1643,5.0234,-0.0033
64,303.1647,5.023,-0.0036
72,303.17,5.022,-0.0033
80,303.1683,5.0231,-0.0034
88,303.168,5.0226,-0.0034
96,303.173,5.023,-0.0036
104,303.1737,5.0216,-0.0035
112,303.1723,5.0242,-0.0033
120,303.174,5.023,-0.0035
128,303.1747,5.0231,-0.0033
136,303.1723,5.023,-0.0032
144,303.173,5.0231,-0.0032
152,303.173,5.0229,-0.0028
160,303.1723,5.0239,-0.0028
168,303.171,5.0232,-0.0026
176,303.1703,5.0214,-0.0026
184,303.1683,5.023,-0.0022
192,303.17,5.0226,-0.0023
200,303.168,5.022,-0.0023
208,303.166,5.0233,-0.0023
216,303.166,5.0232,-0.0022
224,303.1633,5.0228,-0.0022
232,303.1627,5.0217,-0.0023
240,303.161,5.0233,-0.0022
248,303.16,5.0229,-0.0024
256,303.1617,5.0216,-0.0024
264,303.16,5.022,-0.0026
272,303.1593,5.0233,-0.0025
280,303.1603,5.0219,-0.0025
288,303.158,5.022,-0.0025
296,303.16,5.021,-0.0027
304,303.1567,5.0206,-0.0025
312,303.171,5.0202,-0.0038
320,303.247,5.0207,-0.0101
328,303.4523,5.02,-0.0242
336,303.851,5.022,-0.0485
344,304.514,5.0195,-0.0825
352,305.4873,5.0205,-0.1271
360,306.83,5.0215,-0.1806
368,308.5587,5.02,-0.2419
376,310.698,5.0207,-0.3079
384,313.233,5.0199,-0.3767
392,316.1457,5.0196,-0.4456
400,319.3897,5.0194,-0.5122
408,322.917,5.021,-0.5742
416,326.6753,5.0208,-0.6286
424,330.6087,5.0201,-0.6742
432,334.655,5.0203,-0.7104
440,338.7673,5.0182,-0.7365
448,342.898,5.0189,-0.7547
456,347.0,5.0181,-0.7656
464,351.0433,5.0161,-0.7708
472,354.997,5.0155,-0.77
480,358.839,5.0145,-0.7628
488,362.5623,5.013,-0.7491
496,366.1477,5.0112,-0.7283
504,369.603,5.0092,-0.7006
512,372.9257,5.0085,-0.6677
520,376.122,5.0067,-0.6312
528,379.198,5.005,-0.5929
536,382.173,5.0036,-0.5554
544,385.057,5.005,-0.5197
552,387.863,5.0039,-0.4888
560,390.6043,5.0039,-0.4612
568,393.2953,5.0036,-0.4382
576,395.944,5.0025,-0.4192
584,398.5697,5.0022,-0.4043
592,401.178,5.0022,-0.3926
600,403.779,5.0025,-0.3834
608,406.379,5.0013,-0.3768
616,408.983,4.9995,-0.372
624,411.595,4.9995,-0.3683
632,414.2223,4.9995,-0.3656
640,416.8637,4.9995,-0.3637
648,419.517,4.9968,-0.363
656,422.1903,4.9955,-0.3625
664,424.8743,4.9941,-0.3634
672,427.569,4.9951,-0.3646
680,430.2727,4.9941,-0.3651
688,432.9877,4.9928,-0.3657
696,435.7,4.9914,-0.3648
704,438.414,4.9901,-0.3638
712,441.1297,4.9888,-0.362
720,443.839,4.9874,-0.36
728,446.5433,4.9847,-0.357
736,449.2403,4.9847,-0.3544
744,451.928,4.9847,-0.3517
752,454.6093,4.9807,-0.3488
760,457.2843,4.978,-0.3475
768,459.946,4.975,-0.3522
776,462.6057,4.9727,-0.3439
784,465.2557,4.9686,-0.3363
792,467.902,4.966,-0.331
800,470.5393,4.9633,-0.3259
808,473.1743,4.9579,-0.3219
816,475.805,4.9524,-0.3182
824,478.435,4.9465,-0.3148
832,481.0643,4.9392,-0.3125
840,483.691,4.9333,-0.3094
848,486.3213,4.9276,-0.3067
856,488.9523,4.9212,-0.3032
864,491.585,4.9127,-0.2994
872,494.2213,4.9035,-0.2951
880,496.8583,4.8953,-0.29
888,499.501,4.8865,-0.2849
896,502.1453,4.8772,-0.2796
904,504.7953,4.8678,-0.2744
912,507.443,4.8584,-0.2691
920,510.0997,4.8465,-0.2643
928,512.7553,4.8345,-0.2594
936,515.411,4.8228,-0.2555
944,518.0713,4.8107,-0.2524
952,520.7323,4.7977,-0.2496
960,523.394,4.7817,-0.2472
968,526.0557,4.7653,-0.2458
976,528.7197,4.7482,-0.2448
984,531.38,4.7311,-0.2443
992,534.044,4.71,-0.2439
1000,536.7033,4.6897,-0.2446
1008,539.365,4.6683,-0.2452
1016,542.0223,4.6463,-0.2472
1024,544.679,4.6216,-0.2497
1032,547.334,4.5972,-0.2533
1040,549.9907,4.5695,-0.2571
1048,552.6447,4.5417,-0.2609
1056,555.3,4.513,-0.2649
1064,557.9523,4.4819,-0.2682
1072,560.6063,4.4512,-0.2719
1080,563.259,4.4183,-0.2746
1088,565.9143,4.3853,-0.2774
1096,568.5713,4.3503,-0.2801
1104,571.223,4.3146,-0.2817
1112,573.8797,4.2784,-0.284
1120,576.5393,4.242,-0.2864
1128,579.194,4.2029,-0.2893
1136,581.8537,4.1619,-0.2931
1144,584.5153,4.1202,-0.2974
1152,587.178,4.0787,-0.3034
1160,589.8437,4.0343,-0.3113
1168,592.5073,3.9862,-0.3213
1176,595.174,3.9363,-0.3338
1184,597.8373,3.8837,-0.3489
1192,600.503,3.8297,-0.3662
1200,603.165,3.7728,-0.3847
1208,605.831,3.712,-0.4054
1216,608.4927,3.6494,-0.4271
1224,611.155,3.5858,-0.4493
1232,613.8173,3.5159,-0.4715
1240,616.4817,3.4462,-0.4933
1248,619.141,3.3738,-0.514
1256,621.8053,3.2997,-0.5342
1264,624.464,3.2235,-0.5532
1272,627.125,3.1469,-0.5726
1280,629.7847,3.0685,-0.5933
1288,632.445,2.99,-0.6165
1296,635.101,2.9079,-0.6433
1304,637.7573,2.8229,-0.6748
1312,640.4157,2.7368,-0.7123
1320,643.07,2.6474,-0.7541
1328,645.7233,2.5552,-0.8012
1336,648.3737,2.4559,-0.8527
1344,651.027,2.3561,-0.9036
1352,653.6803,2.2508,-0.953
1360,656.332,2.1422,-0.997
1368,658.989,2.0332,-1.0288
1376,661.6423,1.9225,-1.0436
1384,664.2983,1.8168,-1.0322
1392,666.954,1.7174,-0.9876
1400,669.6123,1.6267,-0.9078
1408,672.2767,1.5517,-0.7952
1416,674.937,1.4931,-0.6617
1424,677.6023,1.4476,-0.5251
1432,680.274,1.4186,-0.4048
1440,682.945,1.3962,-0.3126
1448,685.615,1.3802,-0.2505
1456,688.2837,1.3688,-0.2125
1464,690.953,1.3573,-0.1901
1472,693.6193,1.3488,-0.1773
1480,696.284,1.3371,-0.1702
1488,698.949,1.3272,-0.1662
1496,701.612,1.3181,-0.1643
1504,704.2763,1.3089,-0.1622
1512,706.938,1.3004,-0.161
1520,709.5973,1.2894,-0.1617
1528,712.2583,1.2818,-0.1627
1536,714.919,1.2728,-0.1644
1544,717.5803,1.2647,-0.1679
1552,720.2383,1.256,-0.1733
1560,722.898,1.2467,-0.1796
1568,725.556,1.2411,-0.1865
1576,728.2113,1.2326,-0.1948
1584,730.87,1.2266,-0.2043
1592,733.5267,1.2184,-0.2151
1600,736.1837,1.2105,-0.2264
1608,738.844,1.2046,-0.2391
1616,741.5017,1.1967,-0.2522
1624,744.162,1.1907,-0.2662
1632,746.822,1.1848,-0.2813
1640,749.484,1.1803,-0.2958
1648,752.142,1.1734,-0.31
1656,754.809,1.169,-0.3245
1664,757.47,1.163,-0.3374
1672,760.133,1.1578,-0.3478
1680,762.797,1.1549,-0.3582
1688,765.4603,1.1495,-0.3682
1696,768.123,1.1457,-0.3753
1704,770.786,1.1411,-0.383
1712,773.4473,1.1381,-0.3928
1720,776.114,1.134,-0.4025
1728,778.78,1.1284,-0.412
1736,781.4483,1.1273,-0.4201
1744,784.1207,1.1241,-0.4283
1752,786.793,1.1185,-0.4354
1760,789.463,1.1158,-0.4424
1768,792.1357,1.1118,-0.4489
1776,794.809,1.1091,-0.4568
1784,797.487,1.1067,-0.466
1792,800.164,1.1024,-0.4746
1800,802.843,1.1007,-0.4821
1808,805.523,1.0981,-0.488
1816,808.202,1.0943,-0.4939
1824,810.883,1.0903,-0.5015
1832,813.5617,1.0876,-0.5104
1840,816.2417,1.085,-0.5195
1848,818.922,1.0823,-0.5282
1856,821.5967,1.0807,-0.5365
1864,824.2727,1.0782,-0.5422
1872,826.945,1.0742,-0.5485
1880,829.6173,1.0715,-0.5565
1888,832.2897,1.0709,-0.5697
1896,834.962,1.0668,-0.5856
1904,837.6253,1.0628,-0.5997
1912,840.285,1.0601,-0.6126
1920,842.942,1.0588,-0.6245
1928,845.5963,1.0562,-0.6338
1936,848.248,1.0534,-0.6435
1944,850.903,1.0521,-0.6503
1952,853.56,1.049,-0.6718
1960,856.2267,1.0481,-0.7073
1968,858.891,1.0467,-0.7481
1976,861.5513,1.044,-0.788
1984,864.2093,1.0413,-0.8263
1992,866.869,1.0387,-0.8623
2000,869.5237,1.0387,-0.8956
2008,872.1777,1.0355,-0.9282
2016,874.833,1.0336,-0.9583
2024,877.492,1.0319,-0.9852
2032,880.151,1.031,-0.9968
2040,882.808,1.0283,-0.9671
2048,885.4657,1.0256,-0.9153
2056,888.1224,1.0242,-0.8638
2064,890.783,1.0216,-0.8253
2072,893.4373,1.0202,-0.8019
2080,896.0897,1.0189,-0.7885
2088,898.744,1.0169,-0.7838
2096,901.4013,1.015,-0.7858
2104,904.0597,1.0134,-0.7913
2112,906.723,1.0098,-0.7986
2120,909.388,1.0082,-0.8136
2128,912.0536,1.0064,-0.8294
2136,914.716,1.0041,-0.8442
2144,917.382,1.0041,-0.8568
2152,920.053,1.0028,-0.8674
2160,922.727,1.0004,-0.878
2168,925.4053,0.9997,-0.8866
2176,928.0853,0.998,-0.8963
2184,930.768,0.9961,-0.9058
2192,933.4497,0.9961,-0.9141
2200,936.134,0.9947,-0.9226
2208,938.814,0.9934,-0.9372
2216,941.4927,0.9921,-0.9552
2224,944.1717,0.9906,-0.9709
2232,946.847,0.9904,-0.9824
2240,949.5203,0.989,-0.9906
2248,952.192,0.9877,-0.9985
2256,954.862,0.9867,-1.0072
2264,957.5307,0.9863,-1.0168
2272,960.1987,0.985,-1.0281
2280,962.864,0.985,-1.0418
2288,965.5317,0.983,-1.0599
2296,968.1977,0.9809,-1.0789
2304,970.86,0.9817,-1.093
2312,973.52,0.9794,-1.1076
2320,976.1196,0.979,-1.14
2328,978.456,0.977,-1.2304
2336,980.3756,0.9763,-1.4024
2344,981.8207,0.9763,-1.6436
2352,982.771,0.9763,-1.9408
2357,983.109,0.9752,-2.1292