File: Wood/Calibration_Data/TIFP+UCT/TIFP+UCT_Gasification_hor_perpendicular_60kW_R3.csv
Time (s),Mass (g),TC back 1 (K),TC back 2 (K),TC back 3 (K)
0,105.16,294.75,296.15,293.45
5,104.33,295.05,298.35,293.75
10,104.39,295.55,300.45,294.15
15,103.81,296.05,302.25,294.55
20,103.26,296.55,303.75,294.95
25,102.76,297.05,304.75,295.35
30,102.14,297.65,305.75,295.75
35,101.38,298.15,306.85,296.15
40,100.64,298.65,308.15,296.65
45,99.98,299.45,308.95,297.15
50,99.44,300.05,310.35,297.65
55,98.85,300.85,311.45,298.25
60,98.20,301.85,313.05,299.15
65,97.55,302.95,314.65,300.05
70,97.19,304.15,316.05,301.15
75,96.79,305.85,318.25,302.65
80,96.27,307.45,320.65,304.25
85,95.86,309.45,323.15,306.05
90,95.34,311.95,326.35,308.35
95,94.89,314.45,329.35,310.65
100,94.46,317.25,332.45,313.25
105,94.09,320.45,336.05,316.25
110,93.57,323.55,339.45,319.15
115,93.15,326.65,342.75,322.15
120,92.66,330.15,346.65,325.65
125,92.30,333.25,350.15,328.65
130,91.79,336.25,353.65,331.65
135,91.62,339.65,357.75,335.05
140,91.12,342.75,361.05,338.05
145,90.75,345.75,364.55,340.95
150,90.29,349.05,368.15,344.25
155,89.95,351.95,371.55,347.05
160,89.61,354.65,374.25,349.85
165,89.05,357.65,377.45,352.95
170,88.74,360.15,380.15,355.55
175,88.46,362.55,382.45,358.05
180,87.81,365.05,384.85,360.65
185,87.50,367.15,386.45,362.95
190,87.13,369.15,387.75,367.45
195,86.77,371.25,388.75,371.35
200,86.25,373.05,389.55,372.25
205,85.98,374.75,390.25,372.65
210,85.60,376.25,391.05,372.95
215,85.35,377.35,391.45,373.15
220,84.88,378.05,392.05,373.35
225,84.53,378.65,392.65,373.85
230,84.07,379.15,393.35,375.85
235,83.82,379.45,393.75,376.65
240,83.37,379.85,394.35,377.15
245,82.97,380.15,395.15,377.45
250,82.59,380.45,395.65,377.55
255,82.14,380.85,396.65,377.85
260,81.95,381.05,397.45,378.05
265,81.56,381.35,398.25,378.15
270,81.12,381.75,399.25,378.35
275,80.76,382.05,399.75,378.55
280,80.38,382.35,400.45,378.75
285,79.93,382.65,400.95,378.95
290,79.63,382.95,401.45,379.15
295,79.37,383.25,402.25,379.25
300,78.99,383.55,403.25,379.55
305,78.72,383.95,403.55,379.75
310,78.35,384.25,404.35,379.95
315,77.97,384.55,405.25,380.05
320,77.58,384.85,405.95,380.25
325,77.41,385.15,406.65,380.45
330,77.11,385.55,407.45,380.65
335,76.76,385.85,407.85,380.85
340,76.33,386.25,407.45,380.95
345,75.98,386.65,407.65,381.25
350,75.70,386.95,408.15,381.45
355,75.31,387.35,408.35,381.65
360,74.97,387.75,408.85,381.85
365,74.56,388.15,409.95,382.05
370,74.36,388.55,410.45,382.25
375,74.14,389.05,411.35,382.55
380,73.39,389.45,411.55,382.75
385,73.37,389.85,412.65,383.05
390,73.01,390.35,413.55,383.35
395,72.80,390.75,414.45,383.55
400,72.36,391.15,415.35,383.75
405,72.11,391.65,416.85,384.15
410,71.80,392.15,417.95,384.35
415,71.41,392.65,419.05,384.65
420,70.98,393.25,420.05,385.05
425,70.87,393.85,421.75,385.35
430,70.41,394.35,423.05,385.75
435,70.22,395.05,424.65,386.15
440,69.85,395.65,426.35,386.55
445,69.57,396.35,427.85,386.95
450,69.19,397.25,430.05,387.45
455,68.90,397.95,431.45,387.85
460,68.57,398.85,433.25,388.35
465,68.25,399.75,435.55,388.95
470,68.00,400.65,437.35,389.45
475,67.75,401.65,439.25,389.95
480,67.03,402.65,441.85,390.65
485,66.91,403.75,443.95,391.25
490,66.67,404.95,445.95,391.95
495,66.35,406.35,448.75,392.75
500,66.26,407.65,450.85,393.45
505,65.73,409.05,453.55,394.15
510,65.48,410.65,456.15,395.05
515,65.10,412.25,458.25,395.95
520,64.76,413.85,460.75,396.85
525,64.54,415.75,463.35,397.95
530,64.13,417.55,466.05,398.95
535,63.78,419.55,468.45,399.95
540,63.64,421.75,471.25,401.25
545,63.23,423.75,474.15,402.35
550,62.90,425.85,476.45,403.45
555,62.61,427.65,479.55,404.95
560,62.25,429.85,482.05,406.25
565,61.92,432.05,484.55,407.55
570,61.69,434.45,487.45,409.15
575,61.23,436.65,490.05,410.65
580,61.00,438.85,492.55,412.15
585,60.69,441.35,495.55,413.85
590,60.38,443.55,497.85,415.55
595,60.00,445.75,500.45,417.25
600,59.74,448.35,503.35,419.25
605,59.36,450.65,505.85,421.15
610,59.01,452.85,508.15,423.25
615,58.64,455.35,510.75,425.45
620,58.37,457.65,513.15,427.55
625,57.96,459.95,515.55,429.75
630,57.91,462.45,518.05,432.25
635,57.31,464.75,520.95,434.55
640,57.03,466.95,522.95,436.95
645,56.62,469.55,525.25,439.75
650,56.32,471.85,527.85,442.25
655,55.91,474.05,530.55,447.25
660,55.59,476.45,533.25,450.15
665,55.26,478.65,535.65,452.55
670,54.93,480.85,537.95,454.95
675,54.47,483.35,540.65,457.65
680,54.26,485.45,543.15,460.15
685,53.81,487.65,545.05,462.55
690,53.48,490.05,547.85,465.35
695,53.14,492.15,549.95,467.85
700,52.73,494.25,552.25,470.45
705,52.42,496.65,555.05,473.25
710,52.07,498.75,556.85,475.65
715,51.70,500.85,558.45,478.25
720,51.30,503.15,561.05,481.05
725,50.96,505.25,563.65,483.45
730,50.52,507.25,566.05,485.95
735,50.22,509.55,568.25,488.75
740,49.83,511.55,570.25,491.15
745,49.43,513.55,572.25,493.65
750,49.05,515.75,574.85,496.45
755,48.66,517.65,577.35,498.95
760,48.26,519.65,579.15,501.35
765,47.90,521.85,581.75,504.05
770,47.40,523.75,583.75,506.45
775,47.06,525.85,585.95,508.85
780,46.68,528.05,588.05,511.45
785,46.25,529.95,589.95,513.75
790,45.87,531.95,591.95,516.15
795,45.47,534.25,594.65,518.75
800,45.05,536.25,596.55,521.05
805,44.68,538.25,598.65,523.35
810,44.26,540.65,601.05,526.05
815,43.82,542.65,602.85,528.35
820,43.41,544.65,604.85,530.55
825,43.08,547.05,606.95,533.15
830,42.58,549.15,608.95,535.45
835,42.15,551.15,611.05,537.65
840,41.79,553.55,613.25,540.15
845,41.35,555.65,615.25,542.35
850,40.97,557.75,617.35,544.55
855,40.59,560.25,619.45,547.05
860,40.07,562.35,621.55,549.35
865,39.64,564.55,623.65,551.65
870,39.23,567.05,625.65,554.25
875,38.79,569.25,627.95,556.75
880,38.37,571.35,629.85,559.15
885,37.94,573.85,631.95,561.85
890,37.50,576.05,634.15,564.35
895,37.07,578.25,636.15,566.85
900,36.67,580.75,638.45,569.55
905,36.20,582.95,640.45,571.95
910,35.82,585.25,642.25,574.35
915,35.53,587.75,644.85,577.15
920,34.93,590.05,646.85,579.65
925,34.53,592.25,648.45,582.05
930,34.08,594.55,650.95,584.75
935,33.70,596.65,652.95,587.15
940,33.26,598.65,655.15,589.45
945,32.85,600.95,657.75,592.05
950,32.46,602.95,660.25,594.35
955,32.06,604.95,662.15,596.65
960,31.62,607.45,665.15,599.35
965,31.19,609.65,667.65,601.65
970,30.82,611.85,670.05,603.85
975,30.42,614.35,673.85,606.25
980,30.00,616.45,677.75,608.35
985,29.62,618.55,681.45,610.45
990,29.20,620.75,685.75,612.85
995,28.88,622.75,689.35,614.85
1000,28.49,624.75,692.35,616.95
1005,28.15,627.05,695.15,619.15
1010,27.82,629.05,697.95,621.15
1015,27.45,631.15,700.05,623.15
1020,27.11,633.55,702.45,625.45
1025,26.82,635.85,704.55,627.65
1030,26.50,638.25,706.25,629.85
1035,26.16,641.45,708.75,632.45
1040,25.88,644.65,710.55,634.85
1045,25.53,648.55,712.95,637.35
1050,25.28,655.45,715.65,640.35
1055,25.03,661.65,717.95,643.15
1060,24.74,668.35,720.35,646.25
1065,24.53,676.95,723.25,650.05
1070,24.23,685.45,725.65,653.55
1075,23.99,694.35,728.05,657.65
1080,23.81,703.75,730.75,662.85
1085,23.59,712.05,733.15,668.25
1090,23.40,719.75,735.65,674.15
1095,23.21,727.85,738.55,681.85
1100,23.06,734.75,741.15,689.85
1105,22.85,741.35,743.85,699.05
1110,22.69,748.85,746.95,711.85
1115,22.57,755.35,749.55,725.85
1120,22.45,761.85,752.55,743.55
1125,22.38,769.15,755.95,763.65
1130,22.26,773.15,758.25,772.15
1135,22.18,776.05,760.05,774.35
1140,22.12,778.75,761.95,775.75
1145,22.08,781.15,763.45,777.25
1150,22.05,783.15,765.15,779.05
1155,21.97,785.35,766.75,781.15
1160,21.94,787.35,768.05,783.45
1165,21.88,789.15,769.45,785.75
1170,21.84,791.25,770.95,788.05
1175,21.78,792.95,772.25,790.05
1180,21.71,794.75,773.45,791.85
1185,21.73,796.45,774.85,793.85
1190,21.66,797.95,776.05,795.65
1195,21.61,799.35,777.15,797.25
1200,21.58,800.75,778.35,799.15