File: Wood/Calibration_Data/TIFP+UCT/TIFP+UCT_Gasification_hor_parallel_60kW_R2.csv
Time (s),Mass (g),TC back 1 (K),TC back 2 (K),TC back 3 (K)
0,111.07,305.25,303.75,304.45
6,110.46,306.75,304.15,305.35
12,109.84,308.45,304.95,306.55
18,108.65,310.15,305.85,307.85
24,107.92,311.65,306.75,309.25
30,107.21,313.35,307.65,310.65
36,106.50,314.95,308.55,312.05
42,105.90,316.65,309.45,313.45
48,105.31,318.15,310.25,314.85
54,104.71,319.65,311.05,316.25
60,104.16,321.15,311.85,317.65
66,103.63,322.65,312.75,319.05
72,103.09,324.05,313.55,320.45
78,102.58,325.55,314.45,321.85
84,102.08,327.05,315.25,323.35
90,101.61,328.55,316.15,324.65
96,101.14,330.05,317.05,326.15
102,100.66,331.45,317.95,327.55
108,100.21,332.95,318.85,328.95
114,99.77,334.45,319.75,330.45
120,99.33,335.95,320.65,331.85
126,98.90,337.45,321.65,333.35
132,98.45,338.95,322.55,334.85
138,98.04,340.45,323.55,336.35
144,97.62,342.05,324.55,337.85
150,97.19,343.65,325.65,339.45
156,96.77,345.25,326.65,340.95
162,96.37,346.85,327.75,342.65
168,95.95,348.55,328.85,344.15
174,95.55,350.25,329.95,345.85
180,95.13,351.95,331.05,347.45
186,94.73,353.65,332.25,349.15
192,94.32,355.45,333.45,350.75
198,93.92,357.15,334.65,352.55
204,93.52,358.95,335.85,354.35
210,93.13,360.75,337.15,356.25
216,92.73,362.45,338.45,358.05
222,92.33,364.15,339.75,359.95
228,91.96,365.85,341.05,361.75
234,91.57,367.55,342.45,363.65
240,91.17,369.25,343.85,365.45
246,90.80,370.75,345.25,367.25
252,90.41,372.25,346.75,369.05
258,90.03,373.65,348.15,370.65
264,89.66,375.05,349.65,372.35
270,89.27,376.35,351.15,373.85
276,88.90,377.55,352.75,375.35
282,88.54,378.75,354.35,376.75
288,88.15,379.95,356.05,378.05
294,87.77,381.05,357.65,379.35
300,87.43,382.15,359.45,380.55
306,87.05,383.25,361.15,381.65
312,86.65,384.25,362.85,382.75
318,86.29,385.25,364.65,383.65
324,85.93,386.25,366.55,384.55
330,85.55,387.15,368.55,385.35
336,85.16,388.05,370.85,386.25
342,84.81,388.95,373.25,386.95
348,84.43,389.85,375.35,387.75
354,84.05,390.75,377.05,388.55
360,83.70,391.65,378.45,389.35
366,83.33,392.45,379.55,390.05
372,82.95,393.25,380.35,390.75
378,82.58,394.15,381.15,391.55
384,82.21,395.05,381.75,392.35
390,81.85,395.85,382.45,393.15
396,81.47,396.65,383.05,393.85
402,81.11,397.55,383.75,394.65
408,80.74,398.55,384.35,395.45
414,80.37,399.35,385.05,396.35
420,80.00,400.35,385.75,397.15
426,79.65,401.25,386.35,397.95
432,79.28,402.15,387.15,398.75
438,78.90,403.05,387.85,399.65
444,78.54,403.95,388.55,400.45
450,78.18,404.95,389.35,401.25
456,77.83,405.95,390.05,402.15
462,77.46,406.95,390.75,402.95
468,77.11,407.95,391.55,403.85
474,76.75,408.95,392.25,404.75
480,76.37,409.95,392.95,405.55
486,76.03,410.95,393.75,406.45
492,75.68,411.85,394.45,407.35
498,75.29,412.85,395.15,408.25
504,74.92,413.85,395.85,409.15
510,74.57,414.85,396.55,410.05
516,74.20,415.85,397.25,410.85
522,73.86,416.95,397.95,411.75
528,73.51,417.95,398.65,412.65
534,73.14,419.05,399.45,413.55
540,72.79,420.05,400.15,414.45
546,72.42,421.15,400.85,415.25
552,72.07,422.25,401.55,416.15
558,71.72,423.45,402.25,417.05
564,71.34,424.55,403.05,417.95
570,71.00,425.65,403.75,418.85
576,70.63,426.85,404.55,419.75
582,70.28,427.95,405.25,420.75
588,69.93,429.15,405.95,421.75
594,69.57,430.25,406.75,422.65
600,69.21,431.45,407.45,423.65
606,68.86,432.65,408.25,424.65
612,68.50,434.05,409.05,425.65
618,68.14,435.25,409.85,426.65
624,67.76,436.55,410.55,427.75
630,67.39,437.85,411.45,428.75
636,67.03,439.25,412.15,429.85
642,66.65,440.75,412.95,430.95
648,66.29,442.15,413.85,432.05
654,65.92,443.65,414.65,433.15
660,65.54,445.05,415.55,434.25
666,65.17,446.55,416.35,435.45
672,64.79,448.15,417.25,436.65
678,64.41,449.75,418.25,437.85
684,64.03,451.45,419.15,439.05
690,63.65,453.15,420.15,440.25
696,63.25,454.95,421.15,441.55
702,62.86,456.75,422.15,442.95
708,62.48,458.55,423.25,444.35
714,62.08,460.35,424.35,445.75
720,61.67,462.25,425.45,447.15
726,61.27,464.15,426.55,448.65
732,60.88,466.15,427.75,450.05
738,60.47,468.25,428.95,451.65
744,60.07,470.25,430.15,453.25
750,59.67,472.25,431.35,454.85
756,59.27,474.45,432.65,456.55
762,58.86,476.55,433.95,458.25
768,58.46,478.85,435.35,460.05
774,58.05,481.05,436.75,461.75
780,57.65,483.25,438.15,463.65
786,57.25,485.55,439.65,465.55
792,56.83,487.85,441.15,467.45
798,56.43,490.25,442.75,469.45
804,56.02,492.65,444.35,471.45
810,55.61,494.95,445.95,473.45
816,55.19,497.45,447.75,475.55
822,54.78,499.95,449.45,477.65
828,54.37,502.35,451.25,479.85
834,53.97,504.85,453.15,482.05
840,53.55,507.35,455.05,484.25
846,53.16,509.85,457.05,486.45
852,52.74,512.45,459.05,488.75
858,52.33,514.85,461.15,490.95
864,51.91,517.35,463.35,493.25
870,51.50,519.85,465.55,495.55
876,51.10,522.35,467.75,497.85
882,50.69,524.85,470.05,500.15
888,50.27,527.25,472.45,502.35
894,49.85,529.65,474.75,504.75
900,49.44,532.05,477.15,507.05
906,49.03,534.45,479.65,509.35
912,48.62,536.85,482.15,511.55
918,48.20,539.15,484.65,513.85
924,47.78,541.45,487.25,516.15
930,47.37,543.85,489.85,518.45
936,46.96,546.25,492.55,520.85
942,46.54,548.55,495.15,523.15
948,46.12,550.95,497.85,525.45
954,45.71,553.45,500.55,527.85
960,45.28,555.75,503.15,530.15
966,44.87,558.15,505.85,532.55
972,44.45,560.55,508.55,535.05
978,44.02,563.05,511.15,537.45
984,43.62,565.35,513.75,539.85
990,43.20,567.85,516.35,542.25
996,42.77,570.25,518.95,544.75
1002,42.35,572.65,521.45,547.25
1008,41.93,575.15,523.95,549.65
1014,41.52,577.55,526.55,552.25
1020,41.09,580.05,529.05,554.85
1026,40.65,582.55,531.55,557.45
1032,40.24,585.15,534.15,560.15
1038,39.81,587.55,536.75,562.75
1044,39.38,590.15,539.45,565.35
1050,38.95,592.65,542.05,568.05
1056,38.53,595.05,544.75,570.75
1062,38.16,597.65,547.25,573.35
1068,37.74,600.05,549.65,576.15
1074,37.32,602.55,552.05,578.95
1080,36.87,604.95,554.55,581.85
1086,36.46,607.35,557.05,584.65
1092,36.03,609.75,559.85,587.45
1098,35.61,612.45,562.85,590.35
1104,35.20,614.95,565.95,593.25
1110,34.78,617.45,569.05,596.25
1116,34.36,620.05,572.05,599.25
1122,33.91,622.65,575.25,602.25
1128,33.49,625.25,578.65,605.25
1134,33.07,627.65,582.05,608.25
1140,32.65,630.25,585.55,611.25
1146,32.24,632.55,588.95,614.05
1152,31.82,634.95,592.35,616.85
1158,31.40,637.35,595.75,619.65
1164,30.98,639.75,599.25,622.45
1170,30.60,642.35,602.75,625.35
1176,30.20,644.55,606.25,628.25
1182,29.79,646.95,609.85,631.05
1188,29.40,649.45,613.55,633.75
1194,29.00,651.95,617.25,636.35
1200,28.64,654.35,620.95,638.85
1206,28.29,656.55,624.25,641.25
1212,27.90,659.25,627.35,643.65
1218,27.53,662.35,630.45,646.05
1224,27.20,665.75,633.65,648.75
1230,26.86,670.05,636.65,651.45
1236,26.54,674.25,643.95,654.85
1242,26.23,678.35,646.75,658.45
1248,25.96,690.65,650.85,662.15
1254,25.65,696.85,655.35,666.35
1260,25.44,703.45,657.35,671.05
1266,25.19,710.15,659.95,676.05
1272,24.97,714.45,666.95,682.25
1278,24.74,719.65,662.85,690.35
1284,24.49,724.25,664.45,699.15
1290,24.30,723.25,667.65,709.05
1296,24.07,728.05,671.75,719.45
1302,23.88,734.45,677.75,730.15
1308,23.83,736.15,684.35,741.15
1314,23.63,736.75,694.25,750.05
1320,23.62,738.05,705.25,755.25
1326,23.45,741.05,720.05,759.35
1332,23.29,743.55,738.95,762.95
1338,23.21,747.05,759.05,765.35
1344,23.12,750.25,770.65,767.55
1350,23.05,753.05,772.25,769.65
1356,22.98,755.55,771.95,771.45
1362,22.93,757.55,771.95,773.25
1368,22.89,759.35,772.35,774.95
1374,22.85,761.75,773.05,776.75
1380,22.79,764.65,774.05,778.35
1386,22.74,767.65,775.15,779.95
1392,22.71,770.35,776.35,781.55
1398,22.67,772.85,777.85,783.25
1404,22.63,775.25,779.25,784.75
1410,22.60,777.55,780.65,786.25
1416,22.56,779.85,782.25,787.85
1422,22.53,781.95,783.75,789.25
1428,22.50,783.85,785.25,790.65
1434,22.48,785.65,786.65,792.05
1440,22.45,787.35,788.15,793.35
1446,22.41,788.95,789.55,794.65
1452,22.38,790.55,791.05,795.95
1458,22.36,792.15,792.45,797.15
1464,22.34,793.75,793.85,798.35
1470,22.32,795.35,795.15,799.45
1476,22.28,796.75,796.35,800.55
1482,22.26,798.35,797.75,801.65
1488,22.24,799.65,798.85,802.65
1494,22.21,800.95,800.05,803.65
1500,22.20,802.15,801.15,804.65
1506,22.17,803.45,802.25,805.65
1512,22.16,804.65,803.25,806.45
1518,22.14,805.75,804.25,807.35
1524,22.12,806.55,805.25,808.15
1530,22.10,807.65,806.25,808.85
1536,22.08,808.45,807.05,809.65
1542,22.05,809.35,807.95,810.35
1548,22.04,810.15,808.75,811.05
1554,22.02,810.95,809.55,811.75
1560,22.00,811.85,810.35,812.45
1566,21.99,812.75,811.15,813.15
1572,21.97,813.55,811.95,813.85
1578,21.96,814.45,812.65,814.45
1584,21.93,815.05,813.35,815.05
1590,21.93,815.85,814.05,815.65
1593,21.93,816.15,814.35,815.95