File: Wood/Calibration_Data/TIFP+UCT/TIFP+UCT_Gasification_hor_perpendicular_30kW_R3.csv
Time (s),Mass (g),TC back 1 (K),TC back 2 (K),TC back 3 (K)
0,110.47,298.85,298.55,300.65
9,110.14,299.65,299.15,301.95
18,109.89,300.35,299.65,303.05
27,109.74,301.05,300.05,303.95
36,109.66,301.75,300.55,304.85
45,109.38,302.45,300.95,305.65
54,109.22,303.35,301.45,306.65
63,108.88,304.25,302.05,307.75
72,108.63,305.45,302.85,309.05
81,108.34,306.85,303.95,310.75
90,108.10,308.45,305.25,312.85
99,107.68,310.55,306.95,315.35
108,107.26,312.95,308.95,318.35
117,106.82,315.75,311.45,321.75
126,106.53,318.85,314.35,325.55
135,105.91,322.35,317.55,329.65
144,105.66,326.05,321.05,333.95
153,105.30,329.85,324.85,338.25
162,104.96,333.75,328.65,342.95
171,104.43,337.85,332.65,347.35
180,104.17,341.85,336.45,351.45
189,103.52,345.85,340.35,355.55
198,103.14,349.95,344.05,359.25
207,102.80,353.75,347.75,362.65
216,102.37,357.35,351.25,365.75
225,102.00,360.75,354.85,368.55
234,101.66,363.85,357.95,371.05
243,101.30,366.85,360.85,373.35
252,100.93,369.55,363.35,375.45
261,100.54,372.05,365.85,377.15
270,100.16,374.45,368.05,378.45
279,99.86,376.45,370.05,379.55
288,99.41,377.95,371.85,380.35
297,98.96,378.95,373.55,381.05
306,98.56,379.55,375.05,381.65
315,98.13,379.95,376.35,382.15
324,97.59,380.35,377.15,382.65
333,97.03,381.45,377.75,383.15
342,96.61,381.95,378.05,383.45
351,96.27,382.35,378.25,383.85
360,95.87,382.65,378.45,384.25
369,95.55,382.95,378.75,384.65
378,95.24,383.25,378.85,385.05
387,94.72,383.55,379.15,385.45
396,94.44,383.85,379.25,385.85
405,93.94,384.25,379.45,386.25
414,93.84,384.45,379.65,386.65
423,93.46,384.75,379.85,387.05
432,93.07,385.05,379.95,387.45
441,92.69,385.35,380.15,387.85
450,92.31,385.65,380.35,388.25
459,91.93,385.95,380.55,388.65
468,91.67,386.25,380.75,389.15
477,91.37,386.55,380.85,389.55
486,90.98,386.85,381.15,390.05
495,90.71,387.25,381.35,390.65
504,90.26,387.65,381.55,391.15
513,90.01,387.95,381.75,391.75
522,89.65,388.35,381.85,392.35
531,89.31,388.75,382.15,393.05
540,89.05,389.05,382.35,393.75
549,88.64,389.55,382.65,394.55
558,88.50,389.95,382.85,395.35
567,88.15,390.55,383.25,396.25
576,87.83,391.05,383.45,397.15
585,87.59,391.65,383.75,398.15
594,87.29,392.25,384.15,399.35
603,86.91,392.95,384.55,400.65
612,86.71,393.75,384.95,401.95
621,86.56,394.55,385.35,403.35
630,86.10,395.45,385.85,404.85
639,85.93,396.35,386.35,406.45
648,85.62,397.45,386.85,408.45
657,85.37,398.65,387.45,410.35
666,85.15,399.85,388.15,412.35
675,84.85,401.15,388.85,414.35
684,84.60,402.55,389.65,416.55
693,84.27,404.15,390.55,418.85
702,83.99,405.75,391.45,421.25
711,83.68,407.45,392.45,423.75
720,83.36,409.25,393.55,426.25
729,83.09,411.15,394.75,428.95
738,82.80,413.05,396.05,431.55
747,82.49,415.05,397.45,434.15
756,82.28,417.05,398.85,436.75
765,81.97,419.15,400.45,439.45
774,81.78,421.35,402.15,442.05
783,81.53,423.55,403.95,444.65
792,81.16,425.85,406.05,447.25
801,80.99,428.15,407.95,449.85
810,80.63,430.55,410.05,452.45
819,80.45,432.85,412.25,455.05
828,80.17,435.25,414.45,457.55
837,79.87,437.55,416.65,460.15
846,79.59,439.95,419.15,462.65
855,79.37,442.35,421.45,465.05
864,79.04,444.65,423.85,467.45
873,78.82,447.05,426.15,469.85
882,78.53,449.35,427.85,472.15
891,78.25,451.65,430.35,474.55
900,77.96,453.95,432.85,476.85
909,77.77,456.25,435.15,479.15
918,77.57,458.45,437.75,481.35
927,77.23,460.75,440.25,483.45
936,76.98,462.95,442.95,485.65
945,76.66,465.15,445.45,487.75
954,76.40,467.25,447.95,489.85
963,76.17,469.35,450.55,491.95
972,75.86,471.45,453.15,493.95
981,75.50,473.55,455.65,495.95
990,75.27,475.55,458.25,497.95
999,74.87,477.55,460.75,499.75
1008,74.60,479.55,463.35,501.65
1017,74.25,481.55,465.85,503.45
1026,73.87,483.45,468.35,505.35
1035,73.69,485.45,470.95,507.05
1044,73.28,487.35,473.45,508.85
1053,72.93,489.15,475.65,510.55
1062,72.72,491.05,477.95,512.15
1071,72.41,492.75,480.15,513.75
1080,71.91,494.55,482.35,515.45
1089,71.70,496.35,484.45,517.05
1098,71.35,497.95,486.55,518.65
1107,70.91,499.85,488.55,520.25
1116,70.54,501.45,490.65,521.65
1125,70.30,503.25,492.65,523.25
1134,69.85,504.95,494.65,524.75
1143,69.51,506.55,496.55,526.15
1152,69.09,508.25,498.55,527.75
1161,68.84,509.95,500.55,529.25
1170,68.35,511.55,502.35,530.65
1179,68.05,513.15,504.35,532.15
1188,67.63,514.75,506.15,533.65
1197,67.28,516.45,508.15,535.15
1206,66.81,518.05,509.95,536.75
1215,66.41,519.55,511.75,538.15
1224,66.01,521.15,513.65,539.65
1233,65.63,522.75,515.35,541.15
1242,65.22,524.25,517.25,542.65
1251,64.82,525.75,519.05,544.15
1260,64.38,527.35,520.85,545.55
1269,63.95,528.85,522.65,547.05
1278,63.58,530.35,524.55,548.55
1287,63.07,531.85,526.35,549.95
1296,62.69,533.35,528.15,551.45
1305,62.24,534.85,529.95,552.85
1314,61.82,536.35,531.75,554.35
1323,61.35,537.75,533.55,555.75
1332,60.86,539.25,535.35,557.15
1341,60.48,540.75,537.25,558.55
1350,60.00,542.15,539.05,559.85
1359,59.56,543.55,540.85,561.25
1368,59.10,545.05,542.75,562.65
1377,58.67,546.55,544.55,564.05
1386,58.15,547.95,546.45,565.35
1395,57.68,549.45,548.35,566.75
1404,57.24,550.95,550.25,568.15
1413,56.75,552.35,552.15,569.35
1422,56.22,553.85,554.05,570.75
1431,55.75,555.25,555.95,571.95
1440,55.19,556.75,557.75,573.25
1449,54.72,558.25,559.75,574.55
1458,54.26,559.65,561.55,575.75
1467,53.70,561.15,563.55,577.05
1476,53.18,562.65,565.35,578.25
1485,52.65,563.75,567.25,579.55
1494,52.16,565.25,569.05,580.75
1503,51.63,566.55,570.85,581.95
1512,51.16,567.95,572.55,583.15
1521,50.62,569.25,574.25,584.45
1530,50.15,570.55,575.95,585.65
1539,49.62,571.75,577.55,586.75
1548,49.10,572.95,579.15,587.95
1557,48.67,574.15,580.75,589.05
1566,48.12,575.45,582.35,590.15
1575,47.58,576.55,583.85,591.35
1584,47.09,577.75,585.35,592.45
1593,46.60,578.95,586.85,593.55
1602,46.10,580.05,588.25,594.65
1611,45.62,581.05,589.75,595.75
1620,45.09,582.05,591.05,596.75
1629,44.66,583.15,592.35,597.65
1638,44.12,584.05,593.65,598.45
1647,43.64,585.05,594.85,599.25
1656,43.16,586.05,596.15,600.05
1665,42.65,586.95,597.35,600.85
1674,42.17,587.75,598.55,601.45
1683,41.67,588.65,599.55,601.95
1692,41.23,589.35,600.65,602.35
1701,40.78,590.15,601.55,602.65
1710,40.33,590.95,602.15,602.85
1719,39.89,591.65,602.65,603.05
1728,39.48,592.25,603.05,603.25
1737,39.06,593.05,603.45,603.45
1746,38.67,593.75,603.85,603.65
1755,38.25,594.45,604.25,603.95
1764,37.85,595.15,604.65,604.25
1773,37.42,595.95,604.95,604.65
1782,37.09,596.65,605.55,605.15
1791,36.69,597.65,606.15,605.65
1800,36.35,598.45,606.75,606.25
1809,36.02,599.25,607.55,606.85
1818,35.66,599.95,608.35,607.55
1827,35.36,600.85,609.45,608.45
1836,35.02,601.55,610.45,609.25
1845,34.74,602.35,611.65,610.35
1854,34.48,603.25,613.05,611.35
1863,34.17,604.15,614.65,612.65
1872,33.92,605.15,616.25,613.95
1881,33.60,606.05,628.15,615.25
1890,33.36,607.15,630.75,616.85
1899,33.13,608.35,632.35,618.45
1908,32.90,609.55,633.85,620.15
1917,32.66,610.85,635.25,621.95
1926,32.48,612.25,636.45,623.85
1935,32.30,613.65,637.85,625.75
1944,32.09,615.25,638.75,627.95
1953,31.93,616.75,639.75,629.85
1962,31.77,618.35,640.55,631.55
1971,31.59,620.05,641.25,633.05
1980,31.48,621.95,641.75,634.35
1989,31.36,623.65,641.95,635.35
1998,31.23,625.45,642.05,636.25
2007,31.11,627.35,642.25,636.95
2016,31.01,629.15,642.15,637.55
2025,30.89,631.05,642.05,638.05
2034,30.78,632.95,642.35,638.45
2043,30.69,634.85,642.95,638.85
2052,30.57,636.85,643.65,639.05
2061,30.48,638.65,644.25,639.45
2070,30.37,640.45,644.95,639.75
2079,30.32,641.95,645.45,639.85
2088,30.24,643.45,645.95,639.95
2097,30.19,644.55,646.25,640.15
2106,30.11,645.65,646.45,640.15
2115,30.04,646.45,646.75,640.15
2124,30.00,647.05,646.85,640.15
2133,29.96,647.55,647.05,640.15
2142,29.89,647.85,647.15,640.05
2151,29.85,647.95,647.15,639.95
2160,29.82,647.95,647.05,639.95
2169,29.77,647.95,646.95,639.85
2178,29.72,647.85,647.05,639.85
2187,29.68,647.75,647.05,639.75
2196,29.66,647.55,646.85,639.55
2205,29.61,647.35,646.75,639.55
2214,29.56,647.15,646.65,639.55
2223,29.56,646.95,646.55,639.45
2232,29.53,646.65,646.45,639.35
2241,29.47,646.25,646.25,639.25
2250,29.48,645.85,646.05,639.15
2259,29.43,645.65,645.95,639.15
2268,29.41,645.45,645.75,638.95
2277,29.39,645.15,645.65,638.85
2286,29.33,644.85,645.45,638.75
2295,29.33,644.65,645.25,638.65
2304,29.32,644.35,645.05,638.55
2313,29.27,644.15,645.05,638.55
2322,29.28,643.95,644.85,638.55
2331,29.24,643.75,644.75,638.45
2340,29.23,643.55,644.55,638.35
2349,29.24,643.35,644.45,638.35
2358,29.19,643.25,644.35,638.25
2367,29.16,643.05,644.35,638.35
2376,29.15,642.85,644.05,638.25
2385,29.12,642.75,643.95,638.25
2394,29.10,642.65,643.95,638.15
2403,29.06,642.45,643.85,638.05
2412,29.07,642.35,643.85,638.05
2421,29.06,642.25,643.65,637.95
2430,29.05,642.15,643.45,637.95
2439,29.01,642.05,643.45,637.95
2448,29.00,641.95,643.35,637.95
2457,29.00,641.85,643.25,637.95
2466,28.98,641.85,643.15,638.05
2475,28.94,641.65,643.15,637.95
2484,28.95,641.65,643.15,637.85
2493,28.91,641.65,643.15,637.95
2494,28.94,641.55,643.05,637.95