File: Wood/Calibration_Data/TIFP+UCT/TIFP+UCT_Wood_Gasification_hor_parallel_30kW_R2.csv
Time (s),Mass (g),TC back 1 (K),TC back 2 (K),TC back 3 (K)
0,94.80,301.95,301.45,302.35
12,94.43,303.05,301.85,303.35
24,94.14,304.15,302.35,304.55
36,93.82,305.35,302.95,305.85
48,93.47,306.55,303.55,307.15
60,93.02,307.75,304.15,308.55
72,92.55,309.15,304.95,309.95
84,92.07,310.55,305.75,311.35
96,91.61,311.95,306.55,312.75
108,91.19,313.45,307.45,314.25
120,90.77,315.05,308.45,315.75
132,90.35,316.75,309.55,317.35
144,89.96,318.55,310.55,318.95
156,89.59,320.45,311.75,320.65
168,89.22,322.45,313.05,322.45
180,88.86,324.45,314.35,324.35
192,88.50,326.65,315.85,326.15
204,88.15,328.85,317.35,328.15
216,87.81,331.15,318.95,330.15
228,87.46,333.45,320.65,332.25
240,87.12,335.85,322.55,334.45
252,86.77,338.25,324.35,336.65
264,86.45,340.65,326.25,338.75
276,86.12,343.05,328.25,341.05
288,85.79,345.45,330.35,343.35
300,85.46,347.85,332.45,345.55
312,85.16,350.25,334.55,347.85
324,84.84,352.65,336.75,350.05
336,84.51,355.05,338.95,352.35
348,84.21,357.35,341.25,354.55
360,83.92,359.65,343.45,356.75
372,83.60,361.85,345.75,358.85
384,83.28,364.05,348.05,360.95
396,82.99,366.15,350.35,362.95
408,82.69,368.25,352.65,364.95
420,82.40,370.25,355.05,366.95
432,82.12,372.15,357.45,368.85
444,81.81,373.95,359.95,370.65
456,81.53,375.75,362.25,372.35
468,81.25,377.45,364.45,373.95
480,80.98,378.95,366.65,375.55
492,80.70,380.45,368.75,377.05
504,80.42,381.85,370.65,378.45
516,80.14,383.05,372.55,379.85
528,79.86,384.25,374.25,381.05
540,79.56,385.35,375.65,382.35
552,79.29,386.35,376.95,383.35
564,79.00,387.25,378.15,384.35
576,78.72,388.15,379.05,385.35
588,78.46,389.05,379.95,386.15
600,78.17,389.95,380.75,386.95
612,77.90,390.85,381.55,387.75
624,77.63,391.65,382.25,388.55
636,77.35,392.55,382.95,389.25
648,77.08,393.35,383.55,390.05
660,76.81,394.15,384.25,390.85
672,76.55,395.05,384.85,391.55
684,76.28,395.85,385.55,392.35
696,75.99,396.75,386.15,393.05
708,75.74,397.55,386.75,393.85
720,75.45,398.45,387.35,394.55
732,75.18,399.35,387.95,395.35
744,74.92,400.15,388.55,396.15
756,74.65,401.05,389.15,396.85
768,74.39,402.05,389.75,397.65
780,74.13,402.95,390.35,398.45
792,73.86,403.85,390.95,399.25
804,73.60,404.85,391.65,400.05
816,73.35,405.85,392.25,400.85
828,73.08,406.85,392.85,401.75
840,72.84,407.85,393.55,402.65
852,72.59,408.95,394.15,403.55
864,72.33,409.95,394.85,404.45
876,72.09,411.05,395.45,405.45
888,71.82,412.15,396.15,406.35
900,71.57,413.25,396.85,407.25
912,71.35,414.45,397.55,408.35
924,71.09,415.55,398.35,409.35
936,70.84,416.75,399.05,410.35
948,70.62,418.05,399.85,411.45
960,70.37,419.35,400.65,412.45
972,70.11,420.65,401.45,413.55
984,69.88,422.05,402.25,414.75
996,69.64,423.45,403.15,415.85
1008,69.40,424.95,404.05,417.05
1020,69.15,426.45,405.05,418.25
1032,68.92,428.05,406.05,419.45
1044,68.68,429.65,407.05,420.75
1056,68.44,431.25,408.05,422.05
1068,68.21,432.95,409.15,423.45
1080,67.97,434.65,410.25,424.75
1092,67.74,436.35,411.35,426.15
1104,67.51,438.15,412.55,427.65
1116,67.28,439.95,413.75,429.05
1128,67.04,441.75,415.05,430.55
1140,66.81,443.55,416.35,432.05
1152,66.58,445.45,417.65,433.65
1164,66.34,447.25,419.05,435.25
1176,66.11,449.15,420.55,436.75
1188,65.87,451.05,422.15,438.45
1200,65.64,452.95,423.75,440.05
1212,65.40,454.85,425.45,441.65
1224,65.18,456.75,427.15,443.35
1236,64.94,458.65,428.95,445.05
1248,64.69,460.55,430.85,446.85
1260,64.47,462.45,432.65,448.45
1272,64.24,464.35,434.65,450.25
1284,64.01,466.25,436.65,452.05
1296,63.76,468.15,438.65,453.75
1308,63.52,469.95,440.75,455.55
1320,63.29,471.85,442.85,457.25
1332,63.04,473.65,444.95,459.05
1344,62.82,475.45,447.05,460.75
1356,62.58,477.35,449.15,462.55
1368,62.34,479.15,451.35,464.35
1380,62.09,480.95,453.45,466.15
1392,61.85,482.75,455.65,467.95
1404,61.59,484.55,457.75,469.65
1416,61.35,486.25,459.95,471.45
1428,61.11,488.05,462.05,473.15
1440,60.86,489.75,464.15,474.95
1452,60.60,491.45,466.25,476.65
1464,60.35,493.15,468.25,478.35
1476,60.10,494.85,470.35,480.05
1488,59.85,496.55,472.45,481.75
1500,59.58,498.25,474.35,483.35
1512,59.32,499.85,476.35,485.05
1524,59.06,501.45,478.35,486.65
1536,58.79,503.15,480.25,488.35
1548,58.51,504.75,482.25,489.95
1560,58.24,506.35,484.15,491.55
1572,57.96,507.95,486.05,493.25
1584,57.69,509.55,487.85,494.75
1596,57.41,511.15,489.75,496.35
1608,57.12,512.65,491.65,497.95
1620,56.84,514.25,493.55,499.55
1632,56.56,515.75,495.35,501.05
1644,56.28,517.25,497.15,502.65
1656,55.99,518.75,499.05,504.15
1668,55.69,520.25,500.85,505.75
1680,55.39,521.75,502.65,507.25
1692,55.09,523.25,504.45,508.75
1704,54.81,524.65,506.25,510.25
1716,54.48,526.15,508.05,511.65
1728,54.18,527.65,509.75,513.15
1740,53.89,529.05,511.55,514.55
1752,53.57,530.55,513.25,515.95
1764,53.27,531.95,515.05,517.45
1776,52.96,533.35,516.75,518.85
1788,52.62,534.75,518.55,520.25
1800,52.29,536.15,520.25,521.75
1812,51.97,537.55,522.05,523.15
1824,51.64,538.95,523.75,524.55
1836,51.32,540.35,525.45,525.95
1848,50.99,541.75,527.15,527.35
1860,50.65,543.05,528.85,528.65
1872,50.32,544.45,530.55,530.05
1884,49.97,545.75,532.25,531.45
1896,49.63,547.15,533.95,532.85
1908,49.29,548.45,535.65,534.15
1920,48.96,549.75,537.25,535.45
1932,48.59,551.05,538.95,536.85
1944,48.24,552.35,540.55,538.15
1956,47.88,553.65,542.25,539.55
1968,47.54,554.95,543.95,540.85
1980,47.18,556.25,545.45,542.15
1992,46.84,557.55,547.15,543.55
2004,46.48,558.75,548.75,544.95
2016,46.11,560.05,550.45,546.25
2028,45.76,561.25,551.95,547.55
2040,45.41,562.55,553.55,548.85
2052,45.05,563.75,555.15,550.25
2064,44.69,564.85,556.65,551.55
2076,44.31,566.05,558.25,552.85
2088,43.98,567.15,559.75,554.15
2100,43.62,568.25,561.25,555.45
2112,43.26,569.45,562.65,556.75
2124,42.91,570.45,564.15,558.05
2136,42.55,571.55,565.65,559.35
2148,42.19,572.55,566.95,560.65
2160,41.85,573.55,568.35,561.85
2172,41.51,574.55,569.75,563.15
2184,41.17,575.55,571.05,564.35
2196,40.81,576.55,572.25,565.55
2208,40.48,577.55,573.55,566.75
2220,40.13,578.45,574.75,567.95
2232,39.80,579.35,575.95,569.15
2244,39.47,580.15,577.15,570.25
2256,39.13,581.05,578.25,571.45
2268,38.81,581.95,579.35,572.45
2280,38.49,582.75,580.45,573.65
2292,38.15,583.55,581.55,574.65
2304,37.84,584.35,582.65,575.75
2316,37.52,585.15,583.65,576.85
2328,37.20,585.95,584.65,577.85
2340,36.91,586.65,585.65,578.85
2352,36.61,587.45,586.65,579.85
2364,36.29,588.25,587.65,580.95
2376,36.01,588.95,588.55,581.85
2388,35.73,589.75,589.65,582.75
2400,35.46,590.65,590.95,583.35
2412,35.20,591.45,591.75,583.95
2424,34.93,592.15,592.75,584.65
2436,34.67,592.85,593.75,585.35
2448,34.39,593.45,594.75,586.05
2460,34.15,594.15,595.75,586.75
2472,33.90,594.85,596.65,587.35
2484,33.66,595.45,597.55,588.15
2496,33.42,596.05,598.35,588.85
2508,33.19,596.65,599.25,589.55
2520,32.95,597.25,599.95,590.25
2532,32.73,597.75,600.75,590.95
2544,32.50,598.25,601.55,591.65
2556,32.26,598.75,602.25,592.45
2568,32.04,599.25,602.85,593.25
2580,31.82,599.65,603.55,593.95
2592,31.60,600.05,604.15,594.75
2604,31.43,600.45,604.85,595.45
2616,31.25,600.75,605.55,596.25
2628,31.06,601.05,606.15,597.05
2640,30.88,601.35,606.85,597.85
2652,30.72,601.65,607.45,598.55
2664,30.52,601.85,608.05,599.25
2676,30.35,602.15,608.65,599.95
2688,30.23,602.35,609.35,600.65
2700,30.08,602.55,610.05,601.35
2712,29.93,602.75,610.65,602.05
2724,29.78,602.95,611.25,602.75
2736,29.62,603.15,611.75,603.45
2748,29.47,603.35,612.35,604.05
2760,29.33,603.55,612.95,604.75
2772,29.18,603.75,613.45,605.35
2784,29.05,603.95,613.95,605.95
2796,28.92,604.35,614.55,606.65
2808,28.80,604.65,615.05,607.25
2820,28.68,605.05,615.55,607.85
2832,28.55,605.35,616.15,608.45
2844,28.44,605.75,616.65,608.95
2856,28.33,606.15,617.25,609.45
2868,28.23,606.55,617.95,610.05
2880,28.13,606.85,618.65,610.65
2892,28.05,607.35,619.35,611.15
2904,27.96,607.75,619.95,611.65
2916,27.87,608.05,620.65,612.15
2928,27.79,608.95,621.25,612.65
2940,27.72,609.55,621.95,613.05
2952,27.66,610.05,622.65,613.55
2964,27.58,610.45,623.15,613.95
2976,27.52,610.95,623.75,614.35
2988,27.47,611.35,624.05,614.65
3000,27.43,611.85,624.25,614.95
3012,27.37,612.25,624.35,615.15
3024,27.32,612.65,624.55,615.35
3036,27.28,613.05,624.75,615.55
3048,27.23,613.45,624.85,615.65
3060,27.19,613.75,625.05,615.75
3072,27.15,614.05,625.25,615.85
3084,27.11,614.45,625.45,615.85
3096,27.07,614.75,625.55,615.95
3108,27.02,615.05,625.75,615.85
3120,27.00,615.35,625.85,615.75
3132,26.96,615.65,626.05,615.65
3144,26.93,615.95,626.05,615.55
3156,26.90,616.25,626.15,615.45
3168,26.87,616.55,626.35,615.35
3180,26.84,616.85,626.35,615.25
3192,26.82,617.15,626.45,615.15
3204,26.77,617.45,626.45,615.05
3216,26.76,617.65,626.55,614.85
3228,26.73,617.95,626.65,614.75
3240,26.71,618.25,626.75,614.55
3252,26.68,618.55,626.75,614.45
3264,26.65,618.75,626.65,614.25
3276,26.63,618.95,626.65,614.15
3288,26.61,619.15,626.65,613.95
3300,26.59,619.45,626.65,613.85
3312,26.57,619.65,626.65,613.65
3324,26.55,619.75,626.65,613.45
3336,26.52,619.95,626.65,613.35
3348,26.48,620.15,626.65,613.15
3360,26.47,620.35,626.65,613.05
3372,26.45,620.55,626.65,612.95
3384,26.45,620.75,626.55,612.75
3396,26.43,620.95,626.55,612.65
3408,26.42,621.15,626.55,612.45
3420,26.41,621.35,626.45,612.35
3432,26.39,621.45,626.45,612.25
3444,26.38,621.55,626.45,612.05
3456,26.36,621.75,626.35,611.95
3468,26.35,621.95,626.35,611.75
3480,26.34,622.15,626.35,611.65
3492,26.33,622.25,626.35,611.55
3500,26.30,622.45,626.35,611.55