File: Wood/Calibration_Data/TIFP+UCT/TIFP+UCT_STA_N2_20K_R3.csv
Time (s),Temperature (K),Mass (mg),Heat Flow Rate (W/g)
0,303.245,4.9174,-0.0034
8,303.2403,4.9174,-0.0034
16,303.2367,4.9163,-0.0036
24,303.229,4.9159,-0.0038
32,303.225,4.915,-0.0039
40,303.2213,4.9148,-0.0042
48,303.215,4.9145,-0.0044
56,303.2123,4.9148,-0.0042
64,303.2047,4.9148,-0.0047
72,303.202,4.9147,-0.0046
80,303.2,4.9139,-0.0049
88,303.1963,4.9131,-0.0047
96,303.193,4.9142,-0.0047
104,303.1913,4.9128,-0.0048
112,303.1883,4.9142,-0.0047
120,303.183,4.9129,-0.0049
128,303.1813,4.9129,-0.0044
136,303.177,4.9128,-0.0045
144,303.178,4.9129,-0.0045
152,303.175,4.9139,-0.0042
160,303.1747,4.9129,-0.004
168,303.172,4.9129,-0.0038
176,303.1673,4.9118,-0.0037
184,303.1637,4.912,-0.0035
192,303.163,4.9119,-0.0035
200,303.1623,4.9116,-0.0033
208,303.158,4.9121,-0.0033
216,303.157,4.9116,-0.0031
224,303.154,4.9116,-0.0031
232,303.1517,4.9115,-0.0032
240,303.152,4.9116,-0.0032
248,303.148,4.9109,-0.0032
256,303.1463,4.9099,-0.0033
264,303.147,4.9103,-0.0035
272,303.146,4.9103,-0.0034
280,303.148,4.91,-0.0033
288,303.146,4.9103,-0.0032
296,303.1477,4.9077,-0.0034
304,303.1467,4.9089,-0.0033
312,303.165,4.9087,-0.0042
320,303.2417,4.9094,-0.0086
328,303.451,4.9076,-0.0191
336,303.853,4.9104,-0.037
344,304.5213,4.9092,-0.0629
352,305.501,4.9104,-0.0982
360,306.844,4.9095,-0.1394
368,308.5867,4.9095,-0.1872
376,310.7297,4.9082,-0.2387
384,313.273,4.9073,-0.2934
392,316.1897,4.9091,-0.3487
400,319.44,4.9084,-0.4031
408,322.973,4.9084,-0.4542
416,326.7413,4.9076,-0.5001
424,330.68,4.9082,-0.5394
432,334.736,4.9077,-0.572
440,338.8517,4.9062,-0.5973
448,342.986,4.9065,-0.616
456,347.091,4.9044,-0.6287
464,351.1367,4.9029,-0.6371
472,355.088,4.9013,-0.6406
480,358.929,4.9003,-0.6381
488,362.6497,4.8989,-0.6292
496,366.2303,4.8961,-0.6136
504,369.683,4.8947,-0.591
512,372.9953,4.893,-0.5634
520,376.1847,4.8926,-0.5324
528,379.255,4.8922,-0.4994
536,382.2213,4.8889,-0.4671
544,385.0983,4.8891,-0.4368
552,387.897,4.8875,-0.4108
560,390.628,4.8875,-0.388
568,393.3107,4.8876,-0.3693
576,395.957,4.8876,-0.3538
584,398.5747,4.8872,-0.3418
592,401.1753,4.8859,-0.3325
600,403.771,4.8862,-0.3259
608,406.3683,4.8842,-0.321
616,408.9683,4.8842,-0.3175
624,411.581,4.8842,-0.3151
632,414.2077,4.8842,-0.3131
640,416.847,4.8842,-0.3122
648,419.506,4.8829,-0.3132
656,422.1773,4.8802,-0.3144
664,424.863,4.8802,-0.317
672,427.561,4.8788,-0.3196
680,430.269,4.8775,-0.3216
688,432.983,4.8775,-0.3234
696,435.701,4.8752,-0.3251
704,438.4203,4.8748,-0.3261
712,441.136,4.8721,-0.3268
720,443.849,4.8708,-0.3266
728,446.5593,4.8694,-0.3256
736,449.2583,4.8668,-0.3238
744,451.949,4.8658,-0.3222
752,454.6337,4.8641,-0.3214
760,457.3063,4.8613,-0.3228
768,459.975,4.8584,-0.33
776,462.631,4.8547,-0.3236
784,465.283,4.8497,-0.3175
792,467.925,4.8452,-0.3124
800,470.562,4.8416,-0.3094
808,473.196,4.837,-0.3076
816,475.825,4.8299,-0.3058
824,478.4527,4.8244,-0.3042
832,481.079,4.8169,-0.3027
840,483.705,4.8127,-0.301
848,486.331,4.8035,-0.2991
856,488.9617,4.7988,-0.2982
864,491.592,4.7883,-0.2962
872,494.227,4.781,-0.2943
880,496.865,4.7722,-0.2917
888,499.507,4.7649,-0.2888
896,502.1537,4.7554,-0.2849
904,504.8023,4.7453,-0.2823
912,507.455,4.7347,-0.2793
920,510.1083,4.7239,-0.2773
928,512.767,4.7106,-0.2749
936,515.426,4.7002,-0.2728
944,518.085,4.6873,-0.272
952,520.7443,4.6739,-0.2714
960,523.408,4.6565,-0.2715
968,526.0667,4.6416,-0.2727
976,528.7287,4.6246,-0.2738
984,531.389,4.6066,-0.2754
992,534.0497,4.5847,-0.2774
1000,536.7067,4.5641,-0.2797
1008,539.366,4.5431,-0.2824
1016,542.0207,4.5209,-0.2862
1024,544.6763,4.4957,-0.2903
1032,547.329,4.4706,-0.2951
1040,549.986,4.4433,-0.2998
1048,552.6437,4.415,-0.3045
1056,555.299,4.3857,-0.3082
1064,557.9523,4.355,-0.3122
1072,560.6067,4.3212,-0.315
1080,563.262,4.2887,-0.3173
1088,565.9163,4.2557,-0.3189
1096,568.5703,4.2205,-0.3201
1104,571.228,4.1838,-0.3205
1112,573.8843,4.1493,-0.3207
1120,576.5427,4.1125,-0.321
1128,579.205,4.0726,-0.3214
1136,581.865,4.0328,-0.3227
1144,584.5283,3.9916,-0.3247
1152,587.19,3.9501,-0.3281
1160,589.858,3.9061,-0.334
1168,592.522,3.8597,-0.3417
1176,595.188,3.8112,-0.3518
1184,597.8567,3.7607,-0.3641
1192,600.523,3.7069,-0.3785
1200,603.187,3.6501,-0.3949
1208,605.849,3.592,-0.413
1216,608.5097,3.5312,-0.432
1224,611.174,3.4655,-0.4519
1232,613.833,3.3995,-0.472
1240,616.494,3.3312,-0.4917
1248,619.151,3.2604,-0.5102
1256,621.8087,3.188,-0.5283
1264,624.4673,3.1132,-0.5457
1272,627.124,3.0363,-0.5633
1280,629.7833,2.96,-0.582
1288,632.4407,2.8832,-0.6032
1296,635.096,2.8016,-0.6284
1304,637.7523,2.7187,-0.6577
1312,640.41,2.6333,-0.6927
1320,643.065,2.5461,-0.7319
1328,645.7227,2.4582,-0.7761
1336,648.3777,2.3601,-0.8243
1344,651.032,2.262,-0.8735
1352,653.6887,2.1622,-0.9226
1360,656.3437,2.0562,-0.9662
1368,658.999,1.9487,-0.9977
1376,661.6533,1.8437,-1.0108
1384,664.3087,1.7403,-0.9968
1392,666.966,1.6442,-0.9504
1400,669.6253,1.5572,-0.8672
1408,672.2837,1.4853,-0.7525
1416,674.945,1.4295,-0.6183
1424,677.6093,1.3869,-0.4821
1432,680.2767,1.3602,-0.3637
1440,682.947,1.3389,-0.2745
1448,685.6167,1.3251,-0.2151
1456,688.285,1.3136,-0.1789
1464,690.95,1.3026,-0.1566
1472,693.616,1.2939,-0.1431
1480,696.2803,1.2843,-0.135
1488,698.945,1.274,-0.1291
1496,701.604,1.2638,-0.1251
1504,704.265,1.2552,-0.1206
1512,706.924,1.2468,-0.1173
1520,709.5823,1.2364,-0.1161
1528,712.2433,1.2281,-0.116
1536,714.901,1.22,-0.1167
1544,717.558,1.2126,-0.1185
1552,720.217,1.2049,-0.122
1560,722.873,1.1968,-0.1258
1568,725.5333,1.1891,-0.1317
1576,728.1927,1.1812,-0.1382
1584,730.853,1.1745,-0.146
1592,733.511,1.1683,-0.1543
1600,736.171,1.1594,-0.163
1608,738.825,1.1534,-0.1724
1616,741.479,1.1461,-0.1829
1624,744.1333,1.1402,-0.1943
1632,746.786,1.1359,-0.2064
1640,749.4443,1.1299,-0.2188
1648,752.1017,1.1242,-0.2308
1656,754.761,1.1181,-0.2433
1664,757.4217,1.1135,-0.2566
1672,760.0847,1.1088,-0.2679
1680,762.749,1.1056,-0.2795
1688,765.4177,1.1014,-0.2886
1696,768.0847,1.0971,-0.2957
1704,770.753,1.0917,-0.3019
1712,773.4263,1.0903,-0.3091
1720,776.0987,1.0847,-0.3163
1728,778.775,1.0807,-0.3235
1736,781.4507,1.079,-0.3309
1744,784.1237,1.076,-0.3375
1752,786.798,1.0711,-0.3442
1760,789.4746,1.068,-0.3495
1768,792.1473,1.0639,-0.3557
1776,794.821,1.0612,-0.361
1784,797.4963,1.0575,-0.368
1792,800.1733,1.0545,-0.3765
1800,802.849,1.0532,-0.3849
1808,805.5253,1.0493,-0.3915
1816,808.2,1.0473,-0.3978
1824,810.872,1.0425,-0.4044
1832,813.5487,1.0411,-0.4132
1840,816.2223,1.0373,-0.4222
1848,818.892,1.0358,-0.43
1856,821.567,1.0331,-0.4373
1864,824.238,1.0304,-0.4462
1872,826.907,1.0264,-0.4585
1880,829.5773,1.0241,-0.4707
1888,832.2453,1.023,-0.4816
1896,834.908,1.0203,-0.4918
1904,837.574,1.0174,-0.5038
1912,840.2407,1.0144,-0.5192
1920,842.905,1.0123,-0.5351
1928,845.5647,1.0095,-0.5514
1936,848.2247,1.0081,-0.5689
1944,850.883,1.0053,-0.5923
1952,853.546,1.0036,-0.621
1960,856.208,1.0027,-0.6519
1968,858.867,1.0,-0.6845
1976,861.525,0.9986,-0.7165
1984,864.184,0.996,-0.7481
1992,866.839,0.9933,-0.7799
2000,869.495,0.9933,-0.8106
2008,872.148,0.9896,-0.8393
2016,874.804,0.9882,-0.8672
2024,877.4577,0.9856,-0.8942
2032,880.115,0.9856,-0.9066
2040,882.774,0.9829,-0.8794
2048,885.4337,0.9806,-0.8299
2056,888.0923,0.9788,-0.7804
2064,890.756,0.9762,-0.7442
2072,893.4163,0.9762,-0.7219
2080,896.0753,0.9735,-0.7103
2088,898.738,0.9721,-0.7071
2096,901.397,0.9695,-0.7129
2104,904.0624,0.9681,-0.722
2112,906.726,0.9658,-0.7372
2120,909.391,0.9641,-0.7564
2128,912.0596,0.9628,-0.7742
2136,914.729,0.9601,-0.7879
2144,917.3967,0.9614,-0.8001
2152,920.0657,0.9587,-0.8097
2160,922.734,0.9577,-0.8208
2168,925.4053,0.956,-0.8313
2176,928.0787,0.9547,-0.8428
2184,930.752,0.9534,-0.8588
2192,933.424,0.952,-0.8783
2200,936.0993,0.9507,-0.8999
2208,938.773,0.9493,-0.92
2216,941.449,0.9493,-0.9394
2224,944.1233,0.9477,-0.9567
2232,946.798,0.9463,-0.9696
2240,949.4733,0.9463,-0.98
2248,952.1467,0.9436,-0.9887
2256,954.819,0.9423,-0.9999
2264,957.4907,0.9423,-1.0145
2272,960.159,0.9409,-1.0284
2280,962.829,0.9399,-1.0448
2288,965.4967,0.9406,-1.0671
2296,968.1617,0.9376,-1.0973
2304,970.826,0.9376,-1.1277
2312,973.4883,0.9376,-1.1571
2320,976.0903,0.9349,-1.1945
2328,978.421,0.9336,-1.2863
2336,980.331,0.9329,-1.453
2344,981.7543,0.9318,-1.6861
2352,982.679,0.9322,-1.9678
2357,983.001,0.9319,-2.1501