File: Wood/Calibration_Data/TEMPLATE-INSTITUTE-X/INSTITUTE-X_FPA_25kW_r1.csv
time (s),Mass (g),T_back K(),T_front (K)
1,170.134,297.55,299.76
4,169.887,297.42,346.60
7,170.404,297.48,373.25
10,170.296,297.41,393.73
13,170.343,297.46,409.87
16,170.403,297.57,423.65
19,170.416,297.84,435.68
22,170.389,298.35,448.22
25,170.387,299.00,458.50
28,170.357,299.80,468.29
31,170.286,300.94,477.70
34,170.285,302.26,485.64
37,170.273,303.83,493.41
40,170.235,305.53,500.98
43,170.222,307.17,507.92
46,170.186,309.13,514.77
49,170.173,311.25,520.86
52,170.173,313.33,526.88
55,170.155,315.46,531.76
58,170.126,317.52,538.54
61,170.121,319.98,542.92
64,170.110,322.35,548.92
67,170.114,324.95,553.46
70,170.102,327.40,557.97
73,170.101,329.88,563.04
76,170.104,332.39,567.37
79,170.087,335.00,572.01
82,170.071,337.42,577.04
85,170.082,339.96,581.85
88,170.073,342.42,585.55
91,170.042,344.99,589.68
94,170.018,347.45,593.50
97,169.989,350.02,597.18
100,169.990,352.44,600.24
103,170.006,354.99,604.23
106,169.955,357.27,607.31
109,169.927,359.75,610.17
112,169.907,362.13,613.41
115,169.891,364.53,618.18
118,169.849,366.87,622.04
121,169.831,369.11,625.26
124,169.783,371.42,628.92
127,169.779,373.56,631.02
130,169.729,375.61,632.96
133,169.690,377.68,635.46
136,169.674,379.54,638.05
139,169.730,381.23,639.23
142,169.660,382.89,641.63
145,169.636,384.51,642.55
148,169.634,386.08,644.99
151,169.566,387.85,645.14
154,169.521,389.63,645.79
157,169.469,391.26,648.01
160,169.419,393.04,648.88
163,169.361,394.84,648.62
166,169.263,396.60,652.53
169,169.198,398.47,651.69
172,169.081,400.22,649.12
175,168.991,401.81,651.67
178,168.890,403.39,652.07
181,168.805,404.95,652.40
184,168.682,406.50,653.55
187,168.562,407.99,652.88
190,168.459,409.50,656.59
193,168.348,411.07,656.53
196,168.210,412.67,652.94
199,168.089,414.15,658.60
202,167.946,415.69,658.51
205,167.797,417.15,662.05
208,167.670,418.66,654.09
211,167.516,420.00,663.90
214,167.386,421.49,662.31
217,167.238,422.89,657.37
220,167.106,424.25,659.46
223,166.953,425.57,658.15
226,166.801,426.92,664.49
229,166.692,428.22,667.73
232,166.506,429.50,666.75
235,166.339,430.76,665.85
238,166.181,432.03,668.81
241,166.048,433.34,670.33
244,165.905,434.55,670.96
247,165.739,435.72,666.08
250,165.580,436.90,671.46
253,165.405,437.97,670.74
256,165.295,439.07,672.76
259,165.134,440.16,669.36
262,165.026,441.12,673.51
265,164.868,442.04,670.93
268,164.682,442.58,671.44
271,164.493,443.23,674.89
274,164.375,444.09,677.49
277,164.158,445.08,671.05
280,163.990,446.12,675.10
283,163.816,447.08,670.32
286,163.607,448.02,676.36
289,163.421,448.97,673.73
292,163.252,449.89,674.47
295,163.024,450.81,671.74
298,162.794,451.71,673.93
301,162.636,452.58,675.41
304,162.431,453.44,670.42
307,162.299,454.33,680.75
310,162.066,455.16,672.59
313,161.896,456.04,677.12
316,161.686,456.82,678.36
319,161.465,457.61,677.53
322,161.257,458.38,679.45
325,161.037,459.11,676.16
328,160.832,459.98,680.54
331,160.618,460.71,676.40
334,160.409,461.54,677.35
337,160.153,462.30,676.48
340,159.900,463.10,672.67
343,159.682,463.82,677.70
346,159.434,464.59,678.23
349,159.207,465.22,676.02
352,158.977,465.96,671.42
355,158.728,466.69,678.98
358,158.524,467.43,674.37
361,158.277,468.11,679.49
364,158.040,468.78,678.25
367,157.755,469.32,678.63
370,157.538,470.02,676.66
373,157.320,470.62,668.73
376,157.065,471.14,675.81
379,156.843,471.78,673.18
382,156.628,472.35,674.09
385,156.410,472.95,677.55
388,156.133,473.54,673.06
391,155.872,474.21,670.70
394,155.618,474.86,678.36
397,155.360,475.39,674.57
400,155.120,476.09,679.93
403,154.837,476.63,676.92
406,154.596,477.19,674.88
409,154.313,477.57,671.37
412,154.097,478.16,665.00
415,153.822,478.66,661.54
418,153.572,479.00,675.66
421,153.280,479.56,672.89
424,153.075,480.23,672.25
427,152.847,480.80,666.03
430,152.564,481.33,668.82
433,152.320,481.87,674.95
436,152.042,482.49,664.46
439,151.788,483.07,653.20
442,151.465,483.58,651.43
445,151.197,483.95,655.83
448,150.902,484.51,655.56
451,150.602,485.08,667.47
454,150.340,485.46,665.03
457,150.050,485.97,672.01
460,149.754,486.34,663.85
463,149.503,486.71,667.90
466,149.208,487.03,670.63
469,148.902,487.50,660.08
472,148.593,488.07,663.20
475,148.336,488.32,649.75
478,148.050,488.71,665.07
481,147.742,489.34,664.11
484,147.434,489.66,663.80
487,147.178,490.14,660.40
490,146.805,490.48,661.46
493,146.516,490.84,647.20
496,146.197,491.20,648.32
499,145.934,491.55,644.74
502,145.568,491.87,671.09
505,145.294,492.21,653.41
508,144.919,492.44,645.38
511,144.635,492.96,630.85
514,144.302,493.25,661.48
517,144.028,493.76,644.87
520,143.671,494.14,642.46
523,143.351,494.48,641.37
526,142.982,494.99,637.91
529,142.685,495.34,627.79
532,142.307,495.74,636.54
535,142.028,496.15,647.97
538,141.637,496.52,642.73
541,141.280,496.88,634.62
544,140.915,497.13,634.58
547,140.585,497.64,643.54
550,140.302,497.96,642.25
553,139.941,498.36,627.82
556,139.583,498.74,642.64
559,139.149,499.19,628.86
562,138.785,499.64,631.23
565,138.422,499.97,631.95
568,138.141,500.41,634.70
571,137.766,500.94,627.85
574,137.418,501.04,622.56
577,136.999,501.65,631.38
580,136.661,501.92,619.18
583,136.253,502.11,623.63
586,135.927,502.49,632.58
589,135.509,502.83,628.86
592,135.195,503.22,637.99
595,134.765,503.81,631.88
598,134.449,504.25,627.03
601,134.029,504.53,629.40
604,133.715,504.94,632.72
607,133.344,505.38,637.79
610,132.968,505.91,633.07
613,132.589,506.34,619.48
616,132.207,506.67,633.63
619,131.828,507.10,625.76
622,131.476,507.62,628.59
625,131.114,507.99,621.79
628,130.736,508.50,624.30
631,130.393,508.92,627.91
634,129.998,509.40,630.45
637,129.638,509.82,634.25
640,129.291,510.16,641.08
643,128.940,510.66,647.00
646,128.608,511.08,634.83
649,128.272,511.46,649.76
652,127.947,511.86,648.26
655,127.669,512.08,673.93
658,127.419,512.49,692.26
661,127.191,512.77,710.57
664,126.996,513.33,711.34
667,126.820,513.84,711.65
670,126.657,514.20,728.16
673,126.488,514.87,743.02
676,126.386,515.05,745.92
679,126.287,515.51,747.89
682,126.192,515.94,747.04
685,126.115,516.36,754.98
688,126.050,516.69,757.06
691,125.970,517.12,762.19
694,125.928,517.49,763.26
697,125.870,518.05,765.02
700,125.837,518.24,767.48
703,125.796,518.68,767.14
706,125.747,518.95,770.91
709,125.750,519.29,771.12
712,125.694,519.83,775.54
715,125.676,520.27,777.49
718,125.658,520.82,778.86
721,125.640,521.18,781.55
724,125.606,521.43,781.71
727,125.620,522.01,781.98
730,125.586,522.32,780.18
733,125.573,522.85,780.66
736,125.594,523.15,779.91
739,125.575,523.66,782.56
742,125.576,523.89,782.12
745,125.543,524.45,784.00
748,125.538,524.75,783.43
749,125.541,524.97,782.34