File: Wood/Calibration_Data/TEMPLATE-INSTITUTE-X/INSTITUTE-X_Gasification_25kW_r1.csv
time (s),Mass (g),T_back (K)
0,69.100,297.55
5,69.136,297.49
10,69.200,297.51
15,69.151,297.57
20,69.116,298.20
25,69.172,299.25
30,68.955,300.94
35,69.018,303.25
40,69.150,305.94
45,68.951,309.13
50,69.018,312.60
55,69.005,316.02
60,68.876,319.98
65,68.767,324.05
70,68.922,328.24
75,68.961,332.39
80,68.866,336.54
85,69.062,340.74
90,68.874,344.99
95,69.051,349.21
100,68.870,353.26
105,68.739,357.27
110,68.812,361.37
115,68.714,365.30
120,68.744,369.11
125,68.735,372.84
130,68.682,376.33
135,68.656,379.54
140,68.543,382.38
145,68.342,385.06
150,68.406,387.85
155,68.187,390.74
160,68.121,393.67
165,68.233,396.60
170,67.780,399.68
175,67.818,402.38
180,67.603,404.95
185,67.253,407.41
190,67.303,410.03
195,67.102,412.67
200,66.872,415.16
205,66.718,417.65
210,66.439,420.00
215,66.446,422.47
220,65.978,424.70
225,65.882,426.92
230,65.659,429.03
235,65.322,431.22
240,65.103,433.34
245,64.847,435.33
250,64.450,437.22
255,64.475,439.07
260,64.112,440.82
265,63.600,442.33
270,63.565,443.23
275,63.255,444.78
280,62.808,446.41
285,62.444,448.02
290,62.252,449.60
295,61.956,451.15
300,61.593,452.58
305,61.170,454.06
310,60.909,455.49
315,60.441,456.82
320,60.470,458.11
325,60.046,459.40
330,59.614,460.71
335,59.273,462.07
340,58.985,463.33
345,58.573,464.59
350,58.217,465.71
355,57.950,466.88
360,57.406,468.11
365,57.015,469.17
370,56.700,470.18
375,56.302,471.14
380,55.911,472.15
385,55.449,473.12
390,54.982,474.21
395,54.554,475.21
400,54.140,476.26
405,53.806,477.19
410,53.330,477.98
415,52.833,478.78
420,52.488,479.56
425,51.873,480.66
430,51.516,481.65
435,51.050,482.49
440,50.792,483.41
445,50.262,484.17
450,49.830,485.08
455,49.438,485.77
460,48.908,486.41
465,48.522,487.03
470,48.142,487.81
475,47.387,488.45
480,47.050,489.34
485,46.357,489.90
490,46.176,490.64
495,45.767,491.20
500,45.132,491.67
505,44.826,492.25
510,44.226,492.96
515,43.620,493.68
520,43.140,494.23
525,42.871,494.99
530,42.332,495.63
535,41.738,496.25
540,41.392,496.88
545,40.651,497.42
550,40.078,498.10
555,39.751,498.74
560,39.306,499.49
565,38.646,500.05
570,38.168,500.94
575,37.621,501.50
580,37.196,502.08
585,36.623,502.49
590,36.291,503.15
595,35.756,504.01
600,35.077,504.53
605,34.695,505.27
610,34.034,506.01
615,33.627,506.67
620,32.958,507.39
625,32.646,508.02
630,31.947,508.92
635,31.472,509.61
640,30.868,510.29
645,30.290,511.08
650,29.870,511.70
655,29.192,512.28
660,28.661,512.77
665,28.139,513.55
670,27.547,514.47
675,27.070,515.05
680,26.420,515.88
685,25.834,516.46
690,25.474,517.12
695,24.805,517.88
700,24.429,518.33
705,23.865,518.95
710,23.269,519.52
715,22.870,520.51
720,22.298,521.18
725,21.633,521.93
730,21.016,522.49
735,20.368,523.15
740,19.842,523.74
745,19.448,524.58
750,18.873,525.13
755,18.446,526.03
760,17.742,526.38
765,17.273,527.23
770,16.911,528.05
775,16.369,528.77
780,15.616,529.24
785,15.403,529.73
790,14.738,530.68
795,14.521,531.17
800,14.123,531.92
805,13.756,532.62
810,13.302,533.20
815,12.902,533.99
820,12.768,534.65
825,12.276,535.28
830,12.068,535.98
835,11.568,536.37
840,11.409,536.94
845,11.062,537.56
850,10.818,537.95
855,10.533,538.41
860,10.188,539.10
865,9.932,539.48
870,9.711,540.26
875,9.339,540.70
880,9.095,541.06
885,9.013,541.54
890,8.785,542.34
895,8.634,542.59
900,8.267,542.99
905,8.111,543.60
910,7.798,543.90
915,7.726,544.73
920,7.523,545.04
925,7.373,545.37
930,7.072,545.46
935,7.118,545.93
940,6.865,546.17
945,6.744,546.57
950,6.459,546.67
955,6.407,547.23
960,6.196,548.23
965,6.059,549.12
970,5.771,549.66
975,5.547,550.26
980,5.544,551.14
985,5.237,552.22
990,5.140,553.23
995,5.006,553.92
1000,4.704,554.23
1005,4.642,555.13
1010,4.649,556.04
1015,4.439,557.10
1020,4.418,558.34
1025,4.180,559.63
1030,4.158,560.71
1035,3.987,561.53
1040,3.912,562.44
1045,3.804,563.30
1050,3.655,564.29
1055,3.427,565.24
1060,3.402,567.74
1065,3.383,569.95
1070,3.200,571.24
1075,3.157,572.37
1080,3.040,573.92
1085,3.009,574.99
1090,2.921,576.38
1095,2.790,576.87
1100,2.516,578.43
1105,2.540,579.85
1110,2.293,580.13
1115,2.283,581.17
1120,2.302,582.19
1125,2.333,583.33
1130,2.211,584.62
1135,2.020,586.20
1140,2.029,587.81
1145,2.113,588.95
1150,1.851,589.73
1155,1.817,590.94
1160,1.739,591.80
1165,1.753,592.81
1170,1.771,594.79
1175,1.627,596.60
1180,1.596,598.49
1185,1.611,600.12
1190,1.349,601.38
1195,1.321,602.56
1200,1.365,603.09
1205,1.102,604.80
1210,1.220,606.53
1215,0.978,607.68
1220,1.205,608.47
1225,1.177,609.76
1230,1.058,610.98
1235,1.129,612.48
1240,0.987,614.13
1245,0.808,615.00
1250,0.928,616.08
1255,0.843,617.08
1260,0.806,618.53
1265,0.694,619.66
1270,0.708,620.98
1275,0.701,622.44
1280,0.540,623.98
1285,0.548,625.06
1290,0.611,626.60
1295,0.590,627.57
1300,0.563,628.97
1305,0.494,630.01
1310,0.433,631.21
1315,0.507,631.61
1320,0.397,633.69
1325,0.436,634.75
1330,0.475,635.68
1335,0.383,637.17
1340,0.330,637.71
1345,0.198,638.88
1350,0.366,639.69
1355,0.087,640.42
1360,0.071,642.02
1365,0.153,642.95
1370,0.185,644.15
1375,0.051,645.33
1380,0.029,646.41
1385,0.002,647.50
1390,-0.065,648.64
1395,-0.069,650.10
1400,-0.053,650.65
1405,-0.132,651.72
1410,-0.228,652.07
1415,-0.105,653.13
1420,-0.165,653.65
1425,-0.059,654.16
1430,-0.175,654.44
1435,-0.120,655.01
1440,-0.219,655.67
1445,-0.391,656.88
1450,-0.135,657.29
1455,-0.282,657.21
1460,-0.264,658.11
1465,-0.191,658.59
1470,-0.343,658.96
1473,-0.384,659.96
,,
,,
,,
,,
,,
,,
,,
,,
,,
,,
,,
,,
,,
,,
,,
,,
,,
,,
,,
,,
,,
,,
,,
,,
,,
,,
,,
,,
,,
,,
,,
,,
,,
,,
,,
,,
,,
,,
,,
,,
,,
,,
,,
,,
,,
,,
,,
,,
,,
,,
,,
,,
,,
,,
,,
,,
,,
,,
,,
,,
,,
,,
,,
,,
,,
,,
,,
,,
,,
,,
,,
,,
,,
,,
,,
,,
,,
,,
,,
,,
,,
,,
,,
,,
,,
,,
,,
,,
,,
,,
,,
,,
,,
,,
,,
,,
,,
,,
,,
,,
,,
,,
,,
,,
,,
,,
,,
,,
,,
,,
,,
,,
,,
,,
,,
,,
,,
,,
,,
,,
,,
,,
,,
,,
,,
,,
,,
,,
,,
,,
,,
,,
,,
,,
,,
,,
,,
,,
,,
,,
,,
,,
,,
,,
,,
,,
,,
,,
,,
,,
,,
,,
,,
,,
,,
,,
,,
,,
,,
,,
,,
,,
,,
,,
,,
,,
,,
,,
,,
,,
,,
,,
,,
,,
,,
,,
,,
,,
,,
,,
,,
,,
,,
,,
,,
,,
,,
,,
,,
,,
,,
,,
,,
,,
,,
,,
,,
,,
,,
,,
,,
,,
,,
,,
,,
,,
,,
,,
,,
,,
,,
,,
,,
,,
,,
,,
,,
,,
,,
,,
,,
,,
,,
,,
,,
,,
,,
,,
,,
,,
,,
,,
,,
,,
,,
,,
,,
,,
,,
,,
,,
,,
,,
,,
,,
,,
,,
,,
,,
,,
,,
,,
,,
,,
,,
,,
,,
,,
,,
,,
,,
,,
,,
,,
,,
,,
,,
,,
,,
,,
,,
,,
,,
,,
,,
,,
,,
,,
,,
,,
,,
,,
,,
,,
,,
,,
,,
,,
,,
,,
,,
,,
,,
,,
,,
,,
,,
,,
,,
,,
,,
,,
,,
,,
,,
,,
,,
,,
,,
,,
,,
,,
,,
,,
,,
,,
,,
,,
,,
,,
,,
,,
,,
,,
,,
,,
,,
,,
,,
,,
,,
,,