File: Wood/Calibration_Data/TEMPLATE-INSTITUTE-X/INSTITUTE-X_Cone_25kW_hor_r1.csv
time (s),Mass (g),HRR (kW/m2)
0,154.469,-0.552
3,154.563,-0.541
6,154.610,0.110
9,154.684,0.980
12,154.854,1.049
15,154.642,0.834
18,154.924,0.510
21,154.855,-2.355
24,154.672,-0.543
27,154.740,-1.435
30,154.952,-0.334
33,154.712,-0.252
36,154.780,1.104
39,154.930,-0.883
42,154.602,-1.900
45,155.008,1.032
48,154.878,-2.640
51,154.820,-0.069
54,154.670,-0.235
57,154.871,-1.147
60,154.674,-0.789
63,154.902,-1.963
66,154.744,-1.363
69,154.762,-0.809
72,154.795,-0.677
75,154.776,-0.670
78,154.630,0.449
81,154.766,-1.141
84,155.006,-0.874
87,154.617,-0.781
90,154.672,0.125
93,154.849,-3.231
96,154.813,-3.993
99,154.634,-3.868
102,154.574,-2.388
105,154.776,-1.266
108,154.807,-0.142
111,154.562,1.942
114,154.493,29.782
117,154.472,99.126
120,154.180,169.396
123,153.787,232.662
126,153.527,272.424
129,152.946,316.667
132,152.633,366.233
135,152.224,380.512
138,151.668,404.188
141,151.241,407.751
144,150.646,417.529
147,150.272,417.950
150,149.797,424.071
153,149.029,422.478
156,148.631,431.977
159,148.218,436.072
162,147.405,430.457
165,147.086,435.779
168,146.444,436.480
171,145.959,432.414
174,145.467,429.421
177,144.761,435.192
180,144.538,443.842
183,143.691,449.160
186,143.318,445.567
189,142.695,448.518
192,142.162,450.448
195,141.441,452.896
198,140.901,458.322
201,140.334,462.986
204,139.936,465.177
207,139.330,477.205
210,138.701,474.903
213,138.262,481.479
216,137.458,488.284
219,136.973,493.424
222,136.341,499.795
225,135.630,512.150
228,135.040,506.281
231,134.257,514.001
234,133.700,519.815
237,133.009,519.963
240,132.402,534.921
243,131.711,539.995
246,131.296,553.120
249,130.403,548.158
252,129.576,557.946
255,128.938,562.878
258,128.267,570.431
261,127.523,584.120
264,126.773,581.242
267,125.943,588.044
270,125.333,594.240
273,124.628,601.113
276,123.923,607.689
279,123.223,609.173
282,122.416,609.168
285,121.688,603.440
288,120.756,620.767
291,120.322,622.306
294,119.435,616.446
297,118.555,624.611
300,117.789,625.771
303,117.080,626.645
306,116.345,632.462
309,115.594,643.400
312,114.576,641.708
315,113.999,651.401
318,113.129,656.254
321,112.249,651.883
324,111.596,664.026
327,110.740,649.079
330,109.798,652.951
333,109.081,663.458
336,108.154,665.955
339,107.419,689.590
342,106.709,680.508
345,105.742,693.030
348,104.944,694.737
351,104.097,685.898
354,103.019,702.146
357,102.382,695.621
360,101.438,705.842
363,100.674,709.158
366,99.851,705.665
369,98.900,710.725
372,98.097,700.347
375,97.223,690.285
378,96.344,671.325
381,95.594,661.689
384,94.700,654.713
387,93.869,654.547
390,93.323,633.522
393,92.355,626.905
396,91.543,603.178
399,90.856,608.210
402,90.094,616.008
405,89.282,573.222
408,88.792,518.729
411,88.410,485.929
414,87.683,439.844
417,87.338,363.909
420,86.764,302.084
423,86.643,263.322
426,86.247,165.574
429,86.191,121.564
432,85.950,71.412
435,86.141,40.516
438,85.996,9.966
441,86.042,0.791
444,85.981,-5.044
447,86.168,-5.300
450,85.970,-2.470
453,85.913,-2.392
456,85.936,-1.272
459,85.979,-2.053
462,86.141,-1.400
465,85.897,-1.845
468,86.079,-1.829
471,85.984,-1.605
474,85.920,-1.217
477,86.105,-0.704
480,86.001,-0.863
483,85.988,-0.867
486,85.872,-1.339
489,85.845,1.723
492,86.058,-0.641
495,85.998,0.240
498,86.095,-0.641
501,86.005,-3.548
504,86.064,-2.400
507,85.854,-13.634
510,86.055,-2.775
513,85.983,0.069
516,85.895,0.927
519,86.166,-0.390
522,86.028,-0.051
525,85.813,-0.027
528,86.025,-0.923
531,86.015,-1.748
534,86.134,-1.149
537,85.945,-2.488
540,86.042,-4.077
543,85.970,-3.969
546,86.209,-1.410
549,86.015,0.462
552,86.083,1.038
555,86.116,-3.112
558,85.756,-3.027
561,86.072,-0.881
564,86.067,-1.636
567,86.062,-2.460
570,85.910,-0.071
573,85.948,-0.449
576,86.006,-1.204
579,85.809,0.114
582,86.063,0.374
585,85.950,-0.593
588,85.890,-2.394
591,85.904,-0.416
594,86.021,-0.272
597,85.868,-0.187
600,86.011,0.492