File: Wood/Calibration_Data/TEMPLATE-INSTITUTE-X/INSTITUTE-X_TGA_N2_10K_r1.csv
time (s),Temperature (K),Mass (mg)
0,325,4.975
20,327,4.975
36.4,329,4.974
51.3,331,4.974
65.4,333,4.975
78.9,335,4.975
92.4,337,4.974
105.5,339,4.974
118.5,341,4.975
131.4,343,4.974
144.2,345,4.973
156.9,347,4.974
169.5,349,4.974
182,351,4.974
194.4,353,4.974
206.7,355,4.974
219,357,4.974
231.2,359,4.974
243.4,361,4.974
255.4,363,4.973
267.4,365,4.972
279.4,367,4.972
291.3,369,4.973
303.2,371,4.973
315.1,373,4.973
326.9,375,4.974
338.7,377,4.973
350.5,379,4.973
362.2,381,4.972
374,383,4.970
385.7,385,4.970
397.4,387,4.971
409.1,389,4.972
420.9,391,4.971
432.6,393,4.969
444.3,395,4.969
455.9,397,4.970
467.6,399,4.969
479.3,401,4.969
490.9,403,4.968
502.6,405,4.967
514.1,407,4.966
525.9,409,4.965
537.4,411,4.964
549.1,413,4.964
560.7,415,4.964
572.3,417,4.963
583.9,419,4.962
595.5,421,4.962
607,423,4.961
618.6,425,4.960
630.1,427,4.959
641.6,429,4.958
653.2,431,4.956
664.7,433,4.954
676.3,435,4.951
687.8,437,4.949
699.3,439,4.948
710.9,441,4.946
722.4,443,4.942
733.9,445,4.940
745.4,447,4.937
757,449,4.933
768.5,451,4.929
780,453,4.926
791.5,455,4.922
803,457,4.918
814.5,459,4.912
826,461,4.907
837.4,463,4.901
848.9,465,4.897
860.4,467,4.891
871.9,469,4.886
883.4,471,4.882
894.9,473,4.877
906.3,475,4.873
917.8,477,4.867
929.3,479,4.863
940.8,481,4.858
952.3,483,4.853
963.8,485,4.847
975.2,487,4.842
986.7,489,4.838
998.1,491,4.834
1009.6,493,4.832
1021,495,4.830
1032.5,497,4.827
1043.9,499,4.824
1055.3,501,4.823
1066.7,503,4.822
1078.2,505,4.820
1089.6,507,4.819
1101.1,509,4.819
1112.6,511,4.819
1124,513,4.817
1135.5,515,4.815
1146.9,517,4.813
1158.4,519,4.812
1169.9,521,4.812
1181.3,523,4.811
1192.8,525,4.810
1204.2,527,4.807
1215.6,529,4.805
1227.1,531,4.803
1238.6,533,4.802
1250,535,4.801
1261.5,537,4.797
1273,539,4.793
1284.5,541,4.790
1296,543,4.787
1307.4,545,4.784
1319,547,4.778
1330.4,549,4.773
1341.9,551,4.768
1353.4,553,4.762
1364.8,555,4.757
1376.3,557,4.750
1387.9,559,4.743
1399.4,561,4.734
1410.9,563,4.725
1422.4,565,4.716
1433.9,567,4.707
1445.4,569,4.698
1456.9,571,4.688
1468.4,573,4.677
1480,575,4.664
1491.5,577,4.651
1503,579,4.638
1514.5,581,4.624
1526,583,4.608
1537.4,585,4.592
1548.9,587,4.575
1560.4,589,4.558
1571.9,591,4.536
1583.5,593,4.511
1595.1,595,4.484
1606.7,597,4.454
1618.3,599,4.419
1629.9,601,4.381
1641.6,603,4.338
1653.2,605,4.288
1664.9,607,4.232
1676.6,609,4.170
1688.2,611,4.100
1699.9,613,4.022
1711.7,615,3.935
1723.3,617,3.838
1735,619,3.731
1746.8,621,3.615
1758.6,623,3.489
1770.4,625,3.353
1782.2,627,3.206
1793.9,629,3.051
1805.6,631,2.889
1817.4,633,2.721
1829.1,635,2.548
1840.9,637,2.372
1852.6,639,2.195
1864.3,641,2.020
1876,643,1.850
1887.6,645,1.683
1899.3,647,1.518
1910.9,649,1.361
1922.5,651,1.213
1934.1,653,1.074
1945.7,655,0.945
1957.3,657,0.826
1968.9,659,0.718
1980.4,661,0.620
1991.9,663,0.533
2003.5,665,0.456
2015.1,667,0.389
2026.8,669,0.331
2038.4,671,0.282
2050,673,0.241
2061.6,675,0.204
2073.3,677,0.174
2084.9,679,0.151
2096.6,681,0.132
2108.3,683,0.115
2119.9,685,0.101
2131.5,687,0.091
2143.2,689,0.082
2154.9,691,0.075
2166.6,693,0.071
2178.3,695,0.066
2190,697,0.062
2201.9,699,0.060
2213.7,701,0.058
2225.5,703,0.056
2237.3,705,0.055
2249.2,707,0.054
2261.1,709,0.054
2272.9,711,0.055
2284.8,713,0.054
2296.6,715,0.053
2308.5,717,0.053
2320.3,719,0.051
2332.2,721,0.051
2344,723,0.051
2355.8,725,0.052
2367.6,727,0.053
2379.4,729,0.053
2391.3,731,0.052
2403.1,733,0.052
2414.9,735,0.052
2426.8,737,0.052
2438.6,739,0.051
2450.4,741,0.051
2462.2,743,0.052
2474.1,745,0.051
2485.9,747,0.050
2497.7,749,0.050
2509.5,751,0.051
2521.4,753,0.052
2533.2,755,0.051
2545,757,0.050
2556.8,759,0.050
2568.6,761,0.051
2580.5,763,0.051
2592.4,765,0.050
2604.3,767,0.049
2616.2,769,0.050
2628,771,0.051
2639.9,773,0.050
2651.8,775,0.048
2663.8,777,0.047
2675.7,779,0.048
2687.6,781,0.049
2699.5,783,0.050
2711.4,785,0.049
2723.4,787,0.049
2735.3,789,0.049
2747.2,791,0.049
2759,793,0.049
2770.9,795,0.049
2782.8,797,0.049
2794.8,799,0.049
2806.6,801,0.048
2818.5,803,0.048
2830.4,805,0.048
2842.3,807,0.049
2854.2,809,0.049
2866.1,811,0.050
2878.1,813,0.049
2890,815,0.049
2902,817,0.048
2914.1,819,0.049
2926.1,821,0.048
2932.1,822,0.048