File: Wood/Calibration_Data/TEMPLATE-INSTITUTE-X/INSTITUTE-X_TGA_N2_10K_r2.csv
time (s),Temperature (K),Mass (mg)
0,324,5.000
20,326,5.000
36.4,328,4.999
51.3,330,4.999
65.4,332,5.000
78.9,334,5.000
92.4,336,4.999
105.5,338,4.999
118.5,340,5.000
131.4,342,4.999
144.2,344,4.998
156.9,346,4.999
169.5,348,4.999
182,350,4.999
194.4,352,4.999
206.7,354,4.999
219,356,4.999
231.2,358,4.999
243.4,360,4.999
255.4,362,4.998
267.4,364,4.997
279.4,366,4.997
291.3,368,4.998
303.2,370,4.998
315.1,372,4.998
326.9,374,4.999
338.7,376,4.998
350.5,378,4.998
362.2,380,4.997
374,382,4.995
385.7,384,4.995
397.4,386,4.996
409.1,388,4.997
420.9,390,4.996
432.6,392,4.994
444.3,394,4.994
455.9,396,4.995
467.6,398,4.994
479.3,400,4.994
490.9,402,4.993
502.6,404,4.992
514.1,406,4.991
525.9,408,4.990
537.4,410,4.989
549.1,412,4.989
560.7,414,4.989
572.3,416,4.988
583.9,418,4.987
595.5,420,4.987
607,422,4.986
618.6,424,4.985
630.1,426,4.984
641.6,428,4.983
653.2,430,4.981
664.7,432,4.979
676.3,434,4.976
687.8,436,4.974
699.3,438,4.973
710.9,440,4.971
722.4,442,4.967
733.9,444,4.965
745.4,446,4.962
757,448,4.958
768.5,450,4.954
780,452,4.951
791.5,454,4.947
803,456,4.943
814.5,458,4.937
826,460,4.932
837.4,462,4.926
848.9,464,4.923
860.4,466,4.917
871.9,468,4.912
883.4,470,4.908
894.9,472,4.903
906.3,474,4.899
917.8,476,4.893
929.3,478,4.889
940.8,480,4.884
952.3,482,4.879
963.8,484,4.873
975.2,486,4.868
986.7,488,4.864
998.1,490,4.860
1009.6,492,4.858
1021,494,4.856
1032.5,496,4.853
1043.9,498,4.850
1055.3,500,4.849
1066.7,502,4.848
1078.2,504,4.846
1089.6,506,4.845
1101.1,508,4.845
1112.6,510,4.845
1124,512,4.843
1135.5,514,4.841
1146.9,516,4.839
1158.4,518,4.838
1169.9,520,4.838
1181.3,522,4.837
1192.8,524,4.836
1204.2,526,4.833
1215.6,528,4.831
1227.1,530,4.829
1238.6,532,4.828
1250,534,4.827
1261.5,536,4.823
1273,538,4.819
1284.5,540,4.816
1296,542,4.813
1307.4,544,4.810
1319,546,4.804
1330.4,548,4.799
1341.9,550,4.794
1353.4,552,4.788
1364.8,554,4.783
1376.3,556,4.776
1387.9,558,4.769
1399.4,560,4.760
1410.9,562,4.751
1422.4,564,4.742
1433.9,566,4.733
1445.4,568,4.725
1456.9,570,4.715
1468.4,572,4.704
1480,574,4.691
1491.5,576,4.678
1503,578,4.665
1514.5,580,4.651
1526,582,4.635
1537.4,584,4.619
1548.9,586,4.602
1560.4,588,4.585
1571.9,590,4.563
1583.5,592,4.538
1595.1,594,4.512
1606.7,596,4.482
1618.3,598,4.447
1629.9,600,4.409
1641.6,602,4.366
1653.2,604,4.317
1664.9,606,4.261
1676.6,608,4.199
1688.2,610,4.130
1699.9,612,4.052
1711.7,614,3.965
1723.3,616,3.869
1735,618,3.762
1746.8,620,3.647
1758.6,622,3.522
1770.4,624,3.386
1782.2,626,3.240
1793.9,628,3.086
1805.6,630,2.925
1817.4,632,2.757
1829.1,634,2.585
1840.9,636,2.410
1852.6,638,2.234
1864.3,640,2.060
1876,642,1.891
1887.6,644,1.725
1899.3,646,1.560
1910.9,648,1.404
1922.5,650,1.257
1934.1,652,1.119
1945.7,654,0.990
1957.3,656,0.872
1968.9,658,0.764
1980.4,660,0.667
1991.9,662,0.580
2003.5,664,0.504
2015.1,666,0.437
2026.8,668,0.379
2038.4,670,0.331
2050,672,0.290
2061.6,674,0.253
2073.3,676,0.223
2084.9,678,0.200
2096.6,680,0.181
2108.3,682,0.164
2119.9,684,0.150
2131.5,686,0.141
2143.2,688,0.132
2154.9,690,0.125
2166.6,692,0.121
2178.3,694,0.116
2190,696,0.112
2201.9,698,0.110
2213.7,700,0.108
2225.5,702,0.106
2237.3,704,0.105
2249.2,706,0.104
2261.1,708,0.104
2272.9,710,0.105
2284.8,712,0.104
2296.6,714,0.103
2308.5,716,0.103
2320.3,718,0.101
2332.2,720,0.101
2344,722,0.101
2355.8,724,0.102
2367.6,726,0.103
2379.4,728,0.103
2391.3,730,0.102
2403.1,732,0.102
2414.9,734,0.102
2426.8,736,0.102
2438.6,738,0.101
2450.4,740,0.101
2462.2,742,0.102
2474.1,744,0.101
2485.9,746,0.100
2497.7,748,0.100
2509.5,750,0.101
2521.4,752,0.102
2533.2,754,0.101
2545,756,0.100
2556.8,758,0.100
2568.6,760,0.101
2580.5,762,0.101
2592.4,764,0.100
2604.3,766,0.099
2616.2,768,0.100
2628,770,0.101
2639.9,772,0.100
2651.8,774,0.098
2663.8,776,0.097
2675.7,778,0.098
2687.6,780,0.099
2699.5,782,0.100
2711.4,784,0.099
2723.4,786,0.099
2735.3,788,0.099
2747.2,790,0.099
2759,792,0.099
2770.9,794,0.099
2782.8,796,0.099
2794.8,798,0.099
2806.6,800,0.098
2818.5,802,0.098
2830.4,804,0.098
2842.3,806,0.099
2854.2,808,0.099
2866.1,810,0.100
2878.1,812,0.099
2890,814,0.099
2902,816,0.098
2914.1,818,0.099
2926.1,820,0.098
2932.1,821,0.098