File: Wood/Calibration_Data/TEMPLATE-INSTITUTE-X/INSTITUTE-X_MCC_N2_60K_r2.csv
Time (s),Temperature (K),HRR (W/g),m2
0,373.8,-0.09,
1.5,375.04,0.01,
3,376.31,-0.01,
4.5,377.64,-0.12,
6,378.97,-0.17,
7.5,380.32,-0.22,
9,381.63,-0.20,
10.5,383.07,-0.18,
12,384.49,-0.12,
13.5,385.92,-0.06,
15,387.35,0.01,
16.5,388.79,0.13,
18,390.26,0.24,
19.5,391.74,0.29,
21,393.25,0.40,
22.5,394.75,0.43,
24,396.26,0.52,
25.5,397.82,0.56,
27,399.37,0.67,
28.5,400.88,0.80,
30,402.45,0.94,
31.5,404.03,1.09,
33,405.64,1.23,
34.5,407.27,1.38,
36,408.82,1.55,
37.5,410.42,1.69,
39,412.04,1.84,
40.5,413.64,1.95,
42,415.3,2.09,
43.5,416.98,2.22,
45,418.57,2.39,
46.5,420.18,2.61,
48,421.82,2.87,
49.5,423.47,3.13,
51,425.11,3.39,
52.5,426.72,3.67,
54,428.36,4.07,
55.5,430.05,4.46,
57,431.68,4.95,
58.5,433.33,5.43,
60,434.97,6.04,
61.5,436.62,6.68,
63,438.24,7.46,
64.5,439.88,8.30,
66,441.54,9.18,
67.5,443.16,10.12,
69,444.79,11.12,
70.5,446.46,12.16,
72,448.11,13.19,
73.5,449.75,14.23,
75,451.36,15.20,
76.5,452.98,16.12,
78,454.59,16.93,
79.5,456.19,17.65,
81,457.82,18.24,
82.5,459.44,18.69,
84,461.05,19.03,
85.5,462.64,19.20,
87,464.27,19.22,
88.5,465.85,19.06,
90,467.45,18.73,
91.5,469.06,18.28,
93,470.64,17.73,
94.5,472.2,17.21,
96,473.78,16.67,
97.5,475.4,16.23,
99,476.96,15.83,
100.5,478.54,15.54,
102,480.15,15.36,
103.5,481.69,15.30,
105,483.27,15.32,
106.5,484.87,15.43,
108,486.42,15.53,
109.5,487.95,15.61,
111,489.58,15.61,
112.5,491.15,15.45,
114,492.66,15.10,
115.5,494.22,14.49,
117,495.74,13.68,
118.5,497.29,12.63,
120,498.78,11.45,
121.5,500.33,10.08,
123,501.85,8.69,
124.5,503.35,7.29,
126,504.9,6.03,
127.5,506.43,4.97,
129,507.96,4.14,
130.5,509.43,3.46,
132,510.92,2.91,
133.5,512.39,2.53,
135,513.9,2.29,
136.5,515.37,2.16,
138,516.89,2.08,
139.5,518.34,2.09,
141,519.85,2.11,
142.5,521.35,2.13,
144,522.84,2.17,
145.5,524.3,2.26,
147,525.79,2.42,
148.5,527.28,2.56,
150,528.73,2.73,
151.5,530.23,2.88,
153,531.72,3.09,
154.5,533.21,3.34,
156,534.67,3.65,
157.5,536.14,3.95,
159,537.6,4.30,
160.5,539.06,4.69,
162,540.52,5.09,
163.5,542.02,5.53,
165,543.51,5.97,
166.5,544.97,6.46,
168,546.48,6.95,
169.5,547.88,7.46,
171,549.34,8.06,
172.5,550.82,8.74,
174,552.37,9.54,
175.5,553.81,10.43,
177,555.25,11.34,
178.5,556.71,12.36,
180,558.22,13.47,
181.5,559.67,14.63,
183,561.13,15.78,
184.5,562.61,16.92,
186,564.12,18.08,
187.5,565.54,19.23,
189,567,20.42,
190.5,568.5,21.63,
192,569.96,22.86,
193.5,571.39,24.04,
195,572.94,25.17,
196.5,574.38,26.25,
198,575.88,27.23,
199.5,577.34,28.09,
201,578.81,28.89,
202.5,580.24,29.71,
204,581.76,30.55,
205.5,583.23,31.43,
207,584.71,32.35,
208.5,586.18,33.41,
210,587.66,34.55,
211.5,589.14,35.88,
213,590.61,37.42,
214.5,592.12,39.23,
216,593.55,41.27,
217.5,595.06,43.60,
219,596.54,46.25,
220.5,598.06,49.26,
222,599.53,52.62,
223.5,601.03,56.37,
225,602.48,60.53,
226.5,604.05,65.06,
228,605.5,70.00,
229.5,606.96,75.31,
231,608.5,81.08,
232.5,609.92,87.20,
234,611.48,93.76,
235.5,613.01,100.78,
237,614.53,108.20,
238.5,616.01,116.09,
240,617.5,124.31,
241.5,618.99,132.89,
243,620.46,141.71,
244.5,621.97,150.75,
246,623.48,159.96,
247.5,624.96,169.29,
249,626.44,178.72,
250.5,627.91,188.15,
252,629.43,197.52,
253.5,630.91,206.96,
255,632.39,216.42,
256.5,633.82,225.90,
258,635.29,235.16,
259.5,636.75,244.40,
261,638.28,253.76,
262.5,639.72,263.43,
264,641.2,273.44,
265.5,642.65,283.61,
267,644.16,293.47,
268.5,645.61,302.65,
270,647.07,310.84,
271.5,648.53,317.92,
273,650.03,324.47,
274.5,651.54,330.45,
276,653.01,335.37,
277.5,654.51,338.45,
279,655.95,339.88,
280.5,657.43,340.05,
282,658.9,338.70,
283.5,660.39,335.45,
285,661.89,330.19,
286.5,663.36,323.52,
288,664.9,315.88,
289.5,666.4,307.38,
291,667.88,297.84,
292.5,669.39,287.23,
294,670.92,275.94,
295.5,672.44,264.11,
297,673.94,251.98,
298.5,675.44,239.76,
300,676.99,227.53,
301.5,678.58,215.19,
303,680.11,202.55,
304.5,681.68,189.34,
306,683.24,175.65,
307.5,684.79,161.70,
309,686.37,148.04,
310.5,687.93,134.87,
312,689.51,122.39,
313.5,691.08,110.70,
315,692.61,99.78,
316.5,694.26,89.74,
318,695.81,80.44,
319.5,697.38,71.90,
321,698.93,64.03,
322.5,700.47,56.81,
324,702.08,50.27,
325.5,703.62,44.38,
327,705.18,39.14,
328.5,706.74,34.48,
330,708.28,30.30,
331.5,709.81,26.50,
333,711.38,23.09,
334.5,712.86,20.10,
336,714.48,17.50,
337.5,716,15.16,
339,717.55,13.12,
340.5,719.05,11.29,
342,720.57,9.59,
343.5,722.06,7.86,
345,723.6,6.18,
346.5,725.1,4.61,
348,726.61,3.28,
349.5,728.08,2.19,
351,729.6,1.42,
352.5,731.06,0.87,
354,732.53,0.49,
355.5,734.03,0.26,
357,735.55,0.15,
358.5,737,0.11,
360,738.42,0.12,
361.5,739.97,0.06,
363,741.4,0.03,
364.5,742.88,-0.03,
366,744.33,-0.07,
367.5,745.81,-0.09,
369,747.27,-0.09,
370.5,748.73,-0.07,
372,750.2,-0.10,
373.5,751.7,-0.15,
375,753.11,-0.16,
376.5,754.57,-0.07,
378,756,0.02,
379.5,757.46,0.08,
381,758.91,0.06,
382.5,760.38,-0.01,
384,761.82,-0.12,
385.5,763.32,-0.21,
387,764.77,-0.21,
388.5,766.27,-0.14,
390,767.73,-0.07,
391.5,769.2,-0.04,
393,770.65,-0.08,
394.5,772.14,-0.13,
396,773.63,-0.16,
397.5,775.13,-0.16,
399,776.6,-0.12,
400.5,778.08,-0.10,
402,779.55,-0.09,
403.5,781.02,-0.10,
405,782.51,-0.11,
406.5,783.98,-0.09,
408,785.44,-0.08,
409.5,786.92,-0.07,
411,788.44,-0.10,
412.5,789.88,-0.15,
414,791.36,-0.18,
415.5,792.88,-0.18,
417,794.37,-0.17,
418.5,795.84,-0.14,
420,797.34,-0.10,
421.5,798.84,-0.08,
423,800.38,-0.02,
424.5,801.87,-0.01,
426,803.38,0.02,
427.5,804.88,-0.05,
429,806.39,-0.02,
430.5,807.9,0.00,
432,809.42,0.06,
433.5,810.95,0.10,
435,812.41,0.11,
436.5,813.96,0.09,
438,815.49,0.07,
439.5,817.02,0.05,
441,818.52,0.03,
442.5,820.06,-0.01,
444,821.57,-0.07,
445.5,823.07,-0.07,
447,824.56,-0.07,