File: Wood/Calibration_Data/TEMPLATE-INSTITUTE-X/INSTITUTE-X_ControlledCone_O2-0_25kW_hor_R1.csv
Time (s),Mass (g)
1,170.134
4,169.887
7,170.404
10,170.296
13,170.343
16,170.403
19,170.416
22,170.389
25,170.387
28,170.357
31,170.286
34,170.285
37,170.273
40,170.235
43,170.222
46,170.186
49,170.173
52,170.173
55,170.155
58,170.126
61,170.121
64,170.11
67,170.114
70,170.102
73,170.101
76,170.104
79,170.087
82,170.071
85,170.082
88,170.073
91,170.042
94,170.018
97,169.989
100,169.99
103,170.006
106,169.955
109,169.927
112,169.907
115,169.891
118,169.849
121,169.831
124,169.783
127,169.779
130,169.729
133,169.69
136,169.674
139,169.73
142,169.66
145,169.636
148,169.634
151,169.566
154,169.521
157,169.469
160,169.419
163,169.361
166,169.263
169,169.198
172,169.081
175,168.991
178,168.89
181,168.805
184,168.682
187,168.562
190,168.459
193,168.348
196,168.21
199,168.089
202,167.946
205,167.797
208,167.67
211,167.516
214,167.386
217,167.238
220,167.106
223,166.953
226,166.801
229,166.692
232,166.506
235,166.339
238,166.181
241,166.048
244,165.905
247,165.739
250,165.58
253,165.405
256,165.295
259,165.134
262,165.026
265,164.868
268,164.682
271,164.493
274,164.375
277,164.158
280,163.99
283,163.816
286,163.607
289,163.421
292,163.252
295,163.024
298,162.794
301,162.636
304,162.431
307,162.299
310,162.066
313,161.896
316,161.686
319,161.465
322,161.257
325,161.037
328,160.832
331,160.618
334,160.409
337,160.153
340,159.9
343,159.682
346,159.434
349,159.207
352,158.977
355,158.728
358,158.524
361,158.277
364,158.04
367,157.755
370,157.538
373,157.32
376,157.065
379,156.843
382,156.628
385,156.41
388,156.133
391,155.872
394,155.618
397,155.36
400,155.12
403,154.837
406,154.596
409,154.313
412,154.097
415,153.822
418,153.572
421,153.28
424,153.075
427,152.847
430,152.564
433,152.32
436,152.042
439,151.788
442,151.465
445,151.197
448,150.902
451,150.602
454,150.34
457,150.05
460,149.754
463,149.503
466,149.208
469,148.902
472,148.593
475,148.336
478,148.05
481,147.742
484,147.434
487,147.178
490,146.805
493,146.516
496,146.197
499,145.934
502,145.568
505,145.294
508,144.919
511,144.635
514,144.302
517,144.028
520,143.671
523,143.351
526,142.982
529,142.685
532,142.307
535,142.028
538,141.637
541,141.28
544,140.915
547,140.585
550,140.302
553,139.941
556,139.583
559,139.149
562,138.785
565,138.422
568,138.141
571,137.766
574,137.418
577,136.999
580,136.661
583,136.253
586,135.927
589,135.509
592,135.195
595,134.765
598,134.449
601,134.029
604,133.715
607,133.344
610,132.968
613,132.589
616,132.207
619,131.828
622,131.476
625,131.114
628,130.736
631,130.393
634,129.998
637,129.638
640,129.291
643,128.94
646,128.608
649,128.272
652,127.947
655,127.669
658,127.419
661,127.191
664,126.996
667,126.82
670,126.657
673,126.488
676,126.386
679,126.287
682,126.192
685,126.115
688,126.05
691,125.97
694,125.928
697,125.87
700,125.837
703,125.796
706,125.747
709,125.75
712,125.694
715,125.676
718,125.658
721,125.64
724,125.606
727,125.62
730,125.586
733,125.573
736,125.594
739,125.575
742,125.576
745,125.543
748,125.538
749,125.541