File: Wood/Calibration_Data/TEMPLATE-INSTITUTE-X/INSTITUTE-X_TGA_N2_20K_r1.csv
time (s),Temperature (K),Mass (mg)
0,325,4.947
11.9,327,4.947
21.7,329,4.946
30.4,331,4.946
38.4,333,4.947
45.9,335,4.946
53.1,337,4.946
60,339,4.946
66.8,341,4.946
73.5,343,4.946
80.1,345,4.946
86.6,347,4.945
93,349,4.946
99.4,351,4.946
105.8,353,4.946
112.1,355,4.945
118.4,357,4.946
124.7,359,4.945
130.9,361,4.945
137.1,363,4.944
143.3,365,4.943
149.4,367,4.943
155.5,369,4.943
161.6,371,4.943
167.7,373,4.942
173.8,375,4.942
179.8,377,4.942
185.8,379,4.942
191.9,381,4.942
197.8,383,4.942
203.8,385,4.941
209.8,387,4.940
215.8,389,4.940
221.7,391,4.940
227.7,393,4.940
233.6,395,4.939
239.5,397,4.939
245.3,399,4.939
251.2,401,4.939
257.1,403,4.939
262.9,405,4.938
268.7,407,4.938
274.5,409,4.937
280.3,411,4.937
286.1,413,4.937
291.9,415,4.937
297.6,417,4.935
303.4,419,4.934
309.1,421,4.933
314.8,423,4.933
320.5,425,4.932
326.3,427,4.931
332,429,4.930
337.7,431,4.929
343.4,433,4.928
349,435,4.926
354.7,437,4.924
360.4,439,4.923
366.1,441,4.921
371.8,443,4.919
377.4,445,4.917
383.1,447,4.915
388.8,449,4.913
394.5,451,4.910
400.1,453,4.907
405.8,455,4.903
411.4,457,4.899
417.1,459,4.894
422.7,461,4.889
428.4,463,4.883
434,465,4.878
439.6,467,4.872
445.2,469,4.868
450.8,471,4.862
456.4,473,4.857
462,475,4.851
467.6,477,4.846
473.2,479,4.841
478.8,481,4.837
484.4,483,4.833
490,485,4.828
495.6,487,4.825
501.2,489,4.820
506.7,491,4.815
512.3,493,4.809
517.9,495,4.805
523.5,497,4.800
529.1,499,4.796
534.7,501,4.792
540.3,503,4.789
545.9,505,4.786
551.4,507,4.784
557,509,4.782
562.6,511,4.780
568.2,513,4.779
573.7,515,4.778
579.3,517,4.776
584.9,519,4.775
590.5,521,4.775
596,523,4.774
601.6,525,4.773
607.2,527,4.772
612.8,529,4.771
618.3,531,4.769
623.9,533,4.767
629.5,535,4.766
635.1,537,4.764
640.7,539,4.763
646.3,541,4.761
651.8,543,4.759
657.4,545,4.757
663,547,4.756
668.6,549,4.753
674.2,551,4.749
679.8,553,4.745
685.4,555,4.742
691,557,4.738
696.6,559,4.733
702.2,561,4.728
707.8,563,4.723
713.4,565,4.717
719,567,4.710
724.6,569,4.704
730.2,571,4.697
735.8,573,4.689
741.4,575,4.680
747,577,4.671
752.6,579,4.661
758.2,581,4.651
763.9,583,4.640
769.5,585,4.629
775.1,587,4.617
780.7,589,4.605
786.4,591,4.591
792,593,4.575
797.6,595,4.559
803.2,597,4.544
808.9,599,4.526
814.5,601,4.505
820.2,603,4.481
825.8,605,4.455
831.5,607,4.425
837.1,609,4.391
842.8,611,4.353
848.5,613,4.311
854.1,615,4.263
859.8,617,4.209
865.5,619,4.150
871.2,621,4.083
876.9,623,4.008
882.6,625,3.923
888.4,627,3.830
894.1,629,3.728
899.9,631,3.618
905.6,633,3.498
911.4,635,3.368
917.1,637,3.228
922.9,639,3.079
928.7,641,2.924
934.5,643,2.760
940.2,645,2.592
946,647,2.421
951.7,649,2.248
957.5,651,2.075
963.2,653,1.901
969,655,1.728
974.7,657,1.559
980.4,659,1.395
986.1,661,1.240
991.8,663,1.093
997.5,665,0.956
1003.1,667,0.830
1008.8,669,0.715
1014.4,671,0.612
1020.1,673,0.520
1025.7,675,0.438
1031.3,677,0.366
1037,679,0.302
1042.6,681,0.247
1048.3,683,0.201
1053.9,685,0.162
1059.6,687,0.129
1065.2,689,0.102
1070.9,691,0.080
1076.5,693,0.062
1082.2,695,0.048
1087.9,697,0.035
1093.7,699,0.026
1099.4,701,0.018
1105.1,703,0.012
1110.9,705,0.008
1116.6,707,0.004
1122.4,709,0.002
1128.1,711,0.000
1133.9,713,-0.001
1139.6,715,-0.003
1145.4,717,-0.005
1151.1,719,-0.006
1156.9,721,-0.006
1162.7,723,-0.007
1168.5,725,-0.008
1174.3,727,-0.009
1180.1,729,-0.008
1185.9,731,-0.007
1191.8,733,-0.008
1197.6,735,-0.008
1203.4,737,-0.009
1209.2,739,-0.009
1215,741,-0.010
1220.9,743,-0.010
1226.7,745,-0.010
1232.5,747,-0.010
1238.3,749,-0.011
1244.2,751,-0.011
1250,753,-0.011
1255.8,755,-0.012
1261.7,757,-0.012
1267.5,759,-0.011
1273.4,761,-0.011
1279.2,763,-0.010
1285.1,765,-0.010
1290.9,767,-0.010
1296.8,769,-0.010
1302.7,771,-0.010
1308.5,773,-0.010
1314.4,775,-0.011
1320.3,777,-0.010
1326.1,779,-0.010
1332,781,-0.010
1337.9,783,-0.010
1343.7,785,-0.010
1349.6,787,-0.010
1355.5,789,-0.010
1361.4,791,-0.011
1367.2,793,-0.011
1373.1,795,-0.011
1379,797,-0.011
1384.9,799,-0.010
1390.8,801,-0.010
1396.7,803,-0.010
1402.6,805,-0.011
1408.4,807,-0.011
1414.3,809,-0.011
1420.2,811,-0.011
1426.1,813,-0.011
1432,815,-0.011
1437.9,817,-0.011
1439.4,817.5,-0.011