File: Wood/Calibration_Data/TEMPLATE-INSTITUTE-X/INSTITUTE-X_MCC_N2_60K_r1.csv
Time (s),Temperature (K),HRR (W/g),
0,373.80,0.00,
1.5,375.04,-0.09,
3,376.31,-0.01,
4.5,377.64,-0.04,
6,378.97,-0.12,
7.5,380.32,-0.19,
9,381.63,-0.21,
10.5,383.07,-0.20,
12,384.49,-0.16,
13.5,385.92,-0.12,
15,387.35,-0.04,
16.5,388.79,0.04,
18,390.26,0.17,
19.5,391.74,0.25,
21,393.25,0.33,
22.5,394.75,0.42,
24,396.26,0.47,
25.5,397.82,0.54,
27,399.37,0.59,
28.5,400.88,0.71,
30,402.45,0.86,
31.5,404.03,0.98,
33,405.64,1.13,
34.5,407.27,1.29,
36,408.82,1.45,
37.5,410.42,1.61,
39,412.04,1.74,
40.5,413.64,1.89,
42,415.30,1.99,
43.5,416.98,2.13,
45,418.57,2.29,
46.5,420.18,2.47,
48,421.82,2.70,
49.5,423.47,2.95,
51,425.11,3.22,
52.5,426.72,3.48,
54,428.36,3.81,
55.5,430.05,4.21,
57,431.68,4.64,
58.5,433.33,5.11,
60,434.97,5.63,
61.5,436.62,6.26,
63,438.24,6.95,
64.5,439.88,7.76,
66,441.54,8.61,
67.5,443.16,9.51,
69,444.79,10.49,
70.5,446.46,11.50,
72,448.11,12.55,
73.5,449.75,13.58,
75,451.36,14.60,
76.5,452.98,15.56,
78,454.59,16.46,
79.5,456.19,17.24,
81,457.82,17.90,
82.5,459.44,18.44,
84,461.05,18.87,
85.5,462.64,19.17,
87,464.27,19.30,
88.5,465.85,19.25,
90,467.45,19.03,
91.5,469.06,18.63,
93,470.64,18.14,
94.5,472.20,17.60,
96,473.78,17.10,
97.5,475.40,16.55,
99,476.96,16.14,
100.5,478.54,15.77,
102,480.15,15.53,
103.5,481.69,15.37,
105,483.27,15.33,
106.5,484.87,15.41,
108,486.42,15.52,
109.5,487.95,15.64,
111,489.58,15.68,
112.5,491.15,15.62,
114,492.66,15.40,
115.5,494.22,14.96,
117,495.74,14.29,
118.5,497.29,13.40,
120,498.78,12.31,
121.5,500.33,11.02,
123,501.85,9.65,
124.5,503.35,8.23,
126,504.90,6.88,
127.5,506.43,5.67,
129,507.96,4.69,
130.5,509.43,3.92,
132,510.92,3.27,
133.5,512.39,2.77,
135,513.90,2.45,
136.5,515.37,2.25,
138,516.89,2.15,
139.5,518.34,2.07,
141,519.85,2.09,
142.5,521.35,2.12,
144,522.84,2.17,
145.5,524.30,2.22,
147,525.79,2.32,
148.5,527.28,2.46,
150,528.73,2.61,
151.5,530.23,2.78,
153,531.72,2.96,
154.5,533.21,3.19,
156,534.67,3.45,
157.5,536.14,3.74,
159,537.60,4.07,
160.5,539.06,4.44,
162,540.52,4.84,
163.5,542.02,5.24,
165,543.51,5.70,
166.5,544.97,6.16,
168,546.48,6.66,
169.5,547.88,7.13,
171,549.34,7.66,
172.5,550.82,8.28,
174,552.37,9.02,
175.5,553.81,9.87,
177,555.25,10.76,
178.5,556.71,11.71,
180,558.22,12.74,
181.5,559.67,13.90,
183,561.13,15.05,
184.5,562.61,16.22,
186,564.12,17.35,
187.5,565.54,18.51,
189,567.00,19.70,
190.5,568.50,20.90,
192,569.96,22.12,
193.5,571.39,23.33,
195,572.94,24.49,
196.5,574.38,25.61,
198,575.88,26.67,
199.5,577.34,27.60,
201,578.81,28.44,
202.5,580.24,29.24,
204,581.76,30.09,
205.5,583.23,30.92,
207,584.71,31.84,
208.5,586.18,32.77,
210,587.66,33.90,
211.5,589.14,35.06,
213,590.61,36.50,
214.5,592.12,38.10,
216,593.55,40.00,
217.5,595.06,42.13,
219,596.54,44.58,
220.5,598.06,47.35,
222,599.53,50.50,
223.5,601.03,53.99,
225,602.48,57.90,
226.5,604.05,62.17,
228,605.50,66.87,
229.5,606.96,71.92,
231,608.50,77.43,
232.5,609.92,83.32,
234,611.48,89.63,
235.5,613.01,96.33,
237,614.53,103.52,
238.5,616.01,111.12,
240,617.50,119.14,
241.5,618.99,127.51,
243,620.46,136.21,
244.5,621.97,145.14,
246,623.48,154.26,
247.5,624.96,163.53,
249,626.44,172.95,
250.5,627.91,182.41,
252,629.43,191.85,
253.5,630.91,201.24,
255,632.39,210.76,
256.5,633.82,220.26,
258,635.29,229.69,
259.5,636.75,238.95,
261,638.28,248.23,
262.5,639.72,257.73,
264,641.20,267.54,
265.5,642.65,277.67,
267,644.16,287.80,
268.5,645.61,297.51,
270,647.07,306.43,
271.5,648.53,314.25,
273,650.03,321.12,
274.5,651.54,327.52,
276,653.01,333.27,
277.5,654.51,337.62,
279,655.95,340.10,
280.5,657.43,341.10,
282,658.90,340.81,
283.5,660.39,338.88,
285,661.89,334.89,
286.5,663.36,329.08,
288,664.90,322.01,
289.5,666.40,314.09,
291,667.88,305.24,
292.5,669.39,295.33,
294,670.92,284.39,
295.5,672.44,272.86,
297,673.94,260.84,
298.5,675.44,248.65,
300,676.99,236.41,
301.5,678.58,224.10,
303,680.11,211.65,
304.5,681.68,198.80,
306,683.24,185.40,
307.5,684.79,171.54,
309,686.37,157.57,
310.5,687.93,144.02,
312,689.51,131.02,
313.5,691.08,118.77,
315,692.61,107.27,
316.5,694.26,96.64,
318,695.81,86.80,
319.5,697.38,77.76,
321,698.93,69.41,
322.5,700.47,61.73,
324,702.08,54.70,
325.5,703.62,48.38,
327,705.18,42.71,
328.5,706.74,37.65,
330,708.28,33.15,
331.5,709.81,29.08,
333,711.38,25.40,
334.5,712.86,22.11,
336,714.48,19.24,
337.5,716.00,16.73,
339,717.55,14.49,
340.5,719.05,12.53,
342,720.57,10.75,
343.5,722.06,9.04,
345,723.60,7.32,
346.5,725.10,5.65,
348,726.61,4.14,
349.5,728.08,2.89,
351,729.60,1.90,
352.5,731.06,1.22,
354,732.53,0.75,
355.5,734.03,0.39,
357,735.55,0.23,
358.5,737.00,0.13,
360,738.42,0.12,
361.5,739.97,0.09,
363,741.40,0.05,
364.5,742.88,0.02,
366,744.33,-0.04,
367.5,745.81,-0.10,
369,747.27,-0.11,
370.5,748.73,-0.08,
372,750.20,-0.06,
373.5,751.70,-0.11,
375,753.11,-0.16,
376.5,754.57,-0.12,
378,756.00,-0.04,
379.5,757.46,0.03,
381,758.91,0.06,
382.5,760.38,0.06,
384,761.82,-0.04,
385.5,763.32,-0.15,
387,764.77,-0.22,
388.5,766.27,-0.19,
390,767.73,-0.12,
391.5,769.20,-0.05,
393,770.65,-0.05,
394.5,772.14,-0.08,
396,773.63,-0.14,
397.5,775.13,-0.16,
399,776.60,-0.17,
400.5,778.08,-0.13,
402,779.55,-0.10,
403.5,781.02,-0.08,
405,782.51,-0.10,
406.5,783.98,-0.10,
408,785.44,-0.08,
409.5,786.92,-0.07,
411,788.44,-0.07,
412.5,789.88,-0.12,
414,791.36,-0.17,
415.5,792.88,-0.19,
417,794.37,-0.19,
418.5,795.84,-0.16,
420,797.34,-0.11,
421.5,798.84,-0.09,
423,800.38,-0.05,
424.5,801.87,0.00,
426,803.38,0.00,
427.5,804.88,-0.01,
429,806.39,-0.06,
430.5,807.90,-0.01,
432,809.42,0.03,
433.5,810.95,0.08,
435,812.41,0.11,
436.5,813.96,0.10,
438,815.49,0.09,
439.5,817.02,0.06,
441,818.52,0.05,
442.5,820.06,0.00,
444,821.57,-0.03,
445.5,823.07,-0.07,
447,824.56,-0.06,