File: Wood/Calibration_Data/TEMPLATE-INSTITUTE-X/INSTITUTE-X_Cone_25kW_hor_R1.csv
Time (s),Mass (g),HRR (kW/m2),TC back 1 (K)
0,154.469,-0.552,297.55
3,154.563,-0.541,297.42
6,154.61,0.11,297.48
9,154.684,0.98,297.41
12,154.854,1.049,297.46
15,154.642,0.834,297.57
18,154.924,0.51,297.84
21,154.855,-2.355,298.35
24,154.672,-0.543,299
27,154.74,-1.435,299.8
30,154.952,-0.334,300.94
33,154.712,-0.252,302.26
36,154.78,1.104,303.83
39,154.93,-0.883,305.53
42,154.602,-1.9,307.17
45,155.008,1.032,309.13
48,154.878,-2.64,311.25
51,154.82,-0.069,313.33
54,154.67,-0.235,315.46
57,154.871,-1.147,317.52
60,154.674,-0.789,319.98
63,154.902,-1.963,322.35
66,154.744,-1.363,324.95
69,154.762,-0.809,327.4
72,154.795,-0.677,329.88
75,154.776,-0.67,332.39
78,154.63,0.449,335
81,154.766,-1.141,337.42
84,155.006,-0.874,339.96
87,154.617,-0.781,342.42
90,154.672,0.125,344.99
93,154.849,-3.231,347.45
96,154.813,-3.993,350.02
99,154.634,-3.868,352.44
102,154.574,-2.388,354.99
105,154.776,-1.266,357.27
108,154.807,-0.142,359.75
111,154.562,1.942,362.13
114,154.493,29.782,364.53
117,154.472,99.126,366.87
120,154.18,169.396,369.11
123,153.787,232.662,371.42
126,153.527,272.424,373.56
129,152.946,316.667,375.61
132,152.633,366.233,377.68
135,152.224,380.512,379.54
138,151.668,404.188,381.23
141,151.241,407.751,382.89
144,150.646,417.529,384.51
147,150.272,417.95,386.08
150,149.797,424.071,387.85
153,149.029,422.478,389.63
156,148.631,431.977,391.26
159,148.218,436.072,393.04
162,147.405,430.457,394.84
165,147.086,435.779,396.6
168,146.444,436.48,398.47
171,145.959,432.414,400.22
174,145.467,429.421,401.81
177,144.761,435.192,403.39
180,144.538,443.842,404.95
183,143.691,449.16,406.5
186,143.318,445.567,407.99
189,142.695,448.518,409.5
192,142.162,450.448,411.07
195,141.441,452.896,412.67
198,140.901,458.322,414.15
201,140.334,462.986,415.69
204,139.936,465.177,417.15
207,139.33,477.205,418.66
210,138.701,474.903,420
213,138.262,481.479,421.49
216,137.458,488.284,422.89
219,136.973,493.424,424.25
222,136.341,499.795,425.57
225,135.63,512.15,426.92
228,135.04,506.281,428.22
231,134.257,514.001,429.5
234,133.7,519.815,430.76
237,133.009,519.963,432.03
240,132.402,534.921,433.34
243,131.711,539.995,434.55
246,131.296,553.12,435.72
249,130.403,548.158,436.9
252,129.576,557.946,437.97
255,128.938,562.878,439.07
258,128.267,570.431,440.16
261,127.523,584.12,441.12
264,126.773,581.242,442.04
267,125.943,588.044,442.58
270,125.333,594.24,443.23
273,124.628,601.113,444.09
276,123.923,607.689,445.08
279,123.223,609.173,446.12
282,122.416,609.168,447.08
285,121.688,603.44,448.02
288,120.756,620.767,448.97
291,120.322,622.306,449.89
294,119.435,616.446,450.81
297,118.555,624.611,451.71
300,117.789,625.771,452.58
303,117.08,626.645,453.44
306,116.345,632.462,454.33
309,115.594,643.4,455.16
312,114.576,641.708,456.04
315,113.999,651.401,456.82
318,113.129,656.254,457.61
321,112.249,651.883,458.38
324,111.596,664.026,459.11
327,110.74,649.079,459.98
330,109.798,652.951,460.71
333,109.081,663.458,461.54
336,108.154,665.955,462.3
339,107.419,689.59,463.1
342,106.709,680.508,463.82
345,105.742,693.03,464.59
348,104.944,694.737,465.22
351,104.097,685.898,465.96
354,103.019,702.146,466.69
357,102.382,695.621,467.43
360,101.438,705.842,468.11
363,100.674,709.158,468.78
366,99.851,705.665,469.32
369,98.9,710.725,470.02
372,98.097,700.347,470.62
375,97.223,690.285,471.14
378,96.344,671.325,471.78
381,95.594,661.689,472.35
384,94.7,654.713,472.95
387,93.869,654.547,473.54
390,93.323,633.522,474.21
393,92.355,626.905,474.86
396,91.543,603.178,475.39
399,90.856,608.21,476.09
402,90.094,616.008,476.63
405,89.282,573.222,477.19
408,88.792,518.729,477.57
411,88.41,485.929,478.16
414,87.683,439.844,478.66
417,87.338,363.909,479
420,86.764,302.084,479.56
423,86.643,263.322,480.23
426,86.247,165.574,480.8
429,86.191,121.564,481.33
432,85.95,71.412,481.87
435,86.141,40.516,482.49
438,85.996,9.966,483.07
441,86.042,0.791,483.58
444,85.981,-5.044,483.95
447,86.168,-5.3,484.51
450,85.97,-2.47,485.08
453,85.913,-2.392,485.46
456,85.936,-1.272,485.97
459,85.979,-2.053,486.34
462,86.141,-1.4,486.71
465,85.897,-1.845,487.03
468,86.079,-1.829,487.5
471,85.984,-1.605,488.07
474,85.92,-1.217,488.32
477,86.105,-0.704,488.71
480,86.001,-0.863,489.34
483,85.988,-0.867,489.66
486,85.872,-1.339,490.14
489,85.845,1.723,490.48
492,86.058,-0.641,490.84
495,85.998,0.24,491.2
498,86.095,-0.641,491.55
501,86.005,-3.548,491.87
504,86.064,-2.4,492.21
507,85.854,-13.634,492.44
510,86.055,-2.775,492.96
513,85.983,0.069,493.25
516,85.895,0.927,493.76
519,86.166,-0.39,494.14
522,86.028,-0.051,494.48
525,85.813,-0.027,494.99
528,86.025,-0.923,495.34
531,86.015,-1.748,495.74
534,86.134,-1.149,496.15
537,85.945,-2.488,496.52
540,86.042,-4.077,496.88
543,85.97,-3.969,497.13
546,86.209,-1.41,497.64
549,86.015,0.462,497.96
552,86.083,1.038,498.36
555,86.116,-3.112,498.74
558,85.756,-3.027,499.19
561,86.072,-0.881,499.64
564,86.067,-1.636,499.97
567,86.062,-2.46,500.41
570,85.91,-0.071,500.94
573,85.948,-0.449,501.04
576,86.006,-1.204,501.65
579,85.809,0.114,501.92
582,86.063,0.374,502.11
585,85.95,-0.593,502.49
588,85.89,-2.394,502.83
591,85.904,-0.416,503.22
594,86.021,-0.272,503.81
597,85.868,-0.187,504.25
600,86.011,0.492,504.53