File: Wood/Calibration_Data/TEMPLATE-INSTITUTE-X/INSTITUTE-X_TGA_O2-20_10K_R1.csv
Time (s),Temperature (K),Mass (mg)
601.2,350.0,5.479
613.2,352.1,5.481
625.2,354.1,5.479
637.2,356.1,5.479
649.2,358.1,5.479
661.2,360.1,5.479
673.2,362.0,5.479
685.2,364.0,5.481
697.2,366.0,5.482
709.2,368.0,5.482
721.2,370.0,5.482
733.2,372.0,5.483
745.2,373.9,5.482
757.2,375.9,5.483
769.2,377.9,5.483
781.2,379.9,5.482
793.2,381.9,5.483
805.2,383.9,5.482
817.2,385.8,5.475
829.2,387.8,5.483
841.2,389.8,5.496
853.2,391.8,5.484
865.2,393.8,5.484
877.2,395.8,5.485
889.2,397.8,5.485
901.2,399.9,5.484
913.2,401.9,5.485
925.2,403.9,5.484
937.2,405.9,5.484
949.2,407.9,5.483
961.2,409.9,5.484
973.2,412.0,5.479
985.2,414.0,5.477
997.2,416.0,5.477
1009.2,418.0,5.477
1021.2,420.0,5.477
1033.2,422.0,5.476
1045.2,424.0,5.474
1057.2,426.1,5.472
1069.2,428.1,5.472
1081.2,430.1,5.472
1093.2,432.1,5.472
1105.2,434.1,5.471
1117.2,436.1,5.471
1129.2,438.1,5.467
1141.2,440.1,5.468
1153.2,442.1,5.467
1165.2,444.1,5.466
1177.2,446.1,5.467
1189.2,448.1,5.466
1201.2,450.0,5.464
1213.2,452.0,5.461
1225.2,454.0,5.462
1237.2,456.0,5.449
1249.2,458.0,5.459
1261.2,460.0,5.456
1273.2,462.0,5.457
1285.2,464.0,5.455
1297.2,466.0,5.456
1309.2,468.0,5.452
1321.2,470.0,5.456
1333.2,472.0,5.452
1345.2,474.0,5.451
1357.2,476.0,5.451
1369.2,478.0,5.449
1381.2,480.0,5.450
1393.2,482.0,5.449
1405.2,484.0,5.449
1417.2,486.0,5.449
1429.2,488.0,5.446
1441.2,490.0,5.446
1453.2,492.0,5.448
1465.2,494.0,5.452
1477.2,496.0,5.448
1489.2,498.0,5.443
1501.2,499.9,5.442
1513.2,501.9,5.439
1525.2,503.9,5.442
1537.2,505.9,5.441
1549.2,507.9,5.441
1561.2,509.9,5.439
1573.2,511.9,5.439
1585.2,513.9,5.438
1597.2,515.9,5.436
1609.2,517.9,5.438
1621.2,519.9,5.436
1633.2,521.9,5.435
1645.2,523.9,5.434
1657.2,525.9,5.432
1669.2,527.9,5.433
1681.2,529.9,5.430
1693.2,531.9,5.426
1705.2,533.9,5.426
1717.2,535.9,5.423
1729.2,537.9,5.419
1741.2,539.9,5.417
1753.2,541.9,5.410
1765.2,543.9,5.407
1777.2,545.9,5.397
1789.2,547.9,5.389
1801.2,549.9,5.377
1813.2,552.0,5.364
1825.2,554.0,5.347
1837.2,556.0,5.327
1849.2,558.0,5.305
1861.2,560.0,5.276
1873.2,562.0,5.245
1885.2,564.0,5.209
1897.2,566.0,5.163
1909.2,568.0,5.114
1921.2,570.0,5.056
1933.2,572.0,4.994
1945.2,574.0,4.921
1957.2,576.0,4.841
1969.2,578.0,4.752
1981.2,580.0,4.655
1993.2,582.0,4.549
2005.2,584.0,4.442
2017.2,586.0,4.327
2029.2,588.0,4.209
2041.2,590.0,4.092
2053.2,592.0,3.974
2065.2,594.1,3.857
2077.2,596.1,3.743
2089.2,598.1,3.629
2101.2,600.1,3.518
2113.2,602.1,3.411
2125.2,604.1,3.305
2137.2,606.1,3.204
2149.2,608.1,3.102
2161.2,610.1,3.009
2173.2,612.1,2.917
2185.2,614.0,2.824
2197.2,616.0,2.735
2209.2,618.0,2.644
2221.2,620.0,2.554
2233.2,622.0,2.460
2245.2,624.0,2.365
2257.2,626.1,2.265
2269.2,628.1,2.173
2281.2,630.1,2.073
2293.2,632.2,1.972
2305.2,634.3,1.871
2317.2,636.3,1.759
2329.2,638.4,1.656
2341.2,640.5,1.546
2353.2,642.5,1.436
2365.2,644.5,1.327
2377.2,646.5,1.220
2389.2,648.4,1.112
2401.2,650.3,1.012
2413.2,652.2,0.918
2425.2,654.1,0.819
2437.2,655.9,0.730
2449.2,657.7,0.646
2461.2,659.6,0.572
2473.2,661.4,0.504
2485.2,663.3,0.441
2497.2,665.2,0.390
2509.2,667.1,0.345
2521.2,669.0,0.307
2533.2,671.0,0.275
2545.2,673.0,0.246
2557.2,675.0,0.222
2569.2,677.0,0.204
2581.2,679.1,0.189
2593.2,681.2,0.176
2605.2,683.3,0.164
2617.2,685.4,0.155
2629.2,687.5,0.146
2641.2,689.6,0.141
2653.2,691.6,0.136
2665.2,693.7,0.132
2677.2,695.8,0.128
2689.2,697.8,0.126
2701.2,699.8,0.123
2713.2,701.9,0.123
2725.2,703.9,0.122
2737.2,705.9,0.121
2749.2,707.9,0.124
2761.2,709.9,0.124
2773.2,711.8,0.122
2785.2,713.8,0.120
2797.2,715.8,0.122
2809.2,717.8,0.122
2821.2,719.8,0.120
2833.2,721.8,0.119
2845.2,723.8,0.121
2857.2,725.8,0.120
2869.2,727.8,0.121
2881.2,729.8,0.121
2893.2,731.8,0.121
2905.2,733.8,0.119
2917.2,735.8,0.119
2929.2,737.8,0.118
2941.2,739.8,0.117
2953.2,741.8,0.119
2965.2,743.8,0.118
2977.2,745.8,0.118
2989.2,747.8,0.119
3001.2,749.8,0.118
3013.2,751.8,0.117
3025.2,753.8,0.117
3037.2,755.8,0.118
3049.2,757.8,0.117
3061.2,759.8,0.116
3073.2,761.8,0.118
3085.2,763.8,0.119
3097.2,765.8,0.119
3109.2,767.8,0.118
3121.2,769.7,0.118
3133.2,771.7,0.117
3145.2,773.7,0.118
3157.2,775.7,0.117
3169.2,777.7,0.117
3181.2,779.7,0.119
3193.2,781.7,0.117
3205.2,783.7,0.118
3217.2,785.7,0.118
3229.2,787.8,0.118
3241.2,789.8,0.119
3253.2,791.9,0.118
3265.2,793.9,0.118
3277.2,796.0,0.116
3289.2,798.0,0.118
3301.2,800.0,0.118
3313.2,802.0,0.118
3325.2,804.0,0.116
3337.2,806.0,0.118
3349.2,808.0,0.116
3361.2,809.9,0.118
3373.2,811.9,0.117
3385.2,813.9,0.116
3397.2,815.8,0.119
3409.2,817.8,0.117
3421.2,819.8,0.117
3433.2,821.8,0.117
3436.2,822.3,0.117