File: Wood/Calibration_Data/TEMPLATE-INSTITUTE-X/INSTITUTE-X_DSC_N2_10K_r1.csv
time (s),Temperature (K),Heat Flow Rate (mW/mg)
0,325,0.092
20,327,0.137
36.4,329,0.170
51.3,331,0.191
65.4,333,0.206
78.9,335,0.217
92.4,337,0.226
105.5,339,0.233
118.5,341,0.238
131.4,343,0.244
144.2,345,0.250
156.9,347,0.256
169.5,349,0.261
182,351,0.266
194.4,353,0.268
206.7,355,0.269
219,357,0.268
231.2,359,0.268
243.4,361,0.268
255.4,363,0.269
267.4,365,0.272
279.4,367,0.276
291.3,369,0.279
303.2,371,0.282
315.1,373,0.286
326.9,375,0.289
338.7,377,0.294
350.5,379,0.298
362.2,381,0.304
374,383,0.310
385.7,385,0.315
397.4,387,0.320
409.1,389,0.326
420.9,391,0.334
432.6,393,0.343
444.3,395,0.353
455.9,397,0.362
467.6,399,0.370
479.3,401,0.377
490.9,403,0.382
502.6,405,0.386
514.1,407,0.388
525.9,409,0.390
537.4,411,0.392
549.1,413,0.394
560.7,415,0.396
572.3,417,0.398
583.9,419,0.400
595.5,421,0.402
607,423,0.406
618.6,425,0.409
630.1,427,0.414
641.6,429,0.418
653.2,431,0.422
664.7,433,0.427
676.3,435,0.432
687.8,437,0.438
699.3,439,0.444
710.9,441,0.450
722.4,443,0.458
733.9,445,0.466
745.4,447,0.474
757,449,0.481
768.5,451,0.488
780,453,0.494
791.5,455,0.500
803,457,0.505
814.5,459,0.508
826,461,0.510
837.4,463,0.509
848.9,465,0.505
860.4,467,0.500
871.9,469,0.496
883.4,471,0.494
894.9,473,0.494
906.3,475,0.496
917.8,477,0.499
929.3,479,0.502
940.8,481,0.506
952.3,483,0.510
963.8,485,0.512
975.2,487,0.512
986.7,489,0.509
998.1,491,0.503
1009.6,493,0.495
1021,495,0.486
1032.5,497,0.479
1043.9,499,0.474
1055.3,501,0.471
1066.7,503,0.468
1078.2,505,0.466
1089.6,507,0.466
1101.1,509,0.467
1112.6,511,0.468
1124,513,0.470
1135.5,515,0.474
1146.9,517,0.478
1158.4,519,0.483
1169.9,521,0.488
1181.3,523,0.491
1192.8,525,0.496
1204.2,527,0.501
1215.6,529,0.505
1227.1,531,0.509
1238.6,533,0.514
1250,535,0.520
1261.5,537,0.528
1273,539,0.536
1284.5,541,0.544
1296,543,0.552
1307.4,545,0.561
1319,547,0.571
1330.4,549,0.580
1341.9,551,0.591
1353.4,553,0.602
1364.8,555,0.612
1376.3,557,0.619
1387.9,559,0.626
1399.4,561,0.634
1410.9,563,0.642
1422.4,565,0.651
1433.9,567,0.660
1445.4,569,0.668
1456.9,571,0.674
1468.4,573,0.682
1480,575,0.689
1491.5,577,0.690
1503,579,0.681
1514.5,581,0.670
1526,583,0.675
1537.4,585,0.700
1548.9,587,0.739
1560.4,589,0.785
1571.9,591,0.835
1583.5,593,0.888
1595.1,595,0.941
1606.7,597,0.997
1618.3,599,1.057
1629.9,601,1.123
1641.6,603,1.197
1653.2,605,1.279
1664.9,607,1.372
1676.6,609,1.476
1688.2,611,1.589
1699.9,613,1.711
1711.7,615,1.842
1723.3,617,1.978
1735,619,2.119
1746.8,621,2.260
1758.6,623,2.398
1770.4,625,2.533
1782.2,627,2.658
1793.9,629,2.768
1805.6,631,2.855
1817.4,633,2.914
1829.1,635,2.943
1840.9,637,2.937
1852.6,639,2.905
1864.3,641,2.865
1876,643,2.820
1887.6,645,2.749
1899.3,647,2.639
1910.9,649,2.503
1922.5,651,2.355
1934.1,653,2.193
1945.7,655,2.026
1957.3,657,1.854
1968.9,659,1.678
1980.4,661,1.493
1991.9,663,1.317
2003.5,665,1.153
2015.1,667,1.004
2026.8,669,0.867
2038.4,671,0.743
2050,673,0.632
2061.6,675,0.533
2073.3,677,0.448
2084.9,679,0.373
2096.6,681,0.311
2108.3,683,0.265
2119.9,685,0.236
2131.5,687,0.219
2143.2,689,0.207
2154.9,691,0.200
2166.6,693,0.197
2178.3,695,0.187
2190,697,0.165
2201.9,699,0.136
2213.7,701,0.106
2225.5,703,0.070
2237.3,705,0.024
2249.2,707,-0.016
2261.1,709,-0.025
2272.9,711,-0.005
2284.8,713,0.018
2296.6,715,0.030
2308.5,717,0.035
2320.3,719,0.038
2332.2,721,0.041
2344,723,0.041
2355.8,725,0.042
2367.6,727,0.043
2379.4,729,0.045
2391.3,731,0.047
2403.1,733,0.048
2414.9,735,0.048
2426.8,737,0.049
2438.6,739,0.050
2450.4,741,0.052
2462.2,743,0.052
2474.1,745,0.054
2485.9,747,0.056
2497.7,749,0.057
2509.5,751,0.058
2521.4,753,0.061
2533.2,755,0.064
2545,757,0.065
2556.8,759,0.066
2568.6,761,0.067
2580.5,763,0.068
2592.4,765,0.070
2604.3,767,0.072
2616.2,769,0.073
2628,771,0.074
2639.9,773,0.076
2651.8,775,0.078
2663.8,777,0.079
2675.7,779,0.080
2687.6,781,0.081
2699.5,783,0.083
2711.4,785,0.085
2723.4,787,0.088
2735.3,789,0.090
2747.2,791,0.093
2759,793,0.095
2770.9,795,0.098
2782.8,797,0.100
2794.8,799,0.103
2806.6,801,0.105
2818.5,803,0.107
2830.4,805,0.108
2842.3,807,0.108
2854.2,809,0.109
2866.1,811,0.110
2878.1,813,0.111
2890,815,0.112
2902,817,0.112
2914.1,819,0.113
2926.1,821,0.112
2932.1,822,0.112