File: Non-charring/PMMA/UQ/UQ_Cone_25kW_2.csv
Time,Mass,HRR,Back Surface Temperature 1,Back Surface Temperature 2,Back Surface Temperature 3
[s],[g],[kW/m2],[K],[K],[K]
0,73.4,4.07818,301.5,302,301.1
4,73.52662,2.34998,301.8,302.2,301.5
8,73.62296,4.06982,302.3,302.6,302.3
12,73.59758,4.89164,303,303.1,303.4
16,73.52498,4.50966,304,303.9,304.8
20,73.58048,2.72169,305.2,304.8,306.3
24,73.5606,2.02177,306.6,305.9,308.1
28,73.62141,1.82785,308.1,307.2,310.2
32,73.58219,1.72075,309.8,308.6,312.5
36,73.55481,1.12017,311.7,310.2,314.8
40,73.56108,1.00858,313.7,311.9,317.2
44,73.52854,1.77826,315.8,313.8,319.7
48,73.59804,2.05978,318,315.8,322.2
52,73.61449,2.25245,320.3,317.9,325
56,73.62213,2.86261,322.7,319.9,327.7
60,73.56372,3.08733,325,322.1,330.4
64,73.554,3.40011,327.4,324.3,333.1
68,73.58769,1.7978,329.7,326.6,335.9
72,73.60339,1.85804,331.8,328.9,338.6
76,73.52582,2.38813,334,331.2,341.3
80,73.57544,2.92579,336.3,333.6,344.2
84,73.58818,2.93328,338.6,335.9,346.5
88,73.54671,2.35708,340.9,338.2,349.2
92,73.59027,1.9581,343.1,340.5,351.9
96,73.60152,1.83023,345.4,342.8,354.4
100,73.60417,2.22096,347.7,344.9,356.9
104,73.52903,0.982276,350.1,347,359.3
108,73.54045,1.55759,353.3,349.1,361.5
112,73.5705,2.28093,355.7,351.1,363.7
116,73.56917,3.2843,357.9,353.1,365.9
120,73.57139,2.83682,360,355.1,367.9
124,73.58134,4.06326,362,356.9,369.6
128,73.60499,3.2808,364.1,358.7,371.2
132,73.61152,2.83435,366.3,360.6,372.9
136,73.53911,1.18293,368.7,362.7,374.3
140,73.57332,1.02225,371.1,364.9,376
144,73.60832,1.75053,373.2,367.1,377.8
148,73.53407,16.9563,375.2,369.1,379.8
152,73.53014,39.7678,377.4,371.2,381.9
156,73.53024,66.8265,379.6,373.3,384.2
160,73.52713,87.3981,381.7,375.4,386.7
164,73.57462,111.661,383.7,377.5,389.4
168,73.5496,132.554,385.8,379.7,392
172,73.55649,153.266,387.8,381.9,394.6
176,73.6234,179.407,389.9,384.1,397.2
180,73.60567,211.005,392.2,386.4,399.7
184,73.4889,242.283,394.5,388.8,402
188,73.0845,266.881,396.7,391.2,404.3
192,72.7091,279.26,399,393.7,406.6
196,72.3272,289.041,401.3,396.2,408.8
200,71.9324,308.929,403.6,398.6,411.1
204,71.4818,314.659,405.9,401,413.1
208,71.0292,323.42,408.3,403.4,415.3
212,70.6051,329.641,411.1,405.8,417.5
216,70.1658,332.677,413.6,408.4,419.5
220,69.6766,333.508,415.9,410.9,421.8
224,69.2525,341.245,418.2,413.3,424.4
228,68.7488,345.187,420.5,415.7,426.7
232,68.28794,344.272,422.7,418.1,428.8
236,67.8148,351.278,424.9,420.5,431
240,67.3263,355.91,427.1,422.9,433.2
244,66.8162,363.193,429.2,425.3,435.3
248,66.3275,364.935,431.4,427.6,437.6
252,65.83109,368.548,433.5,429.9,439.6
256,65.3434,370.504,435.7,432.2,441.7
260,64.8463,374.019,437.9,434.5,444
264,64.3403,373.355,440,436.7,446
268,63.82,382.114,442.1,439.1,448
272,63.2236,391.061,444.2,441.3,450.3
276,62.6865,387.123,446.3,443.4,452.3
280,62.1623,395.396,448.4,445.7,454.4
284,61.6553,394.181,450.4,448,456.4
288,61.123,393.355,452.5,450.2,458.6
292,60.6234,398.952,454.5,452.4,460.8
296,60.0569,397.818,456.5,454.6,463
300,59.53304,402.503,458.6,456.8,465.1
304,58.9933,402.439,460.6,458.9,467.1
308,58.4033,407.939,462.6,461,469.3
312,57.8841,413.355,464.6,463.1,471.3
316,57.3567,419.926,466.5,465.3,473.2
320,56.76481,417.641,468.4,467.4,475.3
324,56.2322,418.86,470.5,469.6,477.3
328,55.6896,419.792,472.5,471.6,479.3
332,55.0862,425.127,474.5,473.7,481.1
336,54.5157,425.588,476.4,475.9,483.1
340,53.9316,430.691,478.4,477.8,485.2
344,53.3623,432.623,480.4,479.8,487.1
348,52.7133,435.025,482.5,481.8,488.8
352,52.1368,438.202,484.4,483.9,490.5
356,51.5787,435.354,486.3,486,492.5
360,50.9624,441.147,488.3,488.1,494.4
364,50.3303,451.802,490.4,490.2,496.4
368,49.7663,451.341,492.4,492.3,498.7
372,49.1558,451.102,494.2,494.5,500.6
376,48.5187,450.285,496.2,496.6,502.7
380,47.9074,451.094,498.1,498.7,504.6
384,47.3061,458.071,500.1,500.7,506.8
388,46.6704,458.555,502,502.6,509.1
392,46.0373,464.234,503.9,504.7,510.9
396,45.3994,456.03,505.9,506.9,512.7
400,44.8136,467.638,507.9,508.9,515
404,44.1655,469.754,510,510.9,517.2
408,43.5481,467.967,512,512.9,519.6
412,42.9612,468.972,514.1,514.9,522.1
416,42.332,463.808,516.1,517,524.3
420,41.6645,473.286,518.1,519,526.7
424,41.0204,473.076,520,520.9,529
428,40.418,472.082,522.1,523,531.3
432,39.8047,468.849,524.4,525.1,533.6
436,39.1609,469.708,526.5,527.3,535.9
440,38.5135,464.913,528.5,529.4,538.3
444,37.9017,468.232,530.6,531.6,540.5
448,37.2518,473.738,533,534,542.7
452,36.628,476.31,535.5,536.2,544.9
456,36.0014,479.35,538.1,538.8,547.3
460,35.3239,479.963,540.8,541.3,549.7
464,34.6932,483.862,543.5,544,552.1
468,34.0517,491.961,546.4,546.7,554.5
472,33.40304,486.861,549.3,549.4,556.9
476,32.7827,488.613,552.2,552,559.2
480,32.1125,489.778,555.4,554.8,562.1
484,31.45463,490.461,558.4,557.5,564.8
488,30.79486,498.544,561.6,560.3,567.5
492,30.159,502.196,564.7,563.2,570.3
496,29.5059,499.767,567.9,566,573.3
500,28.8252,497.556,571.1,569,576.1
504,28.1788,501.438,574.2,572,579.3
508,27.5257,497.741,577.4,575,582.4
512,26.8563,494.646,580.6,578,585.5
516,26.1805,486.141,583.9,580.8,588.7
520,25.5905,487.147,587.1,583.8,591.9
524,24.9639,475.077,590.5,586.5,595.2
528,24.3072,466.073,593.9,589.3,598.5
532,23.72495,456.958,597.1,592.1,601.7
536,23.187,448.501,600.5,594.8,604.6
540,22.5742,442.48,603.6,597.5,607.5
544,22.029,437.364,606.8,600.1,610.6
548,21.521,437.77,609.9,602.8,613.5
552,20.8435,428.291,613.1,605.6,616.9
556,20.2946,430.166,616.3,608.5,620.4
560,19.729,425.461,619.6,611.3,624.2
564,19.2334,421.158,622.9,614.1,628.5
568,18.6777,415.679,626.6,616.8,633.3
572,18.1266,420.766,630.4,619.8,638.6
576,17.5495,424.198,634.5,623.1,645
580,17.02773,419.2,639,626.9,652.3
584,16.4396,414.894,643.2,631.3,660.2
588,15.9092,415.46,647.4,636.5,669.4
592,15.3684,408.321,653,642.8,681.2
596,14.8223,406.63,659.5,650.6,696.3
600,14.2931,406.477,666.8,660.3,713
604,13.7827,402.473,674.6,673.6,732.2
608,13.23127,394.645,683.5,687.9,746.7
612,12.75322,384.242,692.9,699.3,756.5
616,12.2492,378.676,700.9,707.5,765
620,11.7667,378.625,711.1,713.7,772.9
624,11.20502,376.958,721.9,719.6,780.5
628,10.774,365.924,730.4,724.1,786.3
632,10.3075,355.681,739.6,729.7,795.3
636,9.868928,349.169,747.3,734.7,806.1
640,9.490142,329.401,754.5,739.4,810.8
644,9.071924,316.736,761.7,744,815.1
648,8.659055,307.077,769,749.3,845
652,8.28159,298.058,775.8,755.1,857.2
656,7.913515,274.485,786.3,761.7,872.3
660,7.567536,265.984,801.2,770.4,874.9
664,7.266598,252.172,824.3,777.8,869.2
668,6.988703,225.851,842.2,786.2,885.7
672,6.719044,208.88,853.3,797.3,885.1
676,6.4515,195.545,868.2,805.1,898.1
680,6.196163,177.417,868.8,816.3,901.6
684,6.04081,163.997,873.7,826.7,905.7
688,5.826956,149.538,880.1,835.9,910.1
692,5.684793,131.596,877.6,844.9,907.5
696,5.570865,122.854,882.6,850.2,914.2
700,5.446937,116.188,880.4,854.8,918.6
704,5.322679,108.958,883.1,863,920.5
708,5.221817,100.893,885.6,866,928.3
712,5.102054,97.2656,890.6,870.9,938.2
716,5.017694,93.494,894.2,876.9,938.4
720,4.901411,92.4786,894.8,878.5,944.4
724,4.732604,88.953,898.4,884.3,943.6
728,4.679206,85.7763,901.4,883.8,916.7
732,4.605965,84.07,904.1,887.7,900.4
736,4.536497,81.1416,908.2,886.9,886.5
740,4.45891,79.6179,906.8,888.4,864.6
744,4.402755,77.6533,897,889.7,839.7
748,4.328659,77.3876,882.3,891.9,826.3
752,4.26441,76.7281,865.8,892.8,818
756,4.201586,74.7101,852.7,892.3,811.4
760,4.13208,73.6626,843.2,893.6,801.8
764,4.064078,72.2855,834.8,891,798.7
768,3.99701,68.8428,825.7,881.3,794.8
772,3.926924,66.4024,819.7,873,788
776,3.835445,65.3697,813.3,865.6,785.9
780,3.770525,63.1639,808.4,857.7,781.4
784,3.733272,62.926,803.7,849.1,776.7
788,3.684,59.1247,796.8,841.1,775.1
792,3.636749,57.8832,792.4,833.7,774.2
796,3.583948,57.2285,787.1,826,771
800,3.533715,55.816,784,819,768.4
804,3.458764,54.2231,779.8,812.9,768.7
808,3.406974,53.6848,777.7,807.9,767.5
812,3.350303,53.1193,775.3,802.8,762.6
816,3.309393,51.8616,771.7,798,763.9
820,3.265547,51.8636,768.8,794.2,762.3
824,3.221619,51.1219,767,790.5,763.2
828,3.173485,50.4505,764.1,786.8,760.5
832,3.142607,49.8642,762.3,783.5,758.4
836,3.072573,49.041,759.3,780,755.5
840,3.012933,49.217,756.9,777.2,751.8
844,2.966036,47.8415,754.6,774.4,750.9
848,2.953578,46.8167,752.5,771.6,751.8
852,2.915044,47.3628,751.7,770,751.9
856,2.853237,46.9063,750.5,767.9,749.9
860,2.788904,46.8886,749.6,765.8,748.1
864,2.725194,47.2241,748.7,763.7,747.4
868,2.716749,47.1595,748.8,762.8,747.8
872,2.692408,45.4212,749.1,761.4,746.5
876,2.607446,44.859,747.2,759.6,744.1
880,2.604802,45.8842,746.7,758.3,741.7
884,2.574,44.9009,745.9,756.9,739.5
888,2.540936,44.6259,744.8,755.4,742.9
892,2.485678,45.0626,744.1,754.5,743.1
896,2.435062,45.0757,744.2,753.5,743.3
900,2.396856,44.1247,742.4,752.6,743.6
904,2.378386,44.6136,741.4,751.5,741.7
908,2.344,43.3772,740.6,750.8,741.9
912,2.29443,42.3309,739.4,750,741.2
916,2.260017,42.8753,739,749,741.9
920,2.232562,42.5924,740.1,748,739.4
924,2.183048,41.8117,739.6,747.6,739.1
928,2.131707,41.9851,738.5,746.7,740.2
932,2.065712,42.0113,737.2,746.1,737.4
936,2.029146,41.9459,736,745.6,739.5
940,1.990497,41.3628,736.8,744.9,738.1
944,1.941121,40.5976,736.3,744.6,736.1
948,1.915895,39.9366,736,744.1,736.3
952,1.857627,40.4643,736.8,743.6,737.3
956,1.810219,40.6257,735.5,742.6,735.7
960,1.79039,41.4879,734.8,742.1,734.1
964,1.762411,34.0787,735.1,741.8,733
968,1.733335,32.5335,734.5,741.4,734.6
972,1.704876,36.5628,733.5,741.1,734.4
976,1.638398,38.6947,734,740.7,733.1
980,1.583422,40.1328,733.6,740.1,734.3
984,1.564,42.8521,733.1,739.7,732.6
988,1.554,42.0482,733.3,739,731.7
992,1.513152,41.5111,733.9,738.7,733.3
996,1.475251,38.5231,732.5,738.8,733.2
1000,1.47086,33.7306,731.8,738.6,731.9
,,,,,
,,,,,
,,,,,
,,,,,
,,,,,
,,,,,
,,,,,
,,,,,
,,,,,
,,,,,
,,,,,
,,,,,
,,,,,
,,,,,
,,,,,
,,,,,
,,,,,
,,,,,
,,,,,
,,,,,
,,,,,
,,,,,
,,,,,
,,,,,
,,,,,
,,,,,
,,,,,
,,,,,
,,,,,
,,,,,
,,,,,
,,,,,
,,,,,
,,,,,
,,,,,
,,,,,
,,,,,
,,,,,
,,,,,
,,,,,
,,,,,
,,,,,
,,,,,
,,,,,
,,,,,
,,,,,
,,,,,
,,,,,
,,,,,
,,,,,
,,,,,
,,,,,
,,,,,
,,,,,
,,,,,
,,,,,
,,,,,
,,,,,
,,,,,
,,,,,
,,,,,
,,,,,
,,,,,
,,,,,
,,,,,
,,,,,
,,,,,
,,,,,
,,,,,
,,,,,
,,,,,
,,,,,
,,,,,
,,,,,
,,,,,
,,,,,
,,,,,
,,,,,
,,,,,
,,,,,
,,,,,
,,,,,
,,,,,
,,,,,
,,,,,
,,,,,
,,,,,
,,,,,
,,,,,
,,,,,
,,,,,
,,,,,
,,,,,
,,,,,
,,,,,
,,,,,
,,,,,
,,,,,
,,,,,
,,,,,
,,,,,
,,,,,
,,,,,
,,,,,
,,,,,
,,,,,
,,,,,
,,,,,
,,,,,
,,,,,
,,,,,
,,,,,
,,,,,
,,,,,
,,,,,
,,,,,
,,,,,
,,,,,
,,,,,
,,,,,
,,,,,
,,,,,
,,,,,
,,,,,
,,,,,
,,,,,
,,,,,
,,,,,
,,,,,
,,,,,
,,,,,
,,,,,
,,,,,
,,,,,
,,,,,
,,,,,
,,,,,
,,,,,
,,,,,
,,,,,
,,,,,
,,,,,
,,,,,
,,,,,
,,,,,
,,,,,
,,,,,
,,,,,
,,,,,
,,,,,
,,,,,
,,,,,
,,,,,
,,,,,
,,,,,
,,,,,
,,,,,
,,,,,
,,,,,
,,,,,
,,,,,
,,,,,
,,,,,
,,,,,
,,,,,
,,,,,
,,,,,
,,,,,
,,,,,
,,,,,
,,,,,
,,,,,
,,,,,
,,,,,
,,,,,
,,,,,
,,,,,
,,,,,
,,,,,
,,,,,
,,,,,
,,,,,
,,,,,
,,,,,
,,,,,
,,,,,