File: Non-charring/PMMA/UQ/UQ_Cone65kW_1.csv
Time,Mass,HRR,Back Surface Temperature 1,Back Surface Temperature 2,Back Surface Temperature 3
[s],[g],[kW/m2],[K],[K],[K]
0,71.4,-2.98255,307.8,306.1,306.8
3,71.45519,-3.03434,308,306.6,307.8
6,71.42298,-3.13021,308.5,307.4,309.1
9,71.46357,-2.05359,309.1,308.4,310.6
12,71.39713,-2.15091,310.1,309.7,312.4
15,71.35779,-0.970378,311.2,311.3,314.3
18,71.35435,-1.1889,312.6,313,316.7
21,71.42286,-2.96379,314.3,314.8,319.2
24,71.38344,2.70176,316.2,316.7,321.7
27,71.49017,50.6443,318.2,318.8,324.6
30,71.5007,111.457,320.5,320.9,327.5
33,71.2567,165.809,323,323.1,330.5
36,71.0929,220.81,325.6,325.5,333.6
39,70.7267,247.401,328.3,328,336.6
42,70.4274,290.778,331.1,330.8,339.7
45,70.108,329.527,334.1,333.8,342.9
48,69.728,375.243,337,337.2,346
51,69.2984,424.156,341,342.3,349.4
54,68.8297,470.471,345.2,345.4,352.7
57,68.2758,515.419,348.9,348.5,355.9
60,67.7438,551.025,352.7,351.7,359.1
63,67.2016,597.019,356.5,354.7,362.2
66,66.8447,631.617,360,357.7,365.2
69,65.8617,649.003,363.2,360.7,367.7
72,65.26051,659.047,366.2,363.6,370.4
75,64.5914,685.071,369,366.5,373.2
78,63.7702,708.249,371.8,369.4,376
81,62.7314,734.696,374.7,372.5,379
84,61.9305,770.898,378,375.7,382.3
87,61.1857,785.141,381.3,379,385.8
90,60.2731,787.686,384.7,382.5,389.4
93,60.0602,770.448,388.2,385.8,393.2
96,59.2842,757.527,391.6,389.3,397
99,58.653,757.265,395.1,392.8,400.8
102,57.788,744.282,398.5,396.2,404.6
105,57.1133,728.871,401.8,399.6,408.5
108,56.4107,732.544,405.3,403.1,412.3
111,55.7138,750.35,408.8,406.7,416.2
114,54.9433,766.033,412.4,410.3,420.2
117,54.1112,790.121,415.9,414,424.1
120,53.3341,796.003,419.6,417.8,428.1
123,52.5154,810.667,423.2,421.6,432.3
126,51.695,837.26,426.9,425.5,436.3
129,50.8163,837.026,430.7,429.4,440.5
132,50.0153,839.732,434.4,433.3,444.7
135,49.237,838.639,438.3,437.4,449
138,48.4809,835.842,442.5,441.5,453.4
141,47.64891,844.19,446.5,445.7,458.1
144,46.4578,847.677,450.6,449.8,463.1
147,45.5961,843.481,454.8,454.1,468.2
150,44.738,841.649,459.1,458.3,473.4
153,43.9094,858.769,463.5,462.7,478.4
156,43.0678,853.69,468,466.9,484.2
159,42.1879,853.527,472.6,471.4,489.8
162,41.3345,865.131,477.4,476.3,495.5
165,40.46426,866.162,482.8,481.1,501
168,39.6232,873.658,488,485.6,506.5
171,38.7512,880.066,493,490.2,511.8
174,37.8503,875.879,498.5,495.4,516.9
177,36.9408,875.311,504.2,500.1,521.9
180,36.0772,873.532,510.2,505.5,527.5
183,35.228,862.727,516.3,510.8,533.7
186,34.4133,867.333,522.8,516.2,540.1
189,33.5403,871.34,529.4,523.4,547.4
192,32.6264,888.557,536.3,531.3,555
195,31.7285,895.12,542.9,539.7,563.2
198,30.8735,894.529,550.6,548.8,571.8
201,29.9826,892.043,559.1,558,580.7
204,29.0708,907.709,567.8,567.7,591.6
207,28.1392,917.987,576.8,578.3,604
210,27.2418,933.534,585.8,591.7,618.4
213,26.3735,948.201,594.9,609,635.1
216,25.3893,942.562,604.6,641.5,655.2
219,24.4184,939.243,613.6,656.9,681.3
222,23.4816,937.303,622.5,668,708.7
225,22.5075,936.026,633.8,677.6,741.1
228,21.55998,930.644,648.6,688.1,768.8
231,20.6255,935.37,668.5,706.6,788.8
234,19.6899,924.166,696.8,733.9,808.7
237,18.8145,911.089,727,758.4,826.2
240,17.8808,910.695,754.5,777.3,841.2
243,16.9858,914.223,777.9,795.3,854.6
246,16.0364,921.544,798.6,811,867.7
249,15.1201,925.933,817.2,824.4,880.2
252,14.2316,905.228,834.1,836.8,893.9
255,13.4438,871.229,848.6,847.9,906.6
258,12.5629,839.868,860.5,858.4,915.8
261,11.7719,817.427,869.2,867.3,924
264,11.0632,764.197,876.5,875.8,934.9
267,10.3145,699.501,882,883.2,940.7
270,9.639533,630.966,887.4,890.3,946.3
273,9.084884,579.525,893.1,897.5,955.4
276,8.607116,508.671,898.3,903.3,961
279,8.157304,449.849,903.3,908.8,969.7
282,7.751077,401.225,906.2,914.5,969.8
285,7.35288,371.513,909.4,920.4,969.8
288,7.039764,341.042,913,925.7,975.7
291,6.654856,323.052,917.2,930.9,980.9
294,6.282645,310.169,920,935.7,985.7
297,5.973874,306.227,924.2,939.4,990.6
300,5.683426,295.887,929.6,944.4,998.7
303,5.351964,292.429,932.8,948.9,1003.5
306,4.995883,288.86,937.2,953,1011.1
309,4.653786,278.376,946.2,958.1,1013.8
312,4.470736,272.444,957.3,962.3,1022.8
315,4.115437,259.747,967.4,966.6,1032.2
318,3.899157,246.321,978.7,970.7,1041.4
321,3.647648,229.324,984.9,974.6,1046.9
324,3.502538,218.636,998.3,980.9,1046.7
327,3.23835,205.532,1005.3,984.8,1041
330,3.090688,197.31,1009.6,989.5,1031.8
333,2.908828,186.813,1012.8,995.4,1024
336,2.636816,179.195,1011.6,1000.1,1011.9
339,2.551458,169.299,999.4,1007.6,1009.4
342,2.266118,164.238,992.9,1013.1,1005.7
345,2.165329,156.216,988.2,1014.8,1003.5
348,2.003635,147.861,982.7,1022,997.7
351,1.876153,139.398,979.2,1025.1,992.5
354,1.741201,133.363,975,1027.2,988.1
357,1.621059,126.622,972.1,1025.6,985.6
360,1.507509,124.537,968.6,1018.3,981.5
363,1.362297,116.644,966.9,1016.1,976.7
366,1.281274,113.046,965.2,1015.1,976.7
369,1.138824,109.367,961.9,1009.2,974
372,0.998468,106.232,959.6,1001.8,972.2
375,0.914525,102.552,957.1,1003.7,971.9
378,0.809235,99.246,955.2,1001.2,970
381,0.748735,95.5869,953.8,1000.2,968.3
384,0.679127,94.4653,952.4,996.8,964.4
387,0.598327,93.0151,951.5,991.6,964.2
390,0.46014,91.5584,949.9,988.2,962.5
393,0.359692,90.2631,949,989.7,962.5
396,0.266996,90.0054,947,984.1,962.3
399,0.175734,86.8118,947,980.9,963.5
402,0.071747,85.6719,945.9,978.1,963.2
405,0.03796,85.8014,944.4,976.2,963.3
408,0.034553,86.1433,943.4,975.1,960.6
411,0.025035,85.2184,942.4,974,957.4
414,0.029489,81.1882,942.6,972.4,957.9
417,0.026119,80.6154,941.4,970.8,956.1
420,0.034324,79.8217,940,969.5,952
423,0.023267,81.7783,937.7,967.9,954.7
426,0.025363,82.0186,939,968.2,955.5
429,0.029602,78.8142,937.3,966.6,955.2
432,0.028899,73.8339,935.5,966.1,955.9
435,0.027223,68.6649,937.2,965.5,954.7
438,0.02841,66.3547,937,964.2,954.9
441,0.032918,64.3701,935.9,963.4,954.4
444,0.027422,63.6559,935.5,962.6,953.3
447,0.025759,62.4697,934.9,961.3,952.1
450,0.022895,61.7746,934.5,961.2,953.1
453,0.029701,64.953,934.2,959.5,949.5
456,0.03308,63.5786,931.6,958.2,948.9
459,0.030387,61.6648,932.1,957.9,948.3
462,0.029234,60.7407,932.1,956.7,950.5
465,0.032587,58.8385,930.4,955.7,947
468,0.034559,57.1726,930.8,954.2,946.2
471,0.029545,57.1463,930.7,953.2,945.3
474,0.031425,55.3567,929.8,952.7,946.2
477,0.027263,54.4492,930.5,952,944.2
480,0.02912,51.6494,929.8,951.5,945.3
483,0.02286,50.5486,929.1,950.8,944
486,0.029357,49.4442,928.6,950.9,942.3
489,0.024874,49.0883,929,950.5,943.1
492,0.027236,48.2344,928.3,949.7,945.9
495,0.02599,46.6376,928.7,949.2,946
498,0.031964,44.1117,928.1,947.6,945.1
501,0.028927,42.4203,927.6,947.4,943.5
504,0.029039,40.8691,926.5,946.7,944.5
507,0.030141,39.7135,926.9,945.9,942.7
510,0.028726,38.9432,928.1,945.3,942.1
513,0.021502,38.676,927.7,944.4,940.6
516,0.021461,37.7239,926.2,943.9,940.3
519,0.029403,37.0337,926.6,943.5,941.9
522,0.020713,35.7394,926.1,943.1,942.8
525,0.026189,35.3268,926.7,942.3,940.6
528,0.031495,34.2874,926.8,942,938.6
531,0.020748,32.4881,926.4,941.5,938.8
534,0.03104,31.9399,927.1,941,939
537,0.029713,32.0392,925.9,940.7,937.4
540,0.026861,31.0624,925,940.3,940.7
543,0.024362,29.172,925.6,940.1,938.3
546,0.027905,28.1956,925.9,939.5,938.8
549,0.02947,26.026,925.9,939,938.8
552,0.030764,24.323,925,938.2,937.9
555,0.034384,22.7427,925,937.2,939
558,0.031281,22.5193,924.8,936.8,938.9
561,0.023556,20.6296,925.4,937.4,937.2
564,0.02529,19.2628,926.7,937.7,936.6
567,0.022935,17.9328,927.1,937.6,937.6
570,0.025014,17.582,926.2,937.1,938.2
573,0.023833,17.1373,926.4,936.6,938.2
576,0.032294,17.7963,926.1,936.3,938.8
579,0.033047,16.4197,925.9,935.9,937.5
582,0.034536,16.0043,925.7,935.4,936
585,0.02037,16.5202,925.5,936.2,936
588,0.026169,17.1072,925.4,935.1,936.2
591,0.021449,15.8018,925.5,935.3,937.6
594,0.021711,15.3064,925.8,935,938.2
597,0.030753,13.399,925.8,934.5,938.9
600,0.031369,12.7362,926,935,937.4
,,,,,
,,,,,
,,,,,
,,,,,
,,,,,
,,,,,
,,,,,
,,,,,
,,,,,
,,,,,
,,,,,
,,,,,
,,,,,
,,,,,
,,,,,
,,,,,
,,,,,
,,,,,
,,,,,
,,,,,
,,,,,
,,,,,
,,,,,
,,,,,
,,,,,
,,,,,
,,,,,
,,,,,
,,,,,
,,,,,
,,,,,
,,,,,
,,,,,
,,,,,
,,,,,
,,,,,
,,,,,
,,,,,
,,,,,
,,,,,
,,,,,
,,,,,
,,,,,
,,,,,
,,,,,
,,,,,
,,,,,
,,,,,
,,,,,
,,,,,
,,,,,
,,,,,
,,,,,