File: Non-charring/PMMA/UQ/UQ_Cone_25kW_1.csv
Time,Mass,HRR,Back Surface Temperature 1,Back Surface Temperature 2,Back Surface Temperature 3
[s],[g],[kW/m2],[K],[K],[K]
0,70.70,3.94105,308,308.2,306.9
4,70.66,6.74562,308.5,308.6,307.6
8,70.63,8.20519,309.1,309.1,308.7
12,70.56,6.01221,310.1,309.8,310
16,70.60,3.52431,311.3,310.7,311.8
20,70.65,2.6007,312.6,311.7,313.5
24,70.72,2.04767,314.3,312.9,315.6
28,70.67,0.622976,316,314.3,317.9
32,70.68,0.609425,317.9,315.6,320.3
36,70.71,1.04213,319.9,317.1,322.8
40,70.73,0.670704,322,318.8,325.3
44,70.73,0.588561,324.2,320.5,328.2
48,70.74,0.985645,326.6,322.4,330.8
52,70.74,0.859977,328.9,324.3,333.6
56,70.75,0.581463,331.4,326.4,336.4
60,70.79,0.92034,333.8,328.6,339.2
64,70.77,0.009501836,336.3,330.9,342
68,70.76,0.541683,338.8,333.3,344.7
72,70.79,-0.225708,341.2,335.9,347.5
76,70.77,0.109652,343.7,338.6,350.1
80,70.77,-0.415703,346.2,341.4,352.9
84,70.77,-0.327463,348.5,344.3,355.5
88,70.77,0.103573,350.8,347.1,358
92,70.74,0.339133,352.9,349.5,360.5
96,70.73,0.628761,355,351.8,362.4
100,70.71,1.08272,357.1,354,364.5
104,70.68,-0.307372,359.1,356.1,366.2
108,70.65,-0.417633,361.1,358.3,367.9
112,70.63,-0.047864,363.2,360.4,369.6
116,70.59,0.819228,365.2,362.6,371.3
120,70.55,0.607989,367.3,364.8,372.8
124,70.50,0.940537,369.5,367,374.7
128,70.47,0.919389,371.6,369.1,376.6
132,70.46,-0.465692,373.7,371.2,378.6
136,70.42,-0.58261,376,373.3,380.7
140,70.41,5.00449,378.1,375.6,382.8
144,70.38,23.5351,380.3,377.9,385
148,70.39,49.0468,382.4,380.1,387.2
152,70.31,73.7773,384.6,382.3,389.7
156,70.16,94.5183,386.8,384.6,392.2
160,70.03,112.865,389.1,387,395
164,69.85,131.028,391.6,389.5,397.8
168,69.64,148.624,394.1,392.1,400.5
172,69.38,168.178,396.7,394.6,403.2
176,69.13,190.181,399.2,397.3,405.7
180,68.83,213.147,401.6,399.8,408.2
184,68.53,232.129,404.1,402.3,410.7
188,68.20,247.815,406.5,404.7,413.1
192,67.80,266.311,409,407.2,415.6
196,67.41,280.172,411.4,409.5,418
200,66.98,292.9,414,412,420.6
204,66.62,301.144,416.4,414.5,423.1
208,66.18,303.501,418.9,417,425.7
212,65.76,312.091,421.2,419.4,428.4
216,65.39,320.84,423.6,421.8,431
220,64.88,325.831,425.9,424.2,433.6
224,64.44,334.751,428.2,426.5,436.2
228,63.94,348.381,430.5,428.8,438.6
232,63.44,353.983,432.7,431.2,441.2
236,62.99,357.421,434.8,433.4,443.6
240,62.51,364.807,437.1,435.7,446
244,62.01,360.891,439.2,437.9,448.3
248,61.49,363.769,441.3,440.2,450.8
252,61.00,368.703,443.5,442.4,453.3
256,60.54,374.297,445.7,444.7,455.7
260,60.02,376.729,447.9,446.9,458.1
264,59.50,382.646,450,449.1,460.7
268,58.99,386.058,452,451.3,462.8
272,58.49,391.434,454.1,453.4,465.3
276,57.95,394.423,456.2,455.6,467.5
280,57.42,388.161,458.3,457.8,469.8
284,56.87,396.683,460.2,459.8,472.2
288,56.36,402.18,462.3,461.9,474.5
292,55.79,406.846,464.2,464.1,476.8
296,55.28,409.747,466.3,466.2,479.3
300,54.70,406.94,468.4,468.3,481.4
304,54.15,410.872,470.3,470.3,483.7
308,53.57,417.368,472.4,472.2,485.7
312,53.00,423.423,474.4,474.3,487.9
316,52.43,427.284,476.3,476.3,490.2
320,51.86,431.664,478.2,478.3,492.4
324,51.29,429.611,480.1,480.2,494.7
328,50.72,430.41,482.1,481.6,496.7
332,50.11,432.666,484,483.6,499
336,49.52,430.718,485.9,486,501.1
340,48.95,443.487,487.8,488.1,503.3
344,48.35,446.659,489.7,490.1,505.4
348,47.71,448.895,491.6,492,507.3
352,47.14,453.351,493.4,494,509.4
356,46.49,458.393,495.4,495.8,511.5
360,45.90,458.308,497.2,497.8,513.7
364,45.25,459.459,499,499.6,515.7
368,44.61,460.764,500.7,501.7,517.7
372,43.97,465.099,502.7,503.8,519.7
376,43.31,460.531,504.6,505.7,521.8
380,42.71,461.079,506.6,507.8,523.7
384,42.08,459.321,508.3,509.6,525.8
388,41.48,467.002,510.3,511.3,528
392,40.83,465.029,512.4,513.2,530.1
396,40.19,464.439,514.5,515.1,531.9
400,39.56,463.838,516.5,517.3,533.7
404,38.95,460.817,518.7,519.6,535.4
408,38.36,458.763,521.1,521.9,537.2
412,37.73,450.549,523.6,524.2,539
416,37.16,445.877,526.1,526.6,541.2
420,36.55,438.332,528.7,529.1,543.1
424,35.96,435.907,531.2,531.7,545.3
428,35.37,433.477,533.7,534.3,547.7
432,34.76,440.739,536.3,536.9,550.4
436,34.16,440.204,538.9,539.8,552.9
440,33.52,441.371,541.6,542.7,555.6
444,32.95,443.165,544.3,545.7,558.4
448,32.39,440.638,547.2,548.9,561.1
452,31.77,442.006,550,552.2,564
456,31.17,444.453,553,555.7,567
460,30.56,448.14,555.9,559.5,570.1
464,29.96,451.349,558.8,563.3,573.2
468,29.36,451.864,561.9,567.4,576.5
472,28.74,451.427,565.6,571.8,580
476,28.15,452.303,568.7,576.3,583.9
480,27.56,447.793,572.5,581,587.5
484,26.94,449.223,576.1,586,591.5
488,26.32,448.886,579.8,591.1,595.6
492,25.71,450.556,584.1,595.8,599.7
496,25.14,445.256,587.5,600.2,603.8
500,24.54,443.387,591.4,603.8,607.7
504,23.93,439.521,595.6,607.2,611.7
508,23.34,436.931,599.7,610.3,615.8
512,22.77,432.545,603.7,613.4,619.8
516,22.21,425.168,607.6,616.4,624.1
520,21.63,416.913,611.3,619.1,628.5
524,21.06,403.885,615,621.7,633.2
528,20.51,402.959,618.7,624.6,638.2
532,19.98,395.386,622.3,627.5,643.3
536,19.42,389.958,625.7,630.4,648.7
540,18.90,385.295,629.1,634.4,654
544,18.40,385.255,633,638.4,659.3
548,17.89,378.445,637.6,642.1,669.5
552,17.40,375.025,642.4,645.8,682.1
556,16.88,372.359,648.2,650,695.2
560,16.42,371.626,656.4,654.3,707.1
564,15.89,372.688,665,659.8,718.1
568,15.38,369.113,678.6,666,728.3
572,14.90,368.886,689.2,672.7,737.8
576,14.43,354.164,702.9,679.5,748.1
580,13.99,352.897,716.3,686.9,757.4
584,13.46,341.998,728.5,694.6,766.8
588,13.06,333.967,739.9,703.4,775.1
592,12.62,324.887,749.3,714,782.1
596,12.19,309.008,758.3,724.7,787.1
600,11.84,295.553,766.3,733.7,791.1
604,11.48,275.889,778.7,743.1,794.5
608,11.10,263.386,792.9,754.4,799.9
612,10.75,249.496,804.8,765.9,803.1
616,10.43,230.93,806.7,776.7,808.2
620,10.13,215.562,815.8,786.2,811
624,9.85,202.166,819,796.3,812.4
628,9.59,188.277,827.9,805,815.8
632,9.34,181.604,836.2,812.3,819.1
636,9.17,167.957,835.1,819.2,822.1
640,8.93,161.017,836.6,826.4,826.2
644,8.68,155.362,844.7,832.4,828.1
648,8.50,147.256,846.6,837.3,830.3
652,8.32,143.095,854.5,841.7,832.3
656,8.19,136.666,857.4,845.7,832.8
660,7.97,133.524,863.8,849.3,834.6
664,7.83,129.564,863.3,853.2,838.8
668,7.70,124.669,866.2,857.1,843.2
672,7.56,120.55,867,861,844.4
676,7.40,117.521,880.4,863.2,844.8
680,7.26,115.677,880.5,865.9,844.8
684,7.12,113.669,888,867.9,851.7
688,6.96,110.734,891.1,869.9,848.4
692,6.81,108.408,891.6,872.2,848.1
696,6.70,105.765,906.3,873.8,854.3
700,6.51,103.522,909.5,875.4,852.7
704,6.43,104.607,912.9,876.6,854.1
708,6.28,101.809,918,877.4,852.5
712,6.14,102.128,921.2,878.4,851.8
716,6.03,99.9316,923.4,879.2,863.5
720,5.89,97.3106,926.6,880,866
724,5.78,95.0359,926.2,880.7,866.2
728,5.67,92.9457,925,880.9,872.7
732,5.52,91.8578,926.6,881.5,871.4
736,5.43,89.6393,926.1,882.5,872.6
740,5.32,89.2093,927.6,883.4,872.1
744,5.21,88.1688,929.7,884.8,886.4
748,5.08,86.7227,934.8,885.9,882.8
752,5.01,84.5761,938,888.1,875.7
756,4.88,84.1387,946.8,890.3,876.6
760,4.79,82.8992,958.4,893.9,883.3
764,4.66,80.2348,951.6,896.7,886.9
768,4.58,79.1088,931.1,892.7,878.6
772,4.46,79.3846,893.3,879.4,877
776,4.35,78.5524,865.5,870.8,883.3
780,4.26,75.756,847.6,864,896.4
784,4.14,74.6922,837.8,858,884.6
788,4.08,75.2819,830.8,852.4,902.4
792,3.97,73.5836,825.4,847.3,910.5
796,3.89,72.5341,819.8,842,912.9
800,3.80,72.5398,816.6,836.7,902.9
804,3.72,71.4673,812.9,831.7,909.8
808,3.65,70.3778,808.2,826.5,899.4
812,3.53,70.2103,802.6,821.7,912.8
816,3.45,67.2339,800.6,816.9,907.3
820,3.36,66.1979,795.8,812.4,898.8
824,3.29,66.2552,792.4,808.5,917.3
828,3.20,66.1783,788.6,804.9,913.2
832,3.12,65.5412,785.6,801.4,878.5
836,3.04,64.1321,784.2,798.2,868.7
840,2.98,62.4285,781.1,795.4,892.5
844,2.89,61.8075,780,792.3,908.3
848,2.84,61.2086,779.2,789.8,906.9
852,2.75,60.1357,777.5,787.4,908.3
856,2.68,58.5192,774.1,785,907.4
860,2.59,57.9579,772.1,782.8,901.7
864,2.53,58.0344,770.2,780.4,907.3
868,2.46,58.1323,767.4,778.4,892
872,2.40,56.2686,766.2,776.3,884.1
876,2.32,56.2213,765.5,774.7,898.7
880,2.25,55.7266,764.9,773,886.3
884,2.17,55.7312,763.7,771,881.2
888,2.13,56.1506,762.5,769.6,877
892,2.07,55.9026,761.6,768.4,896.7
896,1.99,55.2728,758.8,767.3,897
900,1.93,54.0705,757.4,766.2,882.9
904,1.84,53.9502,755.9,765,886.1
908,1.78,53.5982,755.8,763.8,840.4
912,1.73,53.7208,755.4,763.1,841
916,1.68,54.2882,753.7,762.3,864.6
920,1.59,52.0549,751.4,761.4,887.7
924,1.58,52.1409,750.8,760.3,883.6
928,1.49,52.6704,750.3,759.1,841.9
932,1.44,51.5333,750.8,758.1,844.6
936,1.37,50.5094,749.6,757.5,858.7
940,1.33,49.7935,748.9,756.9,853.8
944,1.23,49.0834,748.1,756,866.7
948,1.19,48.0379,748.3,755.3,844.4
952,1.14,45.5194,748.7,754.7,827.4
956,1.09,45.7401,749.6,754,823.8
960,1.00,45.457,749.7,753.4,819
964,0.96,47.6408,748.6,753,828.1
968,0.93,47.0561,746.9,752.6,832.8
972,0.88,46.5759,746,751.8,837.6
976,0.83,49.3415,746.2,751.1,852.7
980,0.76,52.1293,746.1,750.4,826
984,0.72,48.6033,744.7,749.8,821.3
988,0.66,45.4282,742.9,749.5,817.6
992,0.63,45.7567,741.4,749.2,809.6
996,0.55,44.2305,742.4,748.8,792.1
1000,0.50,40.932,742.8,748.2,795.3