File: Non-charring/PMMA/UQ/UQ_Cone_65kW_2.csv
Time,Mass,HRR,Back Surface Temperature 1,Back Surface Temperature 2,Back Surface Temperature 3
[s],[g],[kW/m2],[K],[K],[K]
0,70.44811,0.139231,308.8,307.1,307.1
3,70.10478,-0.133045,309.6,308,308.2
6,70.04514,-0.93145,310.7,309.3,309.5
9,70.11897,0.343975,312,310.7,311.1
12,70.45176,-0.0364234,313.6,312.4,313
15,70.01445,0.463102,315.5,314.1,315
18,70.10614,-1.78405,317.5,315.9,317.4
21,70.47358,6.41757,319.7,318,320
24,70.02793,63.2656,322.1,320.1,322.6
27,70.31726,139.598,324.6,322.3,325.5
30,70.34594,193.936,327.3,324.7,328.4
33,70.4757,234.676,330.1,327.1,331.4
36,70.3905,269.969,333,329.8,334.6
39,70.07662,312.999,336,332.8,337.6
42,69.9449,359.422,339,336,340.7
45,69.6186,414.034,342.1,339.5,343.7
48,69.2375,468.97,345.2,343.1,347
51,68.7847,531.875,348.2,346.8,350
54,68.412,578.726,351.3,350.4,352.9
57,67.9669,613.476,354.4,353.9,355.7
60,67.4708,637.258,357.4,357.4,358.5
63,66.96,677.777,360.4,361,361.4
66,66.4328,704.123,363.3,364.5,364
69,65.8639,706.597,365.8,368.1,366.4
72,65.3006,714.612,368.1,371.2,368.9
75,64.7342,719.3,370.5,374.2,371.2
78,64.2002,736.151,373.2,377.2,374
81,63.6229,738.889,376,380.3,377.1
84,63.0762,760.081,379.1,383.6,380.2
87,62.4881,800.17,382.2,387,383.8
90,61.7654,811.094,385.6,390.5,387.5
93,61.1571,810.954,389.1,394,391.2
96,60.4844,818.65,392.5,397.6,394.9
99,59.8637,814.767,396.1,401.1,398.7
102,59.166,805.569,399.6,404.8,402
105,58.5154,800.342,403.1,408.4,405.8
108,57.8059,799.569,406.8,412,409.6
111,57.0376,798.706,410.2,415.7,413.2
114,56.2992,794.18,413.7,419.3,417
117,55.5985,823.49,417.3,423,420.9
120,54.9331,839.659,421,426.7,425.2
123,54.1027,859.822,424.7,430.4,429.3
126,53.3716,875.438,428.4,434.2,433.5
129,52.63846,892.496,432.2,438.2,438.3
132,51.816,894.84,436.1,442.2,443.1
135,50.97921,903.474,440.1,446.3,447.8
138,50.1429,902.616,444.3,450.5,452.7
141,49.3693,908.529,448.4,454.8,457.7
144,48.5903,917.018,452.6,459.2,462.9
147,47.577,910.291,456.5,463.5,468.1
150,46.8087,910.914,460.5,467.9,473.1
153,46.0221,918.816,463.7,472.2,478.1
156,45.0136,944.099,467.1,476.6,482.5
159,44.0633,940.169,471.2,481.1,486.8
162,43.1032,940.84,475.2,485.8,491.7
165,42.2776,949.99,479.7,490.3,495.4
168,41.4051,945.08,484.4,495,499.6
171,40.4948,947.155,489,500.1,504.1
174,39.5697,952.595,493.9,505.4,508.9
177,38.5888,955.575,499.3,510.8,514.3
180,37.6677,960.506,504.6,516.6,521.1
183,36.8026,976.548,510.9,522.3,528.4
186,35.7705,973.699,517.7,528.5,536.7
189,34.6678,984.798,525.6,534.6,545.1
192,33.8259,994.326,534,540.7,553.8
195,32.70311,984.543,543.3,547.6,562.9
198,31.784,964.793,552.1,555.4,572.4
201,30.8149,953.921,560.7,563.9,582.9
204,29.86872,951.01,569.3,573.3,593.7
207,28.9727,971.279,578.4,583.7,605
210,27.9604,973.998,587.9,594.3,617.7
213,27.0538,962.613,598.4,604.6,632.9
216,26.0694,965.009,610,614.5,652.2
219,25.0504,980.67,622.5,625,684.8
222,23.9358,991.236,635.7,637.3,730.2
225,23.0773,993.4775,653.2,654.4,772
228,22.1067,1016.35,680.4,675.9,801.1
231,20.91298,1023.6,714,701.3,822.7
234,20.0031,1037.51,745.7,725.7,839.3
237,19.05091,1020.46,779.5,746.6,853.9
240,18.2656,962.912,801.7,767.2,867.2
243,17.4889,878.869,818.8,786.9,879.7
246,16.7234,795.71,834.5,806.2,891.4
249,15.9309,708.231,848.6,824.7,902
252,15.1357,637.139,861.1,843.6,911.7
255,14.5595,592.453,872,858.9,920.8
258,13.8755,557.072,881.8,873.1,928.1
261,13.45,523.462,890.5,883.3,936.6
264,12.8779,496.885,898.4,891.8,943.7
267,12.4292,481.274,905.6,900.1,949.3
270,11.9802,451.08,911.6,907.2,952.7
273,11.5725,425.319,916.6,912.6,957.4
276,10.9476,404.416,920.7,917.4,960.8
279,10.5092,394.795,924.4,921.8,963.8
282,10.1564,392.206,928.1,926.9,966.3
285,9.61755,372.826,931.4,931.3,970.3
288,9.239637,365.504,934.5,935.7,973
291,9.030062,359.628,937.3,939.2,975.8
294,8.63789,345.21,940.3,942.8,979.1
297,8.300324,322.585,943.3,946.4,981.7
300,8.060969,309.534,946.7,950.4,985.4
303,7.728726,290.983,949.7,954,989.2
306,7.488015,276.724,952.7,957,992.7
309,7.143187,263.483,955.4,959.4,996.7
312,6.936271,250.886,958.5,962.2,1000.7
315,6.785766,240.868,962.2,964.4,1003.3
318,6.535356,233.722,966.1,967.4,1006.5
321,6.274136,225.295,969.8,970.9,1011.5
324,5.930285,217.922,974.8,973.9,1015.2
327,5.518247,210.381,980.2,975.7,1019.7
330,5.575387,202.666,986.7,979.8,1024
333,5.397966,198.262,992.2,982.2,1026.7
336,5.221699,186.831,999.1,987,1031.6
339,5.053679,178.561,1005.8,992.6,1036.4
342,4.85341,172.932,1014.1,1007,1038.8
345,4.620872,165.991,1020.5,1008.3,1039.2
348,4.350666,158.822,1027.2,1005.3,1036.5
351,4.354179,152.509,1034.8,1021.2,1032.9
354,4.333371,146.882,1040.3,1044.7,1028.3
357,4.248268,131.722,1044.9,1054.9,1023.1
360,4.060605,122.039,1045.4,1066.8,1017.5
363,3.736575,113.271,1042.6,1074.7,1012.1
366,3.574286,106.915,1037.8,1078.3,1008.4
369,3.579416,102.485,1033.2,1081.4,1004.5
372,3.495667,96.7396,1028.7,1079.9,1001
375,3.417739,95.0313,1024.3,1083.3,998.3
378,3.325178,92.5255,1020.6,1085.6,996.8
381,3.114637,86.9773,1016.8,1073.6,994.1
384,3.076466,81.7758,1011.4,1079.1,991.2
387,2.814387,78.3386,1007.8,1072.4,988.4
390,2.87296,76.8062,1003.5,1050.8,986.3
393,2.759218,73.8982,999.8,1039.2,983.6
396,2.580542,69.8346,996.2,1048.6,981.1
399,2.439344,68.8375,993.9,1051.7,980.2
402,2.462006,64.4266,991.4,1032.1,978.2
405,2.370275,62.7153,989.1,1026.9,976.1
408,2.252726,60.8,986.5,1008.4,973.5
411,2.159926,59.3618,984.1,997.6,972.1
414,2.10386,56.7689,981.5,997.7,970.1
417,2.040099,56.7503,979,990.9,968.1
420,1.910932,54.5481,976.9,985.9,966.7
423,1.835255,51.706,975.1,983.5,965.9
426,1.683444,49.2907,973.5,981.9,964.1
429,1.610135,47.7967,971.3,979,962.2
432,1.552099,45.0986,969.4,973.4,961.1
435,1.489448,44.4483,967.8,970.8,960
438,1.535703,43.6217,965.9,968.1,958.7
441,1.403925,41.9792,964.2,968.1,956.9
444,1.351856,40.8945,962.8,964,955.6
447,1.240755,39.565,961.3,960.7,954.1
450,1.239146,37.7258,959.6,958.6,952.5
453,1.151867,37.1413,958.1,959.2,951.6
456,1.063343,36.6709,956.7,955.5,951.2
459,0.990696,34.861,955.6,953.6,950.2
462,0.894777,34.0027,954.2,955.9,949.3
465,0.824349,32.8431,953.2,952.3,948.3
468,0.748548,30.8387,952.7,952.4,948
471,0.72133,29.3053,951.6,951.7,947.6
474,0.712934,28.7542,950.5,951.1,947
477,0.639027,27.8193,949.8,949.1,946.2
480,0.517375,27.2666,949.1,949,944.8
483,0.43603,26.1857,948.4,948.4,944.5
486,0.418331,26.0133,947.5,946.2,944.4
489,0.437044,25.2603,947.5,944.5,943.9
492,0.441589,24.9372,947.2,941.7,943.1
495,0.414336,23.9226,946.4,941.3,942.9
498,0.321578,23.4299,945.3,942,942.3
501,0.205976,23.1104,944.8,940.4,941.7
504,0.166693,22.1892,944.9,941.6,942
507,0.135684,20.8382,944.9,943.7,941.9
510,0.112778,21.2977,944.8,944.3,942
513,0.070169,20.3326,944.6,941,941.7
516,0.054863,20.5769,944.2,942.2,941.4
519,0.059173,19.4716,943.7,942.3,941.7
522,0.065587,19.7861,943.6,942.4,941.2
525,0.057063,18.7691,943.7,939.9,940.8
528,0.055192,18.8813,943.3,940.4,940.3
531,0.062871,17.7548,942.9,938.6,939.9
534,0.060423,16.6837,942.8,939.6,939.8
537,0.073346,16.1615,942.7,942.2,939.8
540,0.056499,16.6342,942.4,941.7,939.9
543,0.059387,15.4423,942.2,939,939.8
546,0.059981,15.6505,942.3,939.2,939.5
549,0.065515,14.6679,942.3,937.9,939.2
552,0.054546,15.6049,942,938.3,939.5
555,0.060359,15.8566,942,938,939.2
558,0.070306,14.411,942.4,935.4,939.8
561,0.056296,14.2002,941.9,936.7,939.9
564,0.067256,13.4696,941.5,936,939.7
567,0.064397,13.473,941.4,933,939.7
570,0.059387,12.4472,941.5,933.1,939.6
573,0.064993,13.3196,941.8,934.6,939.6
576,0.054265,12.5428,942,934.8,939.4
579,0.054346,12.8919,942.2,938.5,939.4
582,0.058947,11.9789,942.3,936.6,939.6
584,0.063118,11.8801,942.1,937.5,940