File: Non-charring/PMMA/UQ/UQ_TGA_N2_1.csv
Time,Temperature,Mass
[s],[K],[mg]
0,316.651,5.2963
0.2,318.651,5.2951
0.4,320.651,5.2965
0.6,322.651,5.2976
0.8,324.651,5.2981
1,326.651,5.299
1.2,328.651,5.295
1.4,330.651,5.2983
1.6,332.651,5.2971
1.8,334.651,5.2972
2,336.651,5.2958
2.2,338.651,5.2936
2.4,340.651,5.2919
2.6,342.651,5.2916
2.8,344.651,5.2936
3,346.651,5.2931
3.2,348.651,5.2935
3.4,350.651,5.2919
3.6,352.651,5.2918
3.8,354.651,5.2944
4,356.651,5.2926
4.2,358.651,5.2925
4.4,360.651,5.2918
4.6,362.651,5.291
4.8,364.651,5.2917
5,366.651,5.2891
5.2,368.651,5.2896
5.4,370.651,5.2893
5.6,372.651,5.2897
5.8,374.651,5.2874
6,376.651,5.2871
6.2,378.651,5.2884
6.4,380.651,5.2873
6.6,382.651,5.2859
6.8,384.651,5.2852
7,386.651,5.2868
7.2,388.651,5.2861
7.4,390.651,5.2857
7.6,392.651,5.2863
7.8,394.651,5.2854
8,396.651,5.2843
8.2,398.651,5.2819
8.4,400.651,5.2813
8.6,402.651,5.28
8.8,404.651,5.279
9,406.651,5.2787
9.2,408.651,5.2766
9.4,410.651,5.2746
9.6,412.651,5.2743
9.8,414.651,5.2722
10,416.651,5.2712
10.2,418.651,5.2693
10.4,420.651,5.2683
10.6,422.651,5.2673
10.8,424.651,5.2672
11,426.651,5.2646
11.2,428.651,5.2619
11.4,430.651,5.2591
11.6,432.651,5.2553
11.8,434.651,5.2537
12,436.651,5.2506
12.2,438.651,5.2478
12.4,440.651,5.2424
12.6,442.651,5.2373
12.8,444.651,5.2335
13,446.651,5.2262
13.2,448.651,5.2202
13.4,450.651,5.2148
13.6,452.651,5.2091
13.8,454.651,5.2016
14,456.651,5.1949
14.2,458.651,5.1875
14.4,460.651,5.1814
14.6,462.651,5.1747
14.8,464.651,5.1706
15,466.651,5.1654
15.2,468.651,5.1585
15.4,470.651,5.1516
15.6,472.651,5.1451
15.8,474.651,5.1392
16,476.651,5.1339
16.2,478.651,5.1286
16.4,480.651,5.122
16.6,482.651,5.1168
16.8,484.651,5.1131
17,486.651,5.1069
17.2,488.651,5.1036
17.4,490.651,5.1023
17.6,492.651,5.0995
17.8,494.651,5.0974
18,496.651,5.0959
18.2,498.651,5.0939
18.4,500.651,5.0908
18.6,502.651,5.089
18.8,504.651,5.0869
19,506.651,5.0851
19.2,508.651,5.0851
19.4,510.651,5.0851
19.6,512.651,5.0847
19.8,514.651,5.0838
20,516.651,5.0805
20.2,518.651,5.0764
20.4,520.651,5.0747
20.6,522.651,5.0729
20.8,524.651,5.0716
21,526.651,5.0704
21.2,528.651,5.0674
21.4,530.651,5.0633
21.6,532.651,5.0613
21.8,534.651,5.0564
22,536.651,5.0515
22.2,538.651,5.047
22.4,540.651,5.042
22.6,542.651,5.0361
22.8,544.651,5.0297
23,546.651,5.0244
23.2,548.651,5.017
23.4,550.651,5.0078
23.6,552.651,4.998
23.8,554.651,4.9862
24,556.651,4.9767
24.2,558.651,4.9653
24.4,560.651,4.9538
24.6,562.651,4.941
24.8,564.651,4.9283
25,566.651,4.914
25.2,568.651,4.9008
25.4,570.651,4.8869
25.6,572.651,4.8727
25.8,574.651,4.8579
26,576.651,4.842
26.2,578.651,4.8243
26.4,580.651,4.8042
26.6,582.651,4.7826
26.8,584.651,4.7599
27,586.651,4.7331
27.2,588.651,4.7062
27.4,590.651,4.6772
27.6,592.651,4.6427
27.8,594.651,4.6018
28,596.651,4.56
28.2,598.651,4.515
28.4,600.651,4.4642
28.6,602.651,4.403
28.8,604.651,4.3334
29,606.651,4.256
29.2,608.651,4.1776
29.4,610.651,4.0888
29.6,612.651,3.9933
29.8,614.651,3.8872
30,616.651,3.7697
30.2,618.651,3.6437
30.4,620.651,3.509
30.6,622.651,3.3656
30.8,624.651,3.2168
31,626.651,3.0624
31.2,628.651,2.9005
31.4,630.651,2.7365
31.6,632.651,2.5691
31.8,634.651,2.3957
32,636.651,2.221
32.2,638.651,2.0445
32.4,640.651,1.8656
32.6,642.651,1.6918
32.8,644.651,1.5233
33,646.651,1.3604
33.2,648.651,1.2053
33.4,650.651,1.062
33.6,652.651,0.9259
33.8,654.651,0.802
34,656.651,0.695
34.2,658.651,0.5973
34.4,660.651,0.5121
34.6,662.651,0.4364
34.8,664.651,0.3766
35,666.651,0.3202
35.2,668.651,0.2721
35.4,670.651,0.2298
35.6,672.651,0.1942
35.8,674.651,0.1675
36,676.651,0.1432
36.2,678.651,0.1221
36.4,680.651,0.1059
36.6,682.651,0.0917
36.8,684.651,0.0791
37,686.651,0.0683
37.2,688.651,0.0598
37.4,690.651,0.0521
37.6,692.651,0.046
37.8,694.651,0.0389
38,696.651,0.0339
38.2,698.651,0.0286
38.4,700.651,0.0248
38.6,702.651,0.0228
38.8,704.651,0.0228
39,706.651,0.0228
39.2,708.651,0.0228
39.4,710.651,0.0228
39.6,712.651,0.0228
39.8,714.651,0.0226
40,716.651,0.0222
40.2,718.651,0.0219
40.4,720.651,0.0216
40.6,722.651,0.0212
40.8,724.651,0.0208
41,726.651,0.0207
41.2,728.651,0.0207
41.4,730.651,0.0207
41.6,732.651,0.0207
41.8,734.651,0.0207
42,736.651,0.0207
42.2,738.651,0.0207
42.4,740.651,0.0207
42.6,742.651,0.0207
42.8,744.651,0.0206
43,746.651,0.0204
43.2,748.651,0.0203
43.4,750.651,0.0202