File: Non-charring/PMMA/UQ/UQ_TGA_N2_10K_1.csv
Time,Temperature,Mass
[s],[K],[mg]
0,316.651,5.2963
12,318.651,5.2951
24,320.651,5.2965
36,322.651,5.2976
48,324.651,5.2981
60,326.651,5.299
72,328.651,5.295
84,330.651,5.2983
96,332.651,5.2971
108,334.651,5.2972
120,336.651,5.2958
132,338.651,5.2936
144,340.651,5.2919
156,342.651,5.2916
168,344.651,5.2936
180,346.651,5.2931
192,348.651,5.2935
204,350.651,5.2919
216,352.651,5.2918
228,354.651,5.2944
240,356.651,5.2926
252,358.651,5.2925
264,360.651,5.2918
276,362.651,5.291
288,364.651,5.2917
300,366.651,5.2891
312,368.651,5.2896
324,370.651,5.2893
336,372.651,5.2897
348,374.651,5.2874
360,376.651,5.2871
372,378.651,5.2884
384,380.651,5.2873
396,382.651,5.2859
408,384.651,5.2852
420,386.651,5.2868
432,388.651,5.2861
444,390.651,5.2857
456,392.651,5.2863
468,394.651,5.2854
480,396.651,5.2843
492,398.651,5.2819
504,400.651,5.2813
516,402.651,5.28
528,404.651,5.279
540,406.651,5.2787
552,408.651,5.2766
564,410.651,5.2746
576,412.651,5.2743
588,414.651,5.2722
600,416.651,5.2712
612,418.651,5.2693
624,420.651,5.2683
636,422.651,5.2673
648,424.651,5.2672
660,426.651,5.2646
672,428.651,5.2619
684,430.651,5.2591
696,432.651,5.2553
708,434.651,5.2537
720,436.651,5.2506
732,438.651,5.2478
744,440.651,5.2424
756,442.651,5.2373
768,444.651,5.2335
780,446.651,5.2262
792,448.651,5.2202
804,450.651,5.2148
816,452.651,5.2091
828,454.651,5.2016
840,456.651,5.1949
852,458.651,5.1875
864,460.651,5.1814
876,462.651,5.1747
888,464.651,5.1706
900,466.651,5.1654
912,468.651,5.1585
924,470.651,5.1516
936,472.651,5.1451
948,474.651,5.1392
960,476.651,5.1339
972,478.651,5.1286
984,480.651,5.122
996,482.651,5.1168
1008,484.651,5.1131
1020,486.651,5.1069
1032,488.651,5.1036
1044,490.651,5.1023
1056,492.651,5.0995
1068,494.651,5.0974
1080,496.651,5.0959
1092,498.651,5.0939
1104,500.651,5.0908
1116,502.651,5.089
1128,504.651,5.0869
1140,506.651,5.0851
1152,508.651,5.0851
1164,510.651,5.0851
1176,512.651,5.0847
1188,514.651,5.0838
1200,516.651,5.0805
1212,518.651,5.0764
1224,520.651,5.0747
1236,522.651,5.0729
1248,524.651,5.0716
1260,526.651,5.0704
1272,528.651,5.0674
1284,530.651,5.0633
1296,532.651,5.0613
1308,534.651,5.0564
1320,536.651,5.0515
1332,538.651,5.047
1344,540.651,5.042
1356,542.651,5.0361
1368,544.651,5.0297
1380,546.651,5.0244
1392,548.651,5.017
1404,550.651,5.0078
1416,552.651,4.998
1428,554.651,4.9862
1440,556.651,4.9767
1452,558.651,4.9653
1464,560.651,4.9538
1476,562.651,4.941
1488,564.651,4.9283
1500,566.651,4.914
1512,568.651,4.9008
1524,570.651,4.8869
1536,572.651,4.8727
1548,574.651,4.8579
1560,576.651,4.842
1572,578.651,4.8243
1584,580.651,4.8042
1596,582.651,4.7826
1608,584.651,4.7599
1620,586.651,4.7331
1632,588.651,4.7062
1644,590.651,4.6772
1656,592.651,4.6427
1668,594.651,4.6018
1680,596.651,4.56
1692,598.651,4.515
1704,600.651,4.4642
1716,602.651,4.403
1728,604.651,4.3334
1740,606.651,4.256
1752,608.651,4.1776
1764,610.651,4.0888
1776,612.651,3.9933
1788,614.651,3.8872
1800,616.651,3.7697
1812,618.651,3.6437
1824,620.651,3.509
1836,622.651,3.3656
1848,624.651,3.2168
1860,626.651,3.0624
1872,628.651,2.9005
1884,630.651,2.7365
1896,632.651,2.5691
1908,634.651,2.3957
1920,636.651,2.221
1932,638.651,2.0445
1944,640.651,1.8656
1956,642.651,1.6918
1968,644.651,1.5233
1980,646.651,1.3604
1992,648.651,1.2053
2004,650.651,1.062
2016,652.651,0.9259
2028,654.651,0.802
2040,656.651,0.695
2052,658.651,0.5973
2064,660.651,0.5121
2076,662.651,0.4364
2088,664.651,0.3766
2100,666.651,0.3202
2112,668.651,0.2721
2124,670.651,0.2298
2136,672.651,0.1942
2148,674.651,0.1675
2160,676.651,0.1432
2172,678.651,0.1221
2184,680.651,0.1059
2196,682.651,0.0917
2208,684.651,0.0791
2220,686.651,0.0683
2232,688.651,0.0598
2244,690.651,0.0521
2256,692.651,0.046
2268,694.651,0.0389
2280,696.651,0.0339
2292,698.651,0.0286
2304,700.651,0.0248
2316,702.651,0.0228
2328,704.651,0.0228
2340,706.651,0.0228
2352,708.651,0.0228
2364,710.651,0.0228
2376,712.651,0.0228
2388,714.651,0.0226
2400,716.651,0.0222
2412,718.651,0.0219
2424,720.651,0.0216
2436,722.651,0.0212
2448,724.651,0.0208
2460,726.651,0.0207
2472,728.651,0.0207
2484,730.651,0.0207
2496,732.651,0.0207
2508,734.651,0.0207
2520,736.651,0.0207
2532,738.651,0.0207
2544,740.651,0.0207
2556,742.651,0.0207
2568,744.651,0.0206
2580,746.651,0.0204
2592,748.651,0.0203
2604,750.651,0.0202