File: Non-charring/PMMA/UQ/UQ_TGA_Air_2.csv
Time,Temperature,Mass,,,,
[min],[K],[mg],,,,
0,316.497,5.1344,,,,
0.2,318.497,5.1326,,,,
0.4,320.497,5.1317,,,,
0.6,322.497,5.1321,,,,
0.8,324.497,5.1346,,,,
1,326.497,5.1423,,,,
1.2,328.497,5.1522,,,,
1.4,330.497,5.1609,,,,
1.6,332.497,5.1718,,,,
1.8,334.497,5.1796,,,,
2,336.497,5.1856,,,,
2.2,338.497,5.1913,,,,
2.4,340.497,5.1945,,,,
2.6,342.497,5.1984,,,,
2.8,344.497,5.1986,,,,
3,346.497,5.1991,,,,
3.2,348.497,5.1989,,,,
3.4,350.497,5.1955,,,,
3.6,352.497,5.1952,,,,
3.8,354.497,5.1923,,,,
4,356.497,5.1909,,,,
4.2,358.497,5.1918,,,,
4.4,360.497,5.1914,,,,
4.6,362.497,5.1889,,,,
4.8,364.497,5.1883,,,,
5,366.497,5.1902,,,,
5.2,368.497,5.1882,,,,
5.4,370.497,5.1878,,,,
5.6,372.497,5.1897,,,,
5.8,374.497,5.1902,,,,
6,376.497,5.1901,,,,
6.2,378.497,5.1912,,,,
6.4,380.497,5.195,,,,
6.6,382.497,5.1989,,,,
6.8,384.497,5.1938,,,,
7,386.497,5.1916,,,,
7.2,388.497,5.1924,,,,
7.4,390.497,5.1958,,,,
7.6,392.497,5.1981,,,,
7.8,394.497,5.1948,,,,
8,396.497,5.193,,,,
8.2,398.497,5.1918,,,,
8.4,400.497,5.191,,,,
8.6,402.497,5.1935,,,,
8.8,404.497,5.1937,,,,
9,406.497,5.1928,,,,
9.2,408.497,5.1923,,,,
9.4,410.497,5.1911,,,,
9.6,412.497,5.1905,,,,
9.8,414.497,5.1897,,,,
10,416.497,5.1896,,,,
10.2,418.497,5.1892,,,,
10.4,420.497,5.1881,,,,
10.6,422.497,5.1881,,,,
10.8,424.497,5.1881,,,,
11,426.497,5.1881,,,,
11.2,428.497,5.1917,,,,
11.4,430.497,5.1903,,,,
11.6,432.497,5.1869,,,,
11.8,434.497,5.1855,,,,
12,436.497,5.1853,,,,
12.2,438.497,5.1837,,,,
12.4,440.497,5.1838,,,,
12.6,442.497,5.186,,,,
12.8,444.497,5.1843,,,,
13,446.497,5.1821,,,,
13.2,448.497,5.18,,,,
13.4,450.497,5.1789,,,,
13.6,452.497,5.1771,,,,
13.8,454.497,5.1785,,,,
14,456.497,5.1773,,,,
14.2,458.497,5.1779,,,,
14.4,460.497,5.1782,,,,
14.6,462.497,5.177,,,,
14.8,464.497,5.1763,,,,
15,466.497,5.1762,,,,
15.2,468.497,5.1749,,,,
15.4,470.497,5.1734,,,,
15.6,472.497,5.1743,,,,
15.8,474.497,5.1757,,,,
16,476.497,5.1764,,,,
16.2,478.497,5.1764,,,,
16.4,480.497,5.1757,,,,
16.6,482.497,5.1763,,,,
16.8,484.497,5.1766,,,,
17,486.497,5.1763,,,,
17.2,488.497,5.1749,,,,
17.4,490.497,5.174,,,,
17.6,492.497,5.1743,,,,
17.8,494.497,5.1744,,,,
18,496.497,5.1741,,,,
18.2,498.497,5.1756,,,,
18.4,500.497,5.1771,,,,
18.6,502.497,5.1761,,,,
18.8,504.497,5.1763,,,,
19,506.497,5.1767,,,,
19.2,508.497,5.1767,,,,
19.4,510.497,5.1764,,,,
19.6,512.497,5.1755,,,,
19.8,514.497,5.1757,,,,
20,516.497,5.1739,,,,
20.2,518.497,5.1716,,,,
20.4,520.497,5.1716,,,,
20.6,522.497,5.1716,,,,
20.8,524.497,5.1698,,,,
21,526.497,5.1697,,,,
21.2,528.497,5.1675,,,,
21.4,530.497,5.1655,,,,
21.6,532.497,5.1611,,,,
21.8,534.497,5.1547,,,,
22,536.497,5.1492,,,,
22.2,538.497,5.1405,,,,
22.4,540.497,5.1305,,,,
22.6,542.497,5.1171,,,,
22.8,544.497,5.1035,,,,
23,546.497,5.0868,,,,
23.2,548.497,5.0656,,,,
23.4,550.497,5.0462,,,,
23.6,552.497,5.0301,,,,
23.8,554.497,5.0096,,,,
24,556.497,4.9892,,,,
24.2,558.497,4.9701,,,,
24.4,560.497,4.9467,,,,
24.6,562.497,4.9161,,,,
24.8,564.497,4.883,,,,
25,566.497,4.8519,,,,
25.2,568.497,4.805,,,,
25.4,570.497,4.7549,,,,
25.6,572.497,4.6816,,,,
25.8,574.497,4.6026,,,,
26,576.497,4.4985,,,,
26.2,578.497,4.3704,,,,
26.4,580.497,4.2322,,,,
26.6,582.497,4.0882,,,,
26.8,584.497,3.9428,,,,
27,586.497,3.7766,,,,
27.2,588.497,3.6165,,,,
27.4,590.497,3.4433,,,,
27.6,592.497,3.2787,,,,
27.8,594.497,3.1189,,,,
28,596.497,2.9181,,,,
28.2,598.497,2.6886,,,,
28.4,600.497,2.4545,,,,
28.6,602.497,2.2273,,,,
28.8,604.497,2.0028,,,,
29,606.497,1.7861,,,,
29.2,608.497,1.5896,,,,
29.4,610.497,1.4099,,,,
29.6,612.497,1.2606,,,,
29.8,614.497,1.1246,,,,
30,616.497,0.995,,,,
30.2,618.497,0.8819,,,,
30.4,620.497,0.7849,,,,
30.6,622.497,0.7007,,,,
30.8,624.497,0.627,,,,
31,626.497,0.5665,,,,
31.2,628.497,0.5128,,,,
31.4,630.497,0.4592,,,,
31.6,632.497,0.4195,,,,
31.8,634.497,0.3812,,,,
32,636.497,0.3413,,,,
32.2,638.497,0.3067,,,,
32.4,640.497,0.2755,,,,
32.6,642.497,0.2495,,,,
32.8,644.497,0.2224,,,,
33,646.497,0.2023,,,,
33.2,648.497,0.1829,,,,
33.4,650.497,0.1651,,,,
33.6,652.497,0.1477,,,,
33.8,654.497,0.1339,,,,
34,656.497,0.1214,,,,
34.2,658.497,0.1042,,,,
34.4,660.497,0.0919,,,,
34.6,662.497,0.0803,,,,
34.8,664.497,0.0718,,,,
35,666.497,0.0627,,,,
35.2,668.497,0.053,,,,
35.4,670.497,0.0455,,,,
35.6,672.497,0.0363,,,,
35.8,674.497,0.0282,,,,
36,676.497,0.0234,,,,
36.2,678.497,0.02,,,,
36.4,680.497,0.0177,,,,
36.6,682.497,0.0125,,,,
36.8,684.497,0.0128,,,,
37,686.497,0.0118,,,,
37.2,688.497,0.0101,,,,
37.4,690.497,0.0092,,,,
37.6,692.497,0.0085,,,,
37.8,694.497,0.0062,,,,
38,696.497,0.0057,,,,
38.2,698.497,0.0054,,,,
38.4,700.497,0.0071,,,,
38.6,702.497,0.0075,,,,
38.8,704.497,0.0069,,,,
39,706.497,0.0062,,,,
39.2,708.497,0.0045,,,,
39.4,710.497,0.0019,,,,
39.6,712.497,0.0069,,,,
39.8,714.497,0.0066,,,,
40,716.497,0.0053,,,,
40.2,718.497,0.0052,,,,
40.4,720.497,0.004,,,,
40.6,722.497,0.0037,,,,
40.8,724.497,0.0036,,,,
41,726.497,0.0035,,,,
41.2,728.497,0.0048,,,,
41.4,730.497,0.0031,,,,
41.6,732.497,0,,,,
41.8,734.497,0.0026,,,,
42,736.497,0.0054,,,,
42.2,738.497,0.0055,,,,
42.4,740.497,0.0041,,,,
42.6,742.497,0.0038,,,,
42.8,744.497,0.0038,,,,
43,746.497,0.0038,,,,
43.2,748.497,0.0036,,,,
43.4,750.497,0.0033,,,,