File: Non-charring/PMMA/UQ/UQ_TGA_O2-21_10K_2.csv
Time,Temperature,Mass
[s],[K],[mg]
0,316.497,5.1344
12,318.497,5.1326
24,320.497,5.1317
36,322.497,5.1321
48,324.497,5.1346
60,326.497,5.1423
72,328.497,5.1522
84,330.497,5.1609
96,332.497,5.1718
108,334.497,5.1796
120,336.497,5.1856
132,338.497,5.1913
144,340.497,5.1945
156,342.497,5.1984
168,344.497,5.1986
180,346.497,5.1991
192,348.497,5.1989
204,350.497,5.1955
216,352.497,5.1952
228,354.497,5.1923
240,356.497,5.1909
252,358.497,5.1918
264,360.497,5.1914
276,362.497,5.1889
288,364.497,5.1883
300,366.497,5.1902
312,368.497,5.1882
324,370.497,5.1878
336,372.497,5.1897
348,374.497,5.1902
360,376.497,5.1901
372,378.497,5.1912
384,380.497,5.195
396,382.497,5.1989
408,384.497,5.1938
420,386.497,5.1916
432,388.497,5.1924
444,390.497,5.1958
456,392.497,5.1981
468,394.497,5.1948
480,396.497,5.193
492,398.497,5.1918
504,400.497,5.191
516,402.497,5.1935
528,404.497,5.1937
540,406.497,5.1928
552,408.497,5.1923
564,410.497,5.1911
576,412.497,5.1905
588,414.497,5.1897
600,416.497,5.1896
612,418.497,5.1892
624,420.497,5.1881
636,422.497,5.1881
648,424.497,5.1881
660,426.497,5.1881
672,428.497,5.1917
684,430.497,5.1903
696,432.497,5.1869
708,434.497,5.1855
720,436.497,5.1853
732,438.497,5.1837
744,440.497,5.1838
756,442.497,5.186
768,444.497,5.1843
780,446.497,5.1821
792,448.497,5.18
804,450.497,5.1789
816,452.497,5.1771
828,454.497,5.1785
840,456.497,5.1773
852,458.497,5.1779
864,460.497,5.1782
876,462.497,5.177
888,464.497,5.1763
900,466.497,5.1762
912,468.497,5.1749
924,470.497,5.1734
936,472.497,5.1743
948,474.497,5.1757
960,476.497,5.1764
972,478.497,5.1764
984,480.497,5.1757
996,482.497,5.1763
1008,484.497,5.1766
1020,486.497,5.1763
1032,488.497,5.1749
1044,490.497,5.174
1056,492.497,5.1743
1068,494.497,5.1744
1080,496.497,5.1741
1092,498.497,5.1756
1104,500.497,5.1771
1116,502.497,5.1761
1128,504.497,5.1763
1140,506.497,5.1767
1152,508.497,5.1767
1164,510.497,5.1764
1176,512.497,5.1755
1188,514.497,5.1757
1200,516.497,5.1739
1212,518.497,5.1716
1224,520.497,5.1716
1236,522.497,5.1716
1248,524.497,5.1698
1260,526.497,5.1697
1272,528.497,5.1675
1284,530.497,5.1655
1296,532.497,5.1611
1308,534.497,5.1547
1320,536.497,5.1492
1332,538.497,5.1405
1344,540.497,5.1305
1356,542.497,5.1171
1368,544.497,5.1035
1380,546.497,5.0868
1392,548.497,5.0656
1404,550.497,5.0462
1416,552.497,5.0301
1428,554.497,5.0096
1440,556.497,4.9892
1452,558.497,4.9701
1464,560.497,4.9467
1476,562.497,4.9161
1488,564.497,4.883
1500,566.497,4.8519
1512,568.497,4.805
1524,570.497,4.7549
1536,572.497,4.6816
1548,574.497,4.6026
1560,576.497,4.4985
1572,578.497,4.3704
1584,580.497,4.2322
1596,582.497,4.0882
1608,584.497,3.9428
1620,586.497,3.7766
1632,588.497,3.6165
1644,590.497,3.4433
1656,592.497,3.2787
1668,594.497,3.1189
1680,596.497,2.9181
1692,598.497,2.6886
1704,600.497,2.4545
1716,602.497,2.2273
1728,604.497,2.0028
1740,606.497,1.7861
1752,608.497,1.5896
1764,610.497,1.4099
1776,612.497,1.2606
1788,614.497,1.1246
1800,616.497,0.995
1812,618.497,0.8819
1824,620.497,0.7849
1836,622.497,0.7007
1848,624.497,0.627
1860,626.497,0.5665
1872,628.497,0.5128
1884,630.497,0.4592
1896,632.497,0.4195
1908,634.497,0.3812
1920,636.497,0.3413
1932,638.497,0.3067
1944,640.497,0.2755
1956,642.497,0.2495
1968,644.497,0.2224
1980,646.497,0.2023
1992,648.497,0.1829
2004,650.497,0.1651
2016,652.497,0.1477
2028,654.497,0.1339
2040,656.497,0.1214
2052,658.497,0.1042
2064,660.497,0.0919
2076,662.497,0.0803
2088,664.497,0.0718
2100,666.497,0.0627
2112,668.497,0.053
2124,670.497,0.0455
2136,672.497,0.0363
2148,674.497,0.0282
2160,676.497,0.0234
2172,678.497,0.02
2184,680.497,0.0177
2196,682.497,0.0125
2208,684.497,0.0128
2220,686.497,0.0118
2232,688.497,0.0101
2244,690.497,0.0092
2256,692.497,0.0085
2268,694.497,0.0062
2280,696.497,0.0057
2292,698.497,0.0054
2304,700.497,0.0071
2316,702.497,0.0075
2328,704.497,0.0069
2340,706.497,0.0062
2352,708.497,0.0045
2364,710.497,0.0019
2376,712.497,0.0069
2388,714.497,0.0066
2400,716.497,0.0053
2412,718.497,0.0052
2424,720.497,0.004
2436,722.497,0.0037
2448,724.497,0.0036
2460,726.497,0.0035
2472,728.497,0.0048
2484,730.497,0.0031
2496,732.497,0
2508,734.497,0.0026
2520,736.497,0.0054
2532,738.497,0.0055
2544,740.497,0.0041
2556,742.497,0.0038
2568,744.497,0.0038
2580,746.497,0.0038
2592,748.497,0.0036
2604,750.497,0.0033