File: Non-charring/PMMA/UQ/UQ_TGA_N2_3.csv
Time,Temperature,Mass
[s],[K],[mg]
0,316.816,5.5945
0.4,320.816,5.5967
0.8,324.816,5.5995
1.2,328.816,5.5993
1.6,332.816,5.5992
2,336.816,5.5973
2.4,340.816,5.5945
2.8,344.816,5.5968
3.2,348.816,5.5984
3.6,352.816,5.5957
4,356.816,5.5942
4.4,360.816,5.5951
4.8,364.816,5.5942
5.2,368.816,5.5922
5.6,372.816,5.594
6,376.816,5.5902
6.4,380.816,5.5906
6.8,384.816,5.5867
7.2,388.816,5.5882
7.6,392.816,5.5882
8,396.816,5.5864
8.4,400.816,5.5822
8.8,404.816,5.5807
9.2,408.816,5.5791
9.6,412.816,5.5764
10,416.816,5.5728
10.4,420.816,5.57
10.8,424.816,5.5669
11.2,428.816,5.5614
11.6,432.816,5.5577
12,436.816,5.5513
12.4,440.816,5.5415
12.8,444.816,5.5295
13.2,448.816,5.5136
13.6,452.816,5.501
14,456.816,5.4878
14.4,460.816,5.4732
14.8,464.816,5.4627
15.2,468.816,5.4503
15.6,472.816,5.438
16,476.816,5.4245
16.4,480.816,5.4151
16.8,484.816,5.4058
17.2,488.816,5.3991
17.6,492.816,5.3938
18,496.816,5.3896
18.4,500.816,5.3848
18.8,504.816,5.3789
19.2,508.816,5.3768
19.6,512.816,5.3751
20,516.816,5.3721
20.4,520.816,5.3683
20.8,524.816,5.3643
21.2,528.816,5.3598
21.6,532.816,5.3515
22,536.816,5.342
22.4,540.816,5.3324
22.8,544.816,5.321
23.2,548.816,5.3083
23.6,552.816,5.2888
24,556.816,5.2667
24.4,560.816,5.2448
24.8,564.816,5.219
25.2,568.816,5.1899
25.6,572.816,5.1609
26,576.816,5.1262
26.4,580.816,5.0868
26.8,584.816,5.0398
27.2,588.816,4.9861
27.6,592.816,4.915
28,596.816,4.8331
28.4,600.816,4.7319
28.8,604.816,4.5904
29.2,608.816,4.4291
29.6,612.816,4.2377
30,616.816,4.0056
30.4,620.816,3.739
30.8,624.816,3.4373
31.2,628.816,3.1145
31.6,632.816,2.7691
32,636.816,2.4077
32.4,640.816,2.0347
32.8,644.816,1.6608
33.2,648.816,1.314
33.6,652.816,0.9938
34,656.816,0.7342
34.4,660.816,0.5324
34.8,664.816,0.3823
35.2,668.816,0.278
35.6,672.816,0.1986
36,676.816,0.1445
36.4,680.816,0.1078
36.8,684.816,0.0814
37.2,688.816,0.0616
37.6,692.816,0.049
38,696.816,0.0383
38.4,700.816,0.0316
38.8,704.816,0.0292
39.2,708.816,0.0266
39.6,712.816,0.0266
40,716.816,0.0266
40.4,720.816,0.0266
40.8,724.816,0.0266
41.2,728.816,0.0262
41.6,732.816,0.0257
42,736.816,0.0265
42.4,740.816,0.0269
42.8,744.816,0.0271
43.2,748.816,0.0271
43.6,752.816,0.0271
44,756.816,0.0271
44.4,760.816,0.0271
44.8,764.816,0.027
45.2,768.816,0.0251
45.6,772.816,0.0247
46,776.816,0.0233
46.4,780.816,0.0228
46.8,784.816,0.0225
47.2,788.816,0.0228
47.6,792.816,0.0218
48,796.816,0.0204
48.4,800.816,0.0195
48.8,804.816,0.0186
49.2,808.816,0.0174
49.6,812.816,0.0174
50,816.816,0.0199
50.4,820.816,0.0185
50.8,824.816,0.0179
51.2,828.816,0.0194
51.6,832.816,0.0209
52,836.816,0.0187
52.4,840.816,0.0195
52.8,844.816,0.0207
53.2,848.816,0.0215
53.6,852.816,0.0215
54,856.816,0.022
54.4,860.816,0.0224
54.8,864.816,0.0209
55.2,868.816,0.0185
55.6,872.816,0.0183
56,876.816,0.0184
56.4,880.816,0.0184
56.8,884.816,0.0164
57.2,888.816,0.0171
57.6,892.816,0.0172
58,896.816,0.017
58.4,900.816,0.0163
58.8,904.816,0.0148
59.2,908.816,0.0152
59.6,912.816,0.0153
60,916.816,0.014
60.4,920.816,0.014
60.8,924.816,0.0151
61.2,928.816,0.0149
61.6,932.816,0.0139
62,936.816,0.0132
62.4,940.816,0.0127
62.8,944.816,0.0128
63.2,948.816,0.0117
63.6,952.816,0.0117
64,956.816,0.0117
64.4,960.816,0.0117
64.8,964.816,0.0113
65.2,968.816,0.0104
65.6,972.816,0.0089
66,976.816,0.0076
66.4,980.816,0.0065
66.8,984.816,0.0071
67.2,988.816,0.0082
67.6,992.816,0.007
68,996.816,0.0053
68.4,1000.816,0.0072
68.8,1004.816,0.0084
69.2,1008.816,0.0088
69.6,1012.816,0.0092
70,1016.816,0.0075
70.4,1020.816,0.007
70.8,1024.816,0.0068
71.2,1028.816,0.0073
71.6,1032.816,0.0057
72,1036.816,0.0059
72.4,1040.816,0.0057
72.8,1044.816,0.0062
73.2,1048.816,0.0067
73.6,1052.816,0.0068
74,1056.816,0.007
74.4,1060.816,0.0066
74.8,1064.816,0.0061
75.2,1068.816,0.0062
75.6,1072.816,0.0065
76,1076.816,0.0053
76.4,1080.816,0.0057
76.8,1084.816,0.0092
77.2,1088.816,0.0078
77.6,1092.816,0.0035
78,1096.816,0.0037
78.4,1100.816,0.0046
78.8,1104.816,0.0046
79.2,1108.816,0.0041
79.6,1112.816,0.0035
80,1116.816,0.003
80.4,1120.816,0.0025
80.8,1124.816,0.0025
81.2,1128.816,0.0037
81.6,1132.816,0.0037
82,1136.816,0.0033
82.4,1140.816,0.003
82.8,1144.816,0.0029
83.2,1148.816,0.0027
83.6,1152.816,0.003
84,1156.816,0.0019
84.4,1160.816,0.001
84.8,1164.816,0.0004
85.2,1168.816,0
85.6,1172.816,0.002
86,1176.816,0.0045
86.4,1180.816,0.0046
86.8,1184.816,0.0042
87.2,1188.816,0.004
87.6,1192.816,0.0025
88,1196.816,0.003
88.4,1200.816,0.0004
88.8,1204.816,0.001
89.2,1208.816,0.0003
89.6,1212.816,0.0019
90,1216.816,0.0027
90.4,1220.816,0.0041
90.5,1221.816,0.004