File: Non-charring/PMMA/UQ/UQ_TGA_Air_3.csv
Time,Temperature,Mass,
[s],[K],[mg],
0,316.205,5.3138,
0.2,318.205,5.3165,
0.4,320.205,5.3201,
0.6,322.205,5.3212,
0.8,324.205,5.3258,
1,326.205,5.3342,
1.2,328.205,5.3451,
1.4,330.205,5.3573,
1.6,332.205,5.3698,
1.8,334.205,5.3794,
2,336.205,5.3867,
2.2,338.205,5.3924,
2.4,340.205,5.3949,
2.6,342.205,5.3949,
2.8,344.205,5.3964,
3,346.205,5.3997,
3.2,348.205,5.3969,
3.4,350.205,5.3922,
3.6,352.205,5.3937,
3.8,354.205,5.3917,
4,356.205,5.3886,
4.2,358.205,5.3884,
4.4,360.205,5.3897,
4.6,362.205,5.3878,
4.8,364.205,5.389,
5,366.205,5.3915,
5.2,368.205,5.3891,
5.4,370.205,5.3874,
5.6,372.205,5.3877,
5.8,374.205,5.3867,
6,376.205,5.391,
6.2,378.205,5.3926,
6.4,380.205,5.3943,
6.6,382.205,5.3995,
6.8,384.205,5.3983,
7,386.205,5.3949,
7.2,388.205,5.3933,
7.4,390.205,5.3986,
7.6,392.205,5.3973,
7.8,394.205,5.3952,
8,396.205,5.3946,
8.2,398.205,5.3945,
8.4,400.205,5.3947,
8.6,402.205,5.3934,
8.8,404.205,5.3934,
9,406.205,5.3951,
9.2,408.205,5.3955,
9.4,410.205,5.3943,
9.6,412.205,5.3928,
9.8,414.205,5.3922,
10,416.205,5.3903,
10.2,418.205,5.3907,
10.4,420.205,5.3894,
10.6,422.205,5.3898,
10.8,424.205,5.3901,
11,426.205,5.3901,
11.2,428.205,5.3903,
11.4,430.205,5.3913,
11.6,432.205,5.3892,
11.8,434.205,5.3874,
12,436.205,5.3888,
12.2,438.205,5.3897,
12.4,440.205,5.3883,
12.6,442.205,5.3874,
12.8,444.205,5.3855,
13,446.205,5.383,
13.2,448.205,5.3821,
13.4,450.205,5.3821,
13.6,452.205,5.3826,
13.8,454.205,5.3826,
14,456.205,5.3805,
14.2,458.205,5.3805,
14.4,460.205,5.3815,
14.6,462.205,5.3811,
14.8,464.205,5.3812,
15,466.205,5.3822,
15.2,468.205,5.382,
15.4,470.205,5.3796,
15.6,472.205,5.3801,
15.8,474.205,5.3793,
16,476.205,5.3789,
16.2,478.205,5.3786,
16.4,480.205,5.3781,
16.6,482.205,5.3791,
16.8,484.205,5.3792,
17,486.205,5.3791,
17.2,488.205,5.3777,
17.4,490.205,5.3764,
17.6,492.205,5.3762,
17.8,494.205,5.3767,
18,496.205,5.3769,
18.2,498.205,5.3768,
18.4,500.205,5.3776,
18.6,502.205,5.3771,
18.8,504.205,5.377,
19,506.205,5.3772,
19.2,508.205,5.3772,
19.4,510.205,5.3774,
19.6,512.205,5.3764,
19.8,514.205,5.3758,
20,516.205,5.3753,
20.2,518.205,5.3741,
20.4,520.205,5.3739,
20.6,522.205,5.3736,
20.8,524.205,5.3715,
21,526.205,5.371,
21.2,528.205,5.3693,
21.4,530.205,5.3661,
21.6,532.205,5.3597,
21.8,534.205,5.3541,
22,536.205,5.3473,
22.2,538.205,5.3385,
22.4,540.205,5.3293,
22.6,542.205,5.3116,
22.8,544.205,5.2992,
23,546.205,5.2858,
23.2,548.205,5.2644,
23.4,550.205,5.2411,
23.6,552.205,5.2233,
23.8,554.205,5.2057,
24,556.205,5.1845,
24.2,558.205,5.1638,
24.4,560.205,5.1403,
24.6,562.205,5.112,
24.8,564.205,5.0795,
25,566.205,5.0373,
25.2,568.205,4.9948,
25.4,570.205,4.9409,
25.6,572.205,4.8637,
25.8,574.205,4.7808,
26,576.205,4.6758,
26.2,578.205,4.5389,
26.4,580.205,4.3943,
26.6,582.205,4.2528,
26.8,584.205,4.0958,
27,586.205,3.929,
27.2,588.205,3.7527,
27.4,590.205,3.6021,
27.6,592.205,3.4478,
27.8,594.205,3.2716,
28,596.205,3.0951,
28.2,598.205,2.9105,
28.4,600.205,2.7012,
28.6,602.205,2.4669,
28.8,604.205,2.2287,
29,606.205,1.9968,
29.2,608.205,1.784,
29.4,610.205,1.585,
29.6,612.205,1.4119,
29.8,614.205,1.2538,
30,616.205,1.115,
30.2,618.205,0.9936,
30.4,620.205,0.8865,
30.6,622.205,0.7931,
30.8,624.205,0.7107,
31,626.205,0.6408,
31.2,628.205,0.5818,
31.4,630.205,0.522,
31.6,632.205,0.479,
31.8,634.205,0.4321,
32,636.205,0.39,
32.2,638.205,0.3531,
32.4,640.205,0.323,
32.6,642.205,0.2952,
32.8,644.205,0.2658,
33,646.205,0.2413,
33.2,648.205,0.2224,
33.4,650.205,0.2007,
33.6,652.205,0.1803,
33.8,654.205,0.1649,
34,656.205,0.1508,
34.2,658.205,0.1355,
34.4,660.205,0.12,
34.6,662.205,0.1066,
34.8,664.205,0.0967,
35,666.205,0.0872,
35.2,668.205,0.0778,
35.4,670.205,0.0704,
35.6,672.205,0.0594,
35.8,674.205,0.0498,
36,676.205,0.0467,
36.2,678.205,0.0419,
36.4,680.205,0.0384,
36.6,682.205,0.0318,
36.8,684.205,0.0316,
37,686.205,0.0325,
37.2,688.205,0.0305,
37.4,690.205,0.0291,
37.6,692.205,0.0276,
37.8,694.205,0.0258,
38,696.205,0.0219,
38.2,698.205,0.0219,
38.4,700.205,0.024,
38.6,702.205,0.0248,
38.8,704.205,0.0256,
39,706.205,0.0255,
39.2,708.205,0.0235,
39.4,710.205,0.0235,
39.6,712.205,0.0235,
39.8,714.205,0.0235,
40,716.205,0.0235,
40.2,718.205,0.0235,
40.4,720.205,0.0206,
40.6,722.205,0.0196,
40.8,724.205,0.0195,
41,726.205,0.0194,
41.2,728.205,0.0193,
41.4,730.205,0.0192,
41.6,732.205,0.0194,
41.8,734.205,0.0209,
42,736.205,0.0211,
42.2,738.205,0.0214,
42.4,740.205,0.0208,
42.6,742.205,0.0203,
42.8,744.205,0.02,
43,746.205,0.0196,
43.2,748.205,0.0193,
43.4,750.205,0.019,