File: Non-charring/PMMA/UQ/UQ_TGA_N2_2.csv
Time,Temperature,Mass
[min],[K],[mg]
0,316.797,5.092
0.2,318.797,5.0921
0.4,320.797,5.0966
0.6,322.797,5.0985
0.8,324.797,5.0986
1,326.797,5.0983
1.2,328.797,5.0981
1.4,330.797,5.0975
1.6,332.797,5.097
1.8,334.797,5.0973
2,336.797,5.096
2.2,338.797,5.0945
2.4,340.797,5.0936
2.6,342.797,5.0943
2.8,344.797,5.0954
3,346.797,5.096
3.2,348.797,5.0962
3.4,350.797,5.094
3.6,352.797,5.0936
3.8,354.797,5.0938
4,356.797,5.0937
4.2,358.797,5.0942
4.4,360.797,5.0936
4.6,362.797,5.094
4.8,364.797,5.0948
5,366.797,5.0931
5.2,368.797,5.0944
5.4,370.797,5.0954
5.6,372.797,5.0963
5.8,374.797,5.094
6,376.797,5.0931
6.2,378.797,5.093
6.4,380.797,5.0915
6.6,382.797,5.0895
6.8,384.797,5.089
7,386.797,5.0889
7.2,388.797,5.0885
7.4,390.797,5.0868
7.6,392.797,5.0867
7.8,394.797,5.0856
8,396.797,5.0853
8.2,398.797,5.0863
8.4,400.797,5.0841
8.6,402.797,5.0822
8.8,404.797,5.0827
9,406.797,5.0835
9.2,408.797,5.0809
9.4,410.797,5.0781
9.6,412.797,5.0775
9.8,414.797,5.0752
10,416.797,5.0747
10.2,418.797,5.0733
10.4,420.797,5.0726
10.6,422.797,5.0718
10.8,424.797,5.0717
11,426.797,5.0689
11.2,428.797,5.068
11.4,430.797,5.0659
11.6,432.797,5.0617
11.8,434.797,5.0585
12,436.797,5.0558
12.2,438.797,5.0527
12.4,440.797,5.0479
12.6,442.797,5.0435
12.8,444.797,5.0376
13,446.797,5.0305
13.2,448.797,5.0251
13.4,450.797,5.0205
13.6,452.797,5.014
13.8,454.797,5.008
14,456.797,5.0023
14.2,458.797,4.9952
14.4,460.797,4.9881
14.6,462.797,4.9817
14.8,464.797,4.977
15,466.797,4.9719
15.2,468.797,4.9671
15.4,470.797,4.9606
15.6,472.797,4.9536
15.8,474.797,4.9479
16,476.797,4.942
16.2,478.797,4.9373
16.4,480.797,4.9324
16.6,482.797,4.9268
16.8,484.797,4.9229
17,486.797,4.9185
17.2,488.797,4.9154
17.4,490.797,4.9137
17.6,492.797,4.9118
17.8,494.797,4.9097
18,496.797,4.9074
18.2,498.797,4.9048
18.4,500.797,4.9025
18.6,502.797,4.9008
18.8,504.797,4.8983
19,506.797,4.8966
19.2,508.797,4.8966
19.4,510.797,4.8966
19.6,512.797,4.8964
19.8,514.797,4.8957
20,516.797,4.8928
20.2,518.797,4.8904
20.4,520.797,4.8889
20.6,522.797,4.8868
20.8,524.797,4.8851
21,526.797,4.8827
21.2,528.797,4.8797
21.4,530.797,4.8762
21.6,532.797,4.8738
21.8,534.797,4.8685
22,536.797,4.8653
22.2,538.797,4.861
22.4,540.797,4.8563
22.6,542.797,4.8507
22.8,544.797,4.8458
23,546.797,4.8404
23.2,548.797,4.8331
23.4,550.797,4.8229
23.6,552.797,4.814
23.8,554.797,4.8053
24,556.797,4.7949
24.2,558.797,4.7849
24.4,560.797,4.774
24.6,562.797,4.7624
24.8,564.797,4.7513
25,566.797,4.7386
25.2,568.797,4.7243
25.4,570.797,4.7102
25.6,572.797,4.6974
25.8,574.797,4.6829
26,576.797,4.6675
26.2,578.797,4.6517
26.4,580.797,4.6308
26.6,582.797,4.6123
26.8,584.797,4.591
27,586.797,4.5677
27.2,588.797,4.5403
27.4,590.797,4.5102
27.6,592.797,4.4782
27.8,594.797,4.4362
28,596.797,4.3943
28.2,598.797,4.3505
28.4,600.797,4.3014
28.6,602.797,4.2448
28.8,604.797,4.1664
29,606.797,4.0986
29.2,608.797,4.0134
29.4,610.797,3.9256
29.6,612.797,3.8291
29.8,614.797,3.7209
30,616.797,3.6039
30.2,618.797,3.4804
30.4,620.797,3.3459
30.6,622.797,3.2062
30.8,624.797,3.0569
31,626.797,2.9024
31.2,628.797,2.7467
31.4,630.797,2.5834
31.6,632.797,2.4197
31.8,634.797,2.2578
32,636.797,2.0869
32.2,638.797,1.9217
32.4,640.797,1.7554
32.6,642.797,1.5889
32.8,644.797,1.4293
33,646.797,1.273
33.2,648.797,1.1292
33.4,650.797,0.9943
33.6,652.797,0.8686
33.8,654.797,0.7561
34,656.797,0.653
34.2,658.797,0.5613
34.4,660.797,0.4808
34.6,662.797,0.4118
34.8,664.797,0.3496
35,666.797,0.2981
35.2,668.797,0.2515
35.4,670.797,0.2121
35.6,672.797,0.1811
35.8,674.797,0.1539
36,676.797,0.1308
36.2,678.797,0.1118
36.4,680.797,0.0973
36.6,682.797,0.0829
36.8,684.797,0.07
37,686.797,0.0617
37.2,688.797,0.0527
37.4,690.797,0.0472
37.6,692.797,0.0409
37.8,694.797,0.0342
38,696.797,0.0282
38.2,698.797,0.0243
38.4,700.797,0.0212
38.6,702.797,0.0202
38.8,704.797,0.019
39,706.797,0.019
39.2,708.797,0.019
39.4,710.797,0.019
39.6,712.797,0.019
39.8,714.797,0.019
40,716.797,0.019
40.2,718.797,0.019
40.4,720.797,0.019
40.6,722.797,0.019
40.8,724.797,0.019
41,726.797,0.019
41.2,728.797,0.019
41.4,730.797,0.019
41.6,732.797,0.019
41.8,734.797,0.019
42,736.797,0.019
42.2,738.797,0.0189
42.4,740.797,0.0188
42.6,742.797,0.0187
42.8,744.797,0.0186
43,746.797,0.0185
43.2,748.797,0.0184
43.4,750.797,0.0183