File: Non-charring/PMMA/UQ/UQ_TGA_Air_1.csv
Time,Temperature,Mass,,
[s],[K],[mg],,
0,316.009,5.0169,,
0.2,318.009,5.0183,,
0.4,320.009,5.0166,,
0.6,322.009,5.0181,,
0.8,324.009,5.0239,,
1,326.009,5.0326,,
1.2,328.009,5.0437,,
1.4,330.009,5.0541,,
1.6,332.009,5.0667,,
1.8,334.009,5.0774,,
2,336.009,5.0858,,
2.2,338.009,5.0920,,
2.4,340.009,5.0946,,
2.6,342.009,5.0944,,
2.8,344.009,5.0955,,
3,346.009,5.0986,,
3.2,348.009,5.0969,,
3.4,350.009,5.0945,,
3.6,352.009,5.0925,,
3.8,354.009,5.0908,,
4,356.009,5.0875,,
4.2,358.009,5.0883,,
4.4,360.009,5.0900,,
4.6,362.009,5.0862,,
4.8,364.009,5.0891,,
5,366.009,5.0891,,
5.2,368.009,5.0881,,
5.4,370.009,5.0861,,
5.6,372.009,5.0878,,
5.8,374.009,5.0904,,
6,376.009,5.0904,,
6.2,378.009,5.0942,,
6.4,380.009,5.0941,,
6.6,382.009,5.0936,,
6.8,384.009,5.0940,,
7,386.009,5.0953,,
7.2,388.009,5.0956,,
7.4,390.009,5.0994,,
7.6,392.009,5.0989,,
7.8,394.009,5.0960,,
8,396.009,5.0937,,
8.2,398.009,5.0937,,
8.4,400.009,5.0937,,
8.6,402.009,5.0922,,
8.8,404.009,5.0918,,
9,406.009,5.0911,,
9.2,408.009,5.0910,,
9.4,410.009,5.0927,,
9.6,412.009,5.0915,,
9.8,414.009,5.0933,,
10,416.009,5.0903,,
10.2,418.009,5.0919,,
10.4,420.009,5.0908,,
10.6,422.009,5.0909,,
10.8,424.009,5.0916,,
11,426.009,5.0924,,
11.2,428.009,5.0933,,
11.4,430.009,5.0915,,
11.6,432.009,5.0884,,
11.8,434.009,5.0866,,
12,436.009,5.0874,,
12.2,438.009,5.0891,,
12.4,440.009,5.0889,,
12.6,442.009,5.0881,,
12.8,444.009,5.0866,,
13,446.009,5.0846,,
13.2,448.009,5.0837,,
13.4,450.009,5.0854,,
13.6,452.009,5.0848,,
13.8,454.009,5.0850,,
14,456.009,5.0835,,
14.2,458.009,5.0835,,
14.4,460.009,5.0835,,
14.6,462.009,5.0828,,
14.8,464.009,5.0813,,
15,466.009,5.0830,,
15.2,468.009,5.0840,,
15.4,470.009,5.0809,,
15.6,472.009,5.0806,,
15.8,474.009,5.0806,,
16,476.009,5.0812,,
16.2,478.009,5.0815,,
16.4,480.009,5.0814,,
16.6,482.009,5.0824,,
16.8,484.009,5.0828,,
17,486.009,5.0830,,
17.2,488.009,5.0809,,
17.4,490.009,5.0775,,
17.6,492.009,5.0765,,
17.8,494.009,5.0762,,
18,496.009,5.0769,,
18.2,498.009,5.0775,,
18.4,500.009,5.0807,,
18.6,502.009,5.0812,,
18.8,504.009,5.0806,,
19,506.009,5.0806,,
19.2,508.009,5.0805,,
19.4,510.009,5.0825,,
19.6,512.009,5.0829,,
19.8,514.009,5.0826,,
20,516.009,5.0820,,
20.2,518.009,5.0813,,
20.4,520.009,5.0812,,
20.6,522.009,5.0812,,
20.8,524.009,5.0794,,
21,526.009,5.0774,,
21.2,528.009,5.0756,,
21.4,530.009,5.0734,,
21.6,532.009,5.0685,,
21.8,534.009,5.0622,,
22,536.009,5.0541,,
22.2,538.009,5.0472,,
22.4,540.009,5.0379,,
22.6,542.009,5.0276,,
22.8,544.009,5.0137,,
23,546.009,4.9982,,
23.2,548.009,4.9762,,
23.4,550.009,4.9598,,
23.6,552.009,4.9412,,
23.8,554.009,4.9218,,
24,556.009,4.9030,,
24.2,558.009,4.8830,,
24.4,560.009,4.8594,,
24.6,562.009,4.8322,,
24.8,564.009,4.8038,,
25,566.009,4.7652,,
25.2,568.009,4.7200,,
25.4,570.009,4.6675,,
25.6,572.009,4.6040,,
25.8,574.009,4.5122,,
26,576.009,4.4043,,
26.2,578.009,4.2712,,
26.4,580.009,4.1329,,
26.6,582.009,3.9954,,
26.8,584.009,3.8457,,
27,586.009,3.7022,,
27.2,588.009,3.5547,,
27.4,590.009,3.3949,,
27.6,592.009,3.2467,,
27.8,594.009,3.0716,,
28,596.009,2.9118,,
28.2,598.009,2.7296,,
28.4,600.009,2.5111,,
28.6,602.009,2.2768,,
28.8,604.009,2.0510,,
29,606.009,1.8375,,
29.2,608.009,1.6500,,
29.4,610.009,1.4832,,
29.6,612.009,1.3184,,
29.8,614.009,1.1679,,
30,616.009,1.0277,,
30.2,618.009,0.9198,,
30.4,620.009,0.8134,,
30.6,622.009,0.7326,,
30.8,624.009,0.6523,,
31,626.009,0.5938,,
31.2,628.009,0.5365,,
31.4,630.009,0.4822,,
31.6,632.009,0.4340,,
31.8,634.009,0.3925,,
32,636.009,0.3521,,
32.2,638.009,0.3213,,
32.4,640.009,0.2924,,
32.6,642.009,0.2640,,
32.8,644.009,0.2385,,
33,646.009,0.2157,,
33.2,648.009,0.1954,,
33.4,650.009,0.1759,,
33.6,652.009,0.1551,,
33.8,654.009,0.1384,,
34,656.009,0.1246,,
34.2,658.009,0.1103,,
34.4,660.009,0.0967,,
34.6,662.009,0.0841,,
34.8,664.009,0.0759,,
35,666.009,0.0632,,
35.2,668.009,0.0549,,
35.4,670.009,0.0464,,
35.6,672.009,0.0393,,
35.8,674.009,0.0277,,
36,676.009,0.0235,,
36.2,678.009,0.0193,,
36.4,680.009,0.0156,,
36.6,682.009,0.0089,,
36.8,684.009,0.0073,,
37,686.009,0.0088,,
37.2,688.009,0.0068,,
37.4,690.009,0.0062,,
37.6,692.009,0.0058,,
37.8,694.009,0.0043,,
38,696.009,0.0025,,
38.2,698.009,0.0025,,
38.4,700.009,0.0046,,
38.6,702.009,0.0055,,
38.8,704.009,0.0065,,
39,706.009,0.0065,,
39.2,708.009,0.0065,,
39.4,710.009,0.0065,,
39.6,712.009,0.0065,,
39.8,714.009,0.0065,,
40,716.009,0.0064,,
40.2,718.009,0.0061,,
40.4,720.009,0.0031,,
40.6,722.009,0.0003,,
40.8,724.009,0.0000,,
41,726.009,0.0018,,
41.2,728.009,0.0028,,
41.4,730.009,0.0036,,
41.6,732.009,0.0035,,
41.8,734.009,0.0035,,
42,736.009,0.0034,,
42.2,738.009,0.0033,,
42.4,740.009,0.0032,,
42.6,742.009,0.0011,,
42.8,744.009,0.0017,,
43,746.009,0.0049,,
43.2,748.009,0.0047,,
43.4,750.009,0.0042,,