File: PMMA/Calibration_Data/UDRI/UDRI_Cone_65kW_1.csv
Time,Mass,HRR
[s],[g],[kW/m2]
0,72.47,0.109528
2,73.176,0.746082
4,73.1109,2.27148
6,73.1819,0.501485
8,73.1778,3.39107
10,73.1545,1.20638
12,73.0964,2.11246
14,73.1484,2.20238
16,73.1117,-10.5395
18,72.9519,-28.8309
20,72.6938,-44.418
22,72.6662,-3.6422
24,72.1142,108.319
26,71.674,240.102
28,71.2639,320.804
30,70.8142,420.181
32,70.3472,454.082
34,69.8546,511.354
36,69.378,520.757
38,68.8802,547.363
40,68.3312,555.313
42,67.8375,581.002
44,67.31353,590.266
46,66.8205,601.182
48,66.2778,620.729
50,65.7187,628.459
52,65.1111,672.852
54,64.6143,658.212
56,64.0698,672.636
58,63.4525,647.649
60,62.8841,651.073
62,62.3492,677.083
64,61.8058,685.186
66,61.2229,671.038
68,60.5933,653.914
70,60.07516,709.808
72,59.5262,698.324
74,58.9593,689.083
76,58.3457,687.053
78,57.75959,761.066
80,57.1554,695.205
82,56.6068,713.206
84,56.022,706.013
86,55.39015,729.091
88,54.7909,703.171
90,54.1577,724.726
92,53.61798,721.651
94,52.9907,750.638
96,52.328,727.518
98,51.6643,757.881
100,51.099,796.984
102,50.38898,774.982
104,49.7327,756.739
106,49.15368,795.411
108,48.485,797.056
110,47.8424,777.931
112,47.2058,777.721
114,46.5234,839.472
116,45.8268,831.368
118,45.158,869.289
120,44.5117,826.745
122,43.8242,835.792
124,43.1032,810.034
126,42.4119,858.77
128,41.6998,855.05
130,40.9964,844.493
132,40.3522,902.109
134,39.6066,842.678
136,38.7884,824.702
138,38.1409,936.584
140,37.4122,885.597
142,36.6068,907.958
144,35.85483,894.226
146,35.0411,923.007
148,34.3201,975.447
150,33.5404,982.284
152,32.7836,946.033
154,31.9287,979.812
156,31.04851,1017.06
158,30.2694,981.717
160,29.33883,890.667
162,28.5522,1073.98
164,27.6969,1112.05
166,26.8048,1046.79
168,25.8975,1127.56
170,25.0569,975.167
172,24.0995,1097.41
174,23.2522,1128.65
176,22.3751,1189.54
178,21.4641,1092.27
180,20.5689,1215.35
182,19.7072,1020.12
184,18.8079,1078.45
186,17.9339,1121.9
188,17.0036,1130.07
190,16.1382,1072.32
192,15.1868,1052.9
194,14.1862,1142.05
196,13.1706,1166.23
198,12.2602,1215.76
200,11.1931,1317.09
202,10.1586,1304.43
204,9.148497,1223
206,8.114917,1258.73
208,7.125219,1243.25
210,6.130058,1196.08
212,5.150454,1290.1
214,4.292889,1348.11
216,3.520685,1314.87
218,2.849543,1335.07
220,2.424434,1188.96
222,2.044911,1071.48
224,1.738642,933.907
226,1.495353,772.63
228,1.228438,622.149
230,1.11107,502.458
232,0.949351,419.455
234,0.86231,307.16
236,0.840415,236.611
238,0.675142,191.179
240,0.689884,160.629
242,0.558583,130.936
244,0.585401,115.938
246,0.513695,101.359
248,0.462751,91.7222
250,0.385086,81.1368
252,0.363338,78.1167
254,0.32662,70.6364
256,0.302645,64.2177
258,0.306099,56.7516
260,0.241469,48.6157
262,0.167352,43.1084
264,0.197192,36.9765
266,0.185077,36.193
268,0.176893,29.7677
270,0.179981,28.3806
272,0.126022,24.1144
274,0.165318,23.8093
276,0.032211,18.1323
278,0.260479,17.6392
280,0.031418,12.0894
282,0.211209,9.12851
284,0.18025,8.24028
286,0.211519,7.17972
288,0.217103,7.15775
290,0.176415,6.81021
292,0.157727,8.95502
294,0.185041,7.78014
296,0.15688,6.76201
298,0.205248,4.56986
300,0.142167,6.84885
302,0.144532,5.05782
304,0.148609,6.74515
306,0.154688,5.32001
308,0.178932,7.60981
310,0.153366,4.71802
312,0.134382,8.612
314,0.162272,5.52634
316,0.137734,7.96133
318,0.168676,6.31992
320,0.137212,7.4172
322,0.169299,6.61741
324,0.197242,6.28564
326,0.124558,6.94133
328,0.073655,6.12146
330,0.14307,7.70453
332,0.130332,4.95431
334,0.1201,8.25813
336,0.121114,6.05363
338,0.192236,7.43378
340,0.078259,6.01901
342,0.135333,7.30688
344,0.112187,5.24058
346,0.177635,7.50723
348,0.127325,5.9634
350,0.098055,4.48447
352,0.145226,7.59947
354,0.08747,6.12911
356,0.128694,9.86759
358,0.133469,6.78219
360,0.101301,8.51482
362,0.113943,6.41228
364,0.096211,6.35111
366,0.079747,7.92371
368,0.069105,6.90166
370,0.120794,8.54866
372,0.045702,5.32124
374,0.080836,7.80954
376,0.024348,6.4103
378,0.068645,8.7741
380,0.017128,5.72561
382,0.027166,6.70213
384,0.001468,6.32516
386,0.007563,5.22836
388,0.064201,8.13466
390,0.060436,6.44908
392,-0.028631,7.82325
394,0.035388,8.26337
396,-0.001325,8.04079
398,0.038653,9.73193
400,0.00768,6.23651
402,0.01557,8.60058
404,-0.007566,6.33019
406,-0.028395,9.33622
408,-0.064848,7.08061
410,-0.045074,9.13226
412,-0.03654,7.16995
414,-0.029576,8.42036
416,-0.035843,7.57241
418,-0.046996,8.74381
420,-0.047421,8.35358
422,-0.026968,8.18211
424,-0.035733,10.4133
426,-0.063893,6.17465
428,-0.088926,8.9928
430,-0.098462,7.44275
432,-0.009397,8.4453
434,-0.062135,7.41861
436,-0.040823,8.09893
438,-0.07385,8.03188
440,-0.094359,5.52337
442,-0.129627,8.98762
444,-0.109641,6.00165
446,-0.075202,9.66184
448,-0.107399,7.62978
450,-0.068556,9.46227
452,-0.119719,7.03479
454,-0.098648,10.3378
456,-0.138154,9.08512
458,-0.117365,11.3218
460,-0.175974,8.42959
462,-0.109805,10.1568