File: PMMA/Calibration_Data/UDRI/UDRI_Cone_25kW_1.csv
Time,Mass,HRR
[s],[g],[kW/m2]
0,71.62,0.511768
3,71.7127,0.83262
6,71.5023,2.35232
9,71.4556,3.88916
12,71.4278,-0.288754
15,71.3981,0.345357
18,71.3855,3.01178
21,71.3376,1.99104
24,71.344,1.64926
27,71.3069,5.04718
30,71.3166,1.45459
33,71.2913,-0.4582
36,71.2984,2.27759
39,71.3128,0.647345
42,71.2627,-0.730961
45,71.2586,0.0685247
48,71.2517,-1.24544
51,71.24113,0.207195
54,71.2664,1.70846
57,71.2038,2.50019
60,71.2214,0.68413
63,71.2255,2.66747
66,71.2253,2.58915
69,71.573,-1.81761
72,71.1689,-0.166749
75,71.1751,1.59768
78,71.1598,1.02894
81,71.2739,-2.31871
84,71.2042,-2.67807
87,71.1303,0.119893
90,71.1598,-1.99476
93,71.1257,-2.35394
96,71.1488,-0.779227
99,71.0975,0.689607
102,71.0466,-2.31686
105,71.0491,1.40108
108,70.8401,15.9847
111,70.6681,38.6618
114,70.4358,94.1572
117,70.1343,146.538
120,69.8548,178.09
123,69.5436,206.53
126,69.2316,226.766
129,68.8763,242.691
132,68.5562,250.943
135,68.2276,265.83
138,67.8342,274.681
141,67.4696,279.907
144,67.1177,285.145
147,66.7261,292.311
150,66.341,299.12
153,65.9681,302.619
156,65.557,300.482
159,65.2011,311.69
162,64.7897,320.409
165,64.3489,325.243
168,63.9933,330.353
171,63.5032,336.571
174,63.1012,338.897
177,62.6761,345.714
180,62.2323,349.702
183,61.8105,353.252
186,61.381,355.015
189,60.9026,362.092
192,60.4481,372.908
195,59.9832,365.368
198,59.5104,380.725
201,59.07,373.7
204,58.6081,367.81
207,58.0972,373.703
210,57.606,381.307
213,57.1601,402.248
216,56.6452,388.847
219,56.1913,395.184
222,55.6686,406.056
225,55.1867,404.808
228,54.6962,401.427
231,54.2269,406.702
234,53.72088,408.573
237,53.1547,416.43
240,52.6519,423.577
243,52.1584,423.483
246,51.6807,431.065
249,51.0727,428.348
252,50.562,436.752
255,50.058,440.972
258,49.5304,444.196
261,48.9672,443.417
264,48.4142,443.912
267,47.8533,440.219
270,47.2699,457.73
273,46.71433,473.012
276,46.1044,461.231
279,45.4771,492.55
282,44.9307,474.093
285,44.3171,476.005
288,43.7528,493.349
291,43.1047,502.58
294,42.4945,492.877
297,41.8647,503.862
300,41.2277,542.487
303,40.61044,524.617
306,39.9771,528.601
309,39.3568,533.053
312,38.6787,526.197
315,38.0705,522.246
318,37.4135,530.401
321,36.7899,534.076
324,36.102,526.924
327,35.4872,533.794
330,34.8604,521.563
333,34.2051,538.758
336,33.5768,525.139
339,32.9214,544.744
342,32.2506,537.385
345,31.5768,536.281
348,30.9118,566.206
351,30.225,541.101
354,29.6316,545.726
357,28.9042,565.154
360,28.2153,562.31
363,27.5134,566.856
366,26.8688,573.695
369,26.1535,565.068
372,25.4451,578.115
375,24.7496,581.104
378,24.0139,584.586
381,23.3422,594.184
384,22.5953,605.76
387,21.8408,592.119
390,21.1251,599.149
393,20.3933,604.636
396,19.6767,604.198
399,18.9283,585.654
402,18.1535,635.743
405,17.4747,618.704
408,16.6925,634.591
411,15.9184,617.425
414,15.1905,613.965
417,14.4168,616.763
420,13.669,634.288
423,12.8961,640.519
426,12.127,642.66
429,11.3625,627.522
432,10.5903,627.07
435,9.785067,644.058
438,8.964236,677.995
441,8.19208,655.16
444,7.42666,639.703
447,6.661319,652.784
450,5.923776,634.25
453,5.185112,627.114
456,4.431664,637.729
459,3.742471,625.495
462,3.0609,613.379
465,2.42335,599.499
468,1.867296,575.819
471,1.266314,536.092
474,0.783778,505.149
477,0.300187,471.01
480,-0.083622,460.791
483,-0.29299,434.777
486,-0.377376,341.889
489,-0.411835,215.233
492,-0.45907,121.552
495,-0.47084,74.2447
498,-0.535458,51.5065
501,-0.493212,38.2111
504,-0.545748,28.4453
507,-0.567853,23.3369
510,-0.610025,21.6366
513,-0.572635,18.2144
516,-0.582792,14.4433
519,-0.621318,16.0903
522,-0.499194,11.7758
525,-0.532752,7.33519
528,-0.508141,7.75152
531,-0.519055,5.19608
534,-0.513002,-0.128599
537,-0.521595,1.56258
540,-0.536999,1.9359
543,-0.54156,-1.56007
546,-0.522577,-0.0818131
549,-0.515718,2.7242
552,-0.498446,-0.909505
555,-0.521588,-1.94451
558,-0.519631,-1.94578
561,-0.520275,-1.85421
564,-0.549831,-3.56388
567,-0.479423,-0.657734
570,-0.498993,-1.68582
573,-0.502529,-2.17822
576,-0.53181,-0.206839
579,-0.562756,0.440484
582,-0.521716,-1.18456
585,-0.493052,-0.582434
588,-0.539384,1.73776
591,-0.495091,-1.781
594,-0.542441,-2.40089
597,-0.535572,-0.509019
600,-0.503817,0.674516
603,-0.57532,-2.93188
606,-0.530214,-0.703608
609,-0.542398,1.76458
610,-0.526207,0.023065