File: PMMA/Calibration_Data/UDRI/UDRI_Cone_65kW_2.csv
Time,Mass,HRR
[s],[g],[kW/m2]
0,69.91,-0.429485
2,70.2741,1.65122
4,70.4565,0.501434
6,70.3774,0.439185
8,70.4532,5.23804
10,70.2883,4.2921
12,70.2135,5.94892
14,70.5392,-0.0137838
16,70.3067,-12.6391
18,69.6852,-38.1346
20,69.7834,-24.5444
22,69.5675,34.1089
24,69.116,145.957
26,68.6735,257.816
28,68.2132,344.097
30,67.8018,431.737
32,67.305,479.256
34,66.8061,533.025
36,66.245,545.662
38,65.773,560.114
40,65.3105,552.063
42,64.8323,582.826
44,64.2264,618.802
46,63.707,604.805
48,63.1687,626.495
50,62.5855,652.045
52,61.9718,700.74
54,61.4743,645.626
56,60.9173,689.788
58,60.2477,704.211
60,59.7094,688.617
62,59.1194,687.299
64,58.5096,725.577
66,57.9196,771.946
68,57.4176,726.513
70,56.74652,741.164
72,56.2232,739.801
74,55.5599,729.746
76,54.9986,704.173
78,54.3321,745.097
80,53.8117,726.703
82,53.1242,706.302
84,52.4728,737.683
86,51.8976,771.794
88,51.2232,770.084
90,50.6179,779.108
92,49.9698,794.561
94,49.2853,763.54
96,48.6782,774.34
98,47.9296,819.904
100,47.2154,774.032
102,46.695,766.175
104,45.9273,822.824
106,45.3332,791.246
108,44.6547,814.275
110,43.9524,817.001
112,43.2837,810.824
114,42.6104,794.394
116,41.9956,844.462
118,41.2038,796.739
120,40.5283,878.406
122,39.8637,861.792
124,39.0882,871.861
126,38.3062,895.112
128,37.65,847.215
130,36.8408,870.746
132,36.1437,853.332
134,35.3891,885.107
136,34.5928,937.318
138,33.8773,966.225
140,33.0688,917.596
142,32.26,898.7
144,31.6058,932.79
146,30.7196,919.653
148,29.80359,929.641
150,29.0222,968.285
152,28.2534,965.37
154,27.356,951.496
156,26.4713,1000.88
158,25.7042,1020.04
160,24.7217,1111.33
162,23.8156,1007.79
164,22.97,1031.41
166,22.1095,1115.68
168,21.1987,1124.07
170,20.3548,988.538
172,19.4346,1083.11
174,18.4489,1026.2
176,17.6165,1117.42
178,16.6536,1035.37
180,15.786,1067.18
182,14.884,1044.2
184,13.9174,1171.89
186,12.9074,1040.87
188,11.8747,1156.01
190,10.7975,1198.95
192,9.749527,1093.21
194,8.670719,1384.29
196,7.681522,1310.42
198,6.679357,1224.94
200,5.554901,1385.66
202,4.617485,1410.81
204,3.654384,1267.69
206,2.747216,1469.7
208,2.117538,1359.24
210,1.620467,1325.8
212,1.132577,1257.07
214,0.878624,1095.91
216,0.640087,838.883
218,0.474859,632.333
220,0.366744,497.033
222,0.176012,371.859
224,0.152677,274.905
226,0.06828,216.923
228,-0.0041,167.754
230,-0.002452,126.213
232,-0.024983,96.625
234,-0.072243,75.4835
236,-0.081461,61.4577
238,-0.089998,51.0712
240,-0.126263,39.3444
242,-0.26565,30.5855
244,-0.067615,23.8056
246,-0.114179,20.4888
248,-0.210678,15.0598
250,-0.110733,12.6406
252,-0.195159,11.1042
254,-0.094476,8.17698
256,-0.126079,6.85414
258,-0.046957,5.02549
260,-0.09485,6.58753
262,-0.10304,4.01548
264,-0.0762,5.95261
266,-0.072637,4.25906
268,-0.17247,4.52659
270,-0.083234,2.54296
272,-0.091533,2.83398
274,-0.103331,1.61613
276,-0.107619,1.90104
278,-0.084467,3.72455
280,-0.096595,0.912315
282,-0.054071,3.14111
284,-0.087444,1.46373
286,-0.109444,0.0554896
288,-0.077422,0.889513
290,-0.055043,-1.53842
292,-0.107513,0.0583704
294,-0.088628,-2.26973
296,-0.098615,0.495168
298,-0.143869,-1.88943
300,-0.080551,1.09631
302,-0.065496,-1.10804
304,-0.114321,1.51651
306,-0.101424,-0.5409707
308,-0.098279,1.03005
310,-0.180094,1.72607
312,-0.108234,-1.11384
314,-0.190436,2.563
316,-0.168061,0.329173
318,-0.163782,1.0819
320,-0.149902,1.41329
322,-0.153483,0.144305
324,-0.194613,0.783124
326,-0.132695,0.0362266
328,-0.14343,1.34787
330,-0.142862,0.162781
332,-0.145078,3.301
334,-0.156035,0.698504
336,-0.240715,1.45602
338,-0.158211,1.94487
340,-0.163865,-0.023396