File: PMMA/Calibration_Data/UDRI/UDRI_Cone_25kW_3.csv
Time,Mass,HRR
[s],[g],[kW/m2]
0,70.85,-3.83413
3,70.7123,0.725819
6,70.6451,-0.647577
9,70.6352,2.03833
12,70.6414,-0.667752
15,70.6238,3.50029
18,70.6052,-0.565028
21,70.5871,1.4701
24,70.576,-1.51351
27,70.57653,0.849243
30,70.5687,-2.31212
33,70.5473,-0.126322
36,70.56033,-2.70893
39,70.5555,-1.07951
42,70.5316,-3.90925
45,70.5421,-0.298609
48,70.5281,-2.11731
51,70.4996,-0.148557
54,70.4924,-2.63939
57,70.4848,-0.431183
60,70.4922,0.118029
63,70.4717,-0.694211
66,70.4692,-1.70857
69,70.45733,-1.81074
72,70.4617,-1.07387
75,70.45119,-2.43938
78,70.4423,-1.04459
81,70.4461,-3.00709
84,70.4351,-1.78425
87,70.4183,-3.57423
90,70.4152,-1.02459
93,70.39795,-3.67245
96,70.3772,-0.548568
99,70.368,-3.93553
102,70.3507,-0.588432
105,70.31057,-2.92651
108,70.3071,-2.10096
111,70.2009,-12.8636
114,70.1185,-9.03253
117,69.9022,24.6106
120,69.6446,81.311
123,69.3176,133.777
126,68.9466,198.905
129,68.5924,240.302
132,68.2493,263.698
135,67.832,268.724
138,67.4571,290.335
141,67.0201,305.492
144,66.6383,313.065
147,66.23086,318.9
150,65.8035,322.396
153,65.365,331.186
156,64.9335,341.559
159,64.5209,341.48
162,64.063,351.788
165,63.6185,344.398
168,63.1686,362.94
171,62.7081,362.422
174,62.2324,369.117
177,61.7416,377.092
180,61.2647,377.586
183,60.7782,386.911
186,60.2835,407.179
189,59.7708,407.294
192,59.2518,396.255
195,58.759,398.122
198,58.2753,406.762
201,57.7792,407.459
204,57.2448,409.33
207,56.7388,421.289
210,56.1706,416.66
213,55.6335,436.405
216,55.1252,434.797
219,54.57725,444.1
222,54.0454,431.586
225,53.4937,432.026
228,52.932,434.958
231,52.3649,430.284
234,51.8206,454.18
237,51.2292,470.21
240,50.6597,449.175
243,50.0814,476.17
246,49.5534,466.072
249,48.9368,485.854
252,48.352,457.807
255,47.7482,484.498
258,47.1759,482.685
261,46.5686,489.839
264,45.9683,495.335
267,45.3734,479.692
270,44.7679,477.717
273,44.1429,489.539
276,43.5019,502.959
279,42.8815,505.46
282,42.2379,523.658
285,41.6043,510.897
288,40.9299,516.41
291,40.3081,516.042
294,39.6364,522.105
297,38.9968,528.628
300,38.3114,548.562
303,37.6621,537.45
306,36.9931,536.678
309,36.3334,537.343
312,35.6648,518.617
315,34.9818,557.327
318,34.3045,567.526
321,33.6177,533.963
324,32.94698,561.805
327,32.2803,555.956
330,31.61409,549.819
333,30.8978,564.91
336,30.2235,562.368
339,29.5247,565.532
342,28.8399,580.323
345,28.1259,560.137
348,27.4174,570.504
351,26.73,555.889
354,26.0321,574.043
357,25.3013,571.144
360,24.5912,574.722
363,23.8422,591.387
366,23.1069,601.345
369,22.3375,602.894
372,21.5633,599.392
375,20.80479,638.139
378,20.026,623.413
381,19.2327,611.553
384,18.4753,654.001
387,17.69422,619.536
390,16.9377,662.609
393,16.1468,635.946
396,15.3898,643.863
399,14.5648,640.542
402,13.82257,623.278
405,13.0315,643.492
408,12.2524,645.296
411,11.4709,645.732
414,10.7172,619.815
417,9.946164,653.065
420,9.189146,636.703
423,8.459868,652.74
426,7.763793,609.363
429,7.06447,583.725
432,6.3808,585.041
435,5.672549,585.148
438,5.005368,579.803
441,4.32425,572.614
444,3.643245,571.816
447,3.008778,582.634
450,2.416908,566.103
453,1.83084,533.868
456,1.293059,496.681
459,0.811252,512.691
462,0.406174,489.39
465,0.067895,439.554
468,-0.171552,379.843
471,-0.397658,310.347
474,-0.551603,237.803
477,-0.665889,188.034
480,-0.721912,145.384
483,-0.746343,102.974
486,-0.778635,67.4734
489,-0.77714,45.5777
492,-0.814947,32.2468
495,-0.828607,23.3954
498,-0.850286,18.9319
501,-0.86953,14.0496
504,-0.875405,13.5059
507,-0.870255,9.6868
510,-0.888395,10.6711
513,-0.898763,6.93509
516,-0.44773,7.06243
519,-0.834673,2.27321
522,-0.831019,3.71769
525,-0.817889,1.4679
528,-0.821763,4.0874
531,-0.828917,0.327802
534,-0.82256,3.22339
537,-0.817362,-1.30872
540,-0.854266,1.53245
543,-0.825098,-0.687323
546,-0.835093,2.33306
549,-0.839996,-0.745697
552,-0.841277,2.30222
555,-0.832227,-0.774987
558,-0.837104,2.80813
561,-0.827889,-0.833325
564,-0.832519,0.38103
567,-0.829442,-0.626029
570,-0.832696,2.51155
573,-0.824228,0.830818
576,-0.837889,2.35503
579,-0.84153,1.00317
582,-0.834121,1.72791
585,-0.839961,2.68682
588,-0.836366,3.15318
591,-0.836901,1.80004
594,-0.861575,1.03067
597,-0.828153,0.396015
600,-0.853019,0.266224
603,-0.85889,1.52652
606,-0.832875,0.25664
609,-0.839216,2.11324
611,-0.843889,2.23128