File: PMMA/Calibration_Data/UDRI/UDRI_Cone_65kW_3.csv
Time,Mass,HRR
[s],[g],[kW/m2]
0,73.45,-1.88922
2,72.7107,1.69806
4,72.8584,-0.443663
6,72.907,2.57171
8,72.82943,4.17761
10,72.8366,3.83241
12,72.7804,3.88959
14,72.7634,0.877691
16,72.7526,0.0654758
18,72.7045,-15.4546
20,72.5541,-32.8235
22,72.3409,-43.4552
24,72.0115,13.2743
26,71.6273,141.718
28,71.242,262.291
30,70.7919,347.223
32,70.3456,412.529
34,69.8211,452.433
36,69.3447,502.448
38,68.8447,530.242
40,68.3332,581.519
42,67.8016,596.428
44,67.29016,621.139
46,66.7486,641.935
48,66.269,627.495
50,65.7459,618.107
52,65.1922,644.731
54,64.6262,655.13
56,64.0618,655.738
58,63.5014,658.04
60,62.9186,664.357
62,62.328,698.138
64,61.8031,697.502
66,61.2056,664.95
68,60.6285,712.93
70,60.0124,711.963
72,59.4515,710.156
74,58.875,707.91
76,58.2863,682.628
78,57.6276,692.008
80,57.07476,680.676
82,56.4629,735.273
84,55.8641,712.253
86,55.2579,742.119
88,54.6456,745.051
90,54.008,726.116
92,53.4096,742.692
94,52.7619,723.433
96,52.2282,747.583
98,51.5431,771.027
100,50.833,803.994
102,50.1956,738.709
104,49.5674,761.699
106,48.8954,764.661
108,48.2292,791.421
110,47.51231,820.732
112,46.8672,818.711
114,46.1573,825.948
116,45.4857,822.004
118,44.8123,808.94
120,44.108,836.455
122,43.4429,829.054
124,42.7392,815.242
126,41.9755,819.997
128,41.3216,819.046
130,40.5763,816.776
132,39.8804,851.845
134,39.1834,821.016
136,38.4738,866.421
138,37.74722,921.893
140,37.0407,899.555
142,36.14754,885.586
144,35.4285,926.994
146,34.6614,959.373
148,33.90075,882.269
150,33.1577,977.508
152,32.3954,923.025
154,31.5773,931.786
156,30.7855,970.498
158,30.00748,997.215
160,29.1632,1043.93
162,28.31931,950.244
164,27.5393,1038.75
166,26.6639,987.521
168,25.8246,1156.82
170,24.9337,1034.41
172,24.0626,1003.42
174,23.268,1133.78
176,22.3228,1094.17
178,21.4917,1066.25
180,20.6346,1045.46
182,19.7094,1053.15
184,18.8522,1046.9
186,17.9932,1045.85
188,17.1117,1125.71
190,16.1963,1086.09
192,15.3244,1145.11
194,14.3887,1159.36
196,13.4231,1077.97
198,12.4707,1125.51
200,11.52983,1134.49
202,10.5292,991.261
204,9.545875,1116.34
206,8.548534,1303.77
208,7.526745,1258.98
210,6.486265,1361.11
212,5.529917,1182.42
214,4.534832,1188.27
216,3.50742,1378.08
218,2.607383,1318.41
220,1.855204,1344.11
222,1.224632,1336.3
224,0.725375,1223.89
226,0.404541,1091.39
228,0.096397,929.514
230,-0.169179,747.449
232,-0.283935,567.114
234,-0.417792,439.531
236,-0.599049,363.672
238,-0.709581,300.918
240,-0.866982,244.259
242,-0.938169,200.643
244,-1.021813,176.92
246,-1.051663,155.16
248,-1.082867,130.96
250,-1.10487,102.954
252,-1.116935,76.8996
254,-1.140035,56.8851
256,-1.195633,45.6869
258,-1.180732,36.8686
260,-1.196793,33.8257
262,-1.269,27.8525
264,-1.188801,24.5067
266,-1.250163,21.272
268,-1.307163,21.8006
270,-1.253763,20.0988
272,-1.247269,20.6851
274,-1.049869,16.487
276,-1.361309,16.1349
278,-1.245103,8.64812
280,-1.257845,9.4965
282,-1.236512,6.47962
284,-1.280848,7.47088
286,-1.302038,4.2969
288,-1.281361,5.06859
290,-1.292543,2.26461
292,-1.250767,3.71545
294,-1.297544,1.81321
296,-1.233247,0.709993
298,-1.265402,2.96149
300,-1.293356,-0.597985
302,-1.325485,1.60466
304,-1.281754,-0.581404
306,-1.297922,1.96008
308,-1.311886,-0.58484
310,-1.284593,1.27254
312,-1.320312,-0.807125
314,-1.310374,0.148886
316,-1.304791,-0.203145
318,-1.342023,-1.31248
320,-1.274841,0.803637
322,-1.354102,-1.41689
324,-1.344627,1.39396
326,-1.308516,0.239337
328,-1.322327,2.81889
330,-1.34584,0.0355188
332,-1.34352,1.48504
334,-1.389751,-0.278354
336,-1.328319,-1.09103
338,-1.340716,1.24213
340,-1.344727,3.12823
342,-1.346569,8.05995
344,-1.33674,5.102
346,-1.388998,6.51721
348,-1.373118,3.95296
350,-1.372826,5.6314
352,-1.373718,1.23513
354,-1.36456,2.06394
356,-1.356,-0.258865
358,-1.384505,0.933069
360,-1.381682,-0.174604
362,-1.369995,1.47337
364,-1.489021,-0.0594751
365,-1.491344,-0.368712