File: PMMA/Calibration_Data/UDRI/UDRI_Cone_25kW_2.csv
Time,Mass,HRR
[s],[g],[kW/m2]
0,74.09,1.93226
3,73.7835,6.84988
6,73.9203,8.3331
9,73.9238,5.54537
12,73.9026,3.04961
15,73.8884,4.96565
18,73.8729,3.60236
21,73.88568,5.23973
24,73.8822,2.20375
27,73.8771,3.42663
30,73.867,-0.519523
33,73.8563,2.68968
36,73.841,-0.563873
39,73.8384,1.58454
42,73.8225,-2.63349
45,73.8152,0.321699
48,73.81859,-2.51229
51,73.8022,1.17944
54,73.7988,-2.37537
57,73.7976,0.92317
60,73.77527,-2.78106
63,73.786,1.6865
66,73.7846,-1.03024
69,73.7857,3.22192
72,73.7626,0.855315
75,73.7659,3.42923
78,73.76052,-0.152784
81,73.753,1.88032
84,73.7358,-2.18352
87,73.7403,2.55335
90,73.7376,1.34552
93,73.719,2.7818
96,73.7134,-0.0169904
99,73.7096,0.545154
102,73.6707,0.0638873
105,73.6599,-0.006527707
108,73.6162,-3.16298
111,73.5328,-8.08215
114,73.3757,8.36741
117,73.2069,44.6111
120,72.92494,92.4219
123,72.6013,138.414
126,72.282,193.104
129,71.9396,222.607
132,71.5824,242.226
135,71.231,268.252
138,70.83688,283.505
141,70.4517,284.708
144,70.0659,302.475
147,69.6596,313.858
150,69.2416,324.334
153,68.8257,320.749
156,68.4122,330.12
159,67.9775,329.544
162,67.5846,334.201
165,67.1454,342.363
168,66.6709,340.266
171,66.2049,350.2339
174,65.7466,372.199
177,65.2587,376.543
180,64.78174,381.797
183,64.3047,384.243
186,63.8293,395.123
189,63.334,402.71
192,62.823,393.434
195,62.32914,403.31
198,61.8283,394.836
201,61.3178,414.695
204,60.8151,417.436
207,60.2802,418.46
210,59.7927,409.923
213,59.2579,419.596
216,58.73747,405.754
219,58.1811,430.952
222,57.6605,437.304
225,57.0901,438.622
228,56.5417,433.89
231,56.0267,443.981
234,55.4616,458.45
237,54.9198,435.764
240,54.3463,460.236
243,53.7685,446.331
246,53.228,456.131
249,52.63287,463.709
252,52.0561,468.572
255,51.4496,465.929
258,50.8797,475.971
261,50.2691,475.945
264,49.6718,486.375
267,49.078,483.418
270,48.4531,485.468
273,47.8409,492.27
276,47.2132,491.821
279,46.6005,510.757
282,45.9665,511.152
285,45.33706,505.161
288,44.6723,518.165
291,44.028,525.049
294,43.3825,505.982
297,42.7367,514.708
300,42.0391,540.963
303,41.3852,537.346
306,40.7143,524.085
309,40.0557,525.328
312,39.3658,540.536
315,38.6777,553.264
318,37.983,550.073
321,37.3058,550.979
324,36.6178,559.256
327,35.9403,579.749
330,35.2507,547.844
333,34.56194,562.877
336,33.84758,567.314
339,33.1522,579.052
342,32.4561,572.371
345,31.7675,552.911
348,31.0314,568.675
351,30.3266,547.491
354,29.6189,574.725
357,28.90789,576.459
360,28.1589,581.762
363,27.4328,599.85
366,26.6993,587.368
369,25.9463,607.618
372,25.2137,618.286
375,24.4467,605.987
378,23.66008,608.469
381,22.8749,607.5
384,22.0847,616.461
387,21.2741,627.729
390,20.4807,679.072
393,19.6847,662.6
396,18.9054,663.272
399,18.1121,665.102
402,17.3005,652.351
405,16.5096,665.306
408,15.7093,628.899
411,14.8992,635.744
414,14.0914,687.364
417,13.3047,644.835
420,12.50359,642.864
423,11.6925,670.927
426,10.8658,654.493
429,10.0593,646.072
432,9.239422,678.562
435,8.458044,671.086
438,7.648026,647.817
441,6.869906,642.954
444,6.10893,647.864
447,5.36872,641.43
450,4.63607,656.327
453,3.900314,628.099
456,3.229861,634.038
459,2.578121,617.071
462,1.995182,582.576
465,1.466687,542.315
468,0.985191,519.848
471,0.607978,476.526
474,0.300952,427.067
477,0.083673,347.054
480,-0.078864,282.935
483,-0.200159,224.91
486,-0.361125,162.957
489,-0.461975,136.447
492,-0.546835,109.1
495,-0.616478,91.708
498,-0.675278,71.4741
501,-0.704101,60.3909
504,-0.742407,44.564
507,-0.753097,34.937
510,-0.768296,23.5599
513,-0.744223,16.4862
516,-0.684024,9.91351
519,-0.741941,5.3078
522,-0.71179,1.48838
525,-0.703371,2.6313
528,-0.682214,2.13046
531,-0.706954,1.09572
534,-0.70477,0.56543
537,-0.700808,-0.397418
540,-0.691417,0.807305
543,-0.70513,-0.474017
546,-0.712262,0.0601595
549,-0.70527,-0.53359
552,-0.713697,1.63843
555,-0.716309,-0.675345
558,-0.702376,2.54762
561,-0.705842,1.09333
564,-0.703274,4.55622
567,-0.715975,0.474496
570,-0.71,2.68179
573,-0.714306,-0.0255592
576,-0.714901,3.36881
579,-0.712367,-1.37152
582,-0.722065,1.68814
585,-0.72742,-1.67879
588,-0.734152,2.48197
591,-0.727395,-0.902612
594,-0.725867,2.44947
597,-0.734054,-1.26337
600,-0.733925,0.993137
603,-0.734313,-1.45513
606,-0.743,1.92556
609,-0.735206,-0.783233
610,-0.738226,0.825467