File: PMMA/Calibration_Data/UDRI/UDRI_TGA_N2_10K_3.csv
Time,Temperature,Mass
[s],[K],[mg]
10.2,312.15,6.903
30,315.15,6.902
45.6,318.15,6.902
63,321.15,6.9
81,324.15,6.898
98.4,327.15,6.897
116.4,330.15,6.897
134.4,333.15,6.896
152.4,336.15,6.895
169.8,339.15,6.895
187.8,342.15,6.895
205.8,345.15,6.894
223.8,348.15,6.894
241.8,351.15,6.894
259.8,354.15,6.893
277.8,357.15,6.893
296.4,360.15,6.892
314.4,363.15,6.892
332.4,366.15,6.891
350.4,369.15,6.891
368.4,372.15,6.89
386.4,375.15,6.889
404.4,378.15,6.887
422.4,381.15,6.886
440.4,384.15,6.885
458.4,387.15,6.883
476.4,390.15,6.881
494.4,393.15,6.879
513,396.15,6.877
531,399.15,6.874
549,402.15,6.872
567,405.15,6.869
585,408.15,6.867
603,411.15,6.864
621,414.15,6.86
639,417.15,6.857
657,420.15,6.853
675,423.15,6.848
693.6,426.15,6.842
711.6,429.15,6.835
729.6,432.15,6.826
747.6,435.15,6.817
765.6,438.15,6.807
783.6,441.15,6.796
801.6,444.15,6.784
819.6,447.15,6.773
837.6,450.15,6.762
855.6,453.15,6.749
873.6,456.15,6.737
891.6,459.15,6.724
909.6,462.15,6.711
927.6,465.15,6.7
945.6,468.15,6.692
963.6,471.15,6.686
981.6,474.15,6.682
999.6,477.15,6.678
1018.2,480.15,6.676
1036.2,483.15,6.673
1054.2,486.15,6.671
1072.2,489.15,6.668
1090.2,492.15,6.666
1108.2,495.15,6.663
1126.2,498.15,6.659
1144.2,501.15,6.656
1162.2,504.15,6.652
1180.2,507.15,6.647
1198.2,510.15,6.641
1216.2,513.15,6.635
1234.2,516.15,6.628
1252.2,519.15,6.62
1270.2,522.15,6.611
1288.2,525.15,6.601
1306.8,528.15,6.589
1324.8,531.15,6.575
1342.8,534.15,6.56
1360.8,537.15,6.543
1378.8,540.15,6.523
1396.8,543.15,6.502
1414.8,546.15,6.48
1432.8,549.15,6.455
1450.8,552.15,6.43
1468.8,555.15,6.402
1486.8,558.15,6.374
1504.8,561.15,6.343
1522.8,564.15,6.308
1540.8,567.15,6.267
1558.8,570.15,6.218
1576.8,573.15,6.162
1595.4,576.15,6.097
1613.4,579.15,6.022
1631.4,582.15,5.934
1649.4,585.15,5.833
1667.4,588.15,5.715
1685.4,591.15,5.577
1703.4,594.15,5.418
1721.4,597.15,5.235
1739.4,600.15,5.026
1757.4,603.15,4.79
1775.4,606.15,4.529
1793.4,609.15,4.241
1811.4,612.15,3.934
1830,615.15,3.613
1848,618.15,3.29
1866,621.15,2.966
1884,624.15,2.637
1902,627.15,2.309
1920,630.15,1.996
1938,633.15,1.686
1956,636.15,1.397
1974,639.15,1.136
1992,642.15,0.9096
2010,645.15,0.7205
2028.6,648.15,0.5661
2046.6,651.15,0.4423
2064.6,654.15,0.3465
2082.6,657.15,0.2743
2100.6,660.15,0.2225
2118.6,663.15,0.1855
2136.6,666.15,0.1558
2154.6,669.15,0.1308
2172.6,672.15,0.112
2190.6,675.15,0.09801
2209.2,678.15,0.08763
2227.2,681.15,0.07972
2245.2,684.15,0.07419
2263.2,687.15,0.07101
2281.2,690.15,0.06944
2299.2,693.15,0.06867
2317.2,696.15,0.06832
2335.8,699.15,0.06803
2353.8,702.15,0.06775
2371.8,705.15,0.06757
2389.8,708.15,0.06748
2407.8,711.15,0.06728
2425.8,714.15,0.06715
2443.8,717.15,0.06705
2462.4,720.15,0.06699
2480.4,723.15,0.06691
2498.4,726.15,0.0669
2516.4,729.15,0.06686
2534.4,732.15,0.06678
2552.4,735.15,0.06669
2570.4,738.15,0.06663
2589,741.15,0.06654
2607,744.15,0.06653
2625,747.15,0.06651
2643,750.15,0.06641
2661,753.15,0.06636
2679.6,756.15,0.0663
2697.6,759.15,0.06621
2715.6,762.15,0.0662
2733.6,765.15,0.06622
2751.6,768.15,0.06619
2769.6,771.15,0.06611
2788.2,774.15,0.06624
2806.2,777.15,0.06602
2824.2,780.15,0.06595
2842.2,783.15,0.06583
2860.2,786.15,0.06582
2878.8,789.15,0.06579
2896.8,792.15,0.0658
2914.8,795.15,0.06572
2932.8,798.15,0.06567
2950.8,801.15,0.06567
2969.4,804.15,0.06564
2987.4,807.15,0.06554
3005.4,810.15,0.06558
3023.4,813.15,0.06553
3041.4,816.15,0.06557
3060,819.15,0.06549
3078,822.15,0.06554
3096,825.15,0.06536
3114,828.15,0.06535
3132,831.15,0.06535
3150.6,834.15,0.06528
3168.6,837.15,0.06518
3186.6,840.15,0.06511
3204.6,843.15,0.0651
3223.2,846.15,0.06511
3241.2,849.15,0.06497
3259.2,852.15,0.06494
3277.2,855.15,0.06495
3295.2,858.15,0.06489
3313.8,861.15,0.06486
3331.8,864.15,0.0647
3349.8,867.15,0.06467
3367.8,870.15,0.06465
3386.4,873.15,0.06465
3404.4,876.15,0.06462
3422.4,879.15,0.06447
3440.4,882.15,0.06445
3458.4,885.15,0.06438
3477,888.15,0.06434
3495,891.15,0.06433
3513,894.15,0.06427
3531,897.15,0.06429
3549.6,900.15,0.0642
3567.6,903.15,0.07786
3585.6,906.15,0.08027
3603.6,909.15,0.08119
3622.2,912.15,0.08109
3640.2,915.15,0.08097
3658.2,918.15,0.08085
3676.2,921.15,0.08084
3694.8,924.15,0.08091
3712.8,927.15,0.08087
3730.8,930.15,0.08087
3748.8,933.15,0.08083
3767.4,936.15,0.08072
3785.4,939.15,0.08073
3803.4,942.15,0.08068
3821.4,945.15,0.08065
3840,948.15,0.08072
3858,951.15,0.08066
3876,954.15,0.08061
3894,957.15,0.08059
3912.6,960.15,0.08053
3930.6,963.15,0.0805
3948.6,966.15,0.08046
3967.2,969.15,0.08052
3985.2,972.15,0.0805
4003.2,975.15,0.08046
4021.2,978.15,0.08044
4039.8,981.15,0.08047
4057.8,984.15,0.08044
4075.8,987.15,0.08045
4093.8,990.15,0.08041
4112.4,993.15,0.08035
4130.4,996.15,0.08039
4148.4,999.15,0.08045
4154.4,1000.15,0.08042