File: PMMA/Calibration_Data/UDRI/UDRI_TGA_N2_10K_2.csv
Time,Temperature,Mass
[s],[K],[mg]
4.2,312.15,6.625
28.8,315.15,6.619
43.8,318.15,6.617
61.8,321.15,6.615
79.2,324.15,6.614
97.2,327.15,6.612
114.6,330.15,6.611
132.6,333.15,6.61
150.6,336.15,6.61
168.6,339.15,6.609
186.6,342.15,6.609
204.6,345.15,6.608
222.6,348.15,6.608
240.6,351.15,6.608
258.6,354.15,6.607
276.6,357.15,6.607
294.6,360.15,6.607
312.6,363.15,6.606
330.6,366.15,6.606
348.6,369.15,6.605
366.6,372.15,6.604
384.6,375.15,6.603
402.6,378.15,6.602
420.6,381.15,6.601
438.6,384.15,6.599
457.2,387.15,6.598
475.2,390.15,6.596
493.2,393.15,6.594
511.2,396.15,6.592
529.2,399.15,6.59
547.2,402.15,6.587
565.2,405.15,6.585
583.2,408.15,6.583
601.2,411.15,6.58
619.2,414.15,6.577
637.2,417.15,6.574
655.8,420.15,6.57
673.8,423.15,6.565
691.8,426.15,6.56
709.8,429.15,6.553
727.8,432.15,6.545
745.8,435.15,6.537
763.8,438.15,6.527
781.8,441.15,6.516
799.8,444.15,6.506
817.8,447.15,6.495
835.8,450.15,6.484
853.8,453.15,6.473
871.8,456.15,6.461
889.8,459.15,6.447
907.8,462.15,6.434
925.8,465.15,6.422
944.4,468.15,6.412
962.4,471.15,6.405
980.4,474.15,6.399
998.4,477.15,6.395
1016.4,480.15,6.392
1034.4,483.15,6.389
1052.4,486.15,6.387
1070.4,489.15,6.384
1088.4,492.15,6.382
1106.4,495.15,6.379
1124.4,498.15,6.376
1142.4,501.15,6.372
1160.4,504.15,6.368
1178.4,507.15,6.364
1196.4,510.15,6.359
1214.4,513.15,6.353
1233,516.15,6.346
1251,519.15,6.338
1269,522.15,6.33
1287,525.15,6.32
1305,528.15,6.308
1323,531.15,6.295
1341,534.15,6.28
1359,537.15,6.264
1377,540.15,6.245
1395,543.15,6.223
1413,546.15,6.202
1431,549.15,6.178
1449,552.15,6.153
1467,555.15,6.126
1485,558.15,6.098
1503,561.15,6.068
1521.6,564.15,6.033
1539.6,567.15,5.994
1557.6,570.15,5.949
1575.6,573.15,5.895
1593.6,576.15,5.832
1611.6,579.15,5.759
1629.6,582.15,5.675
1647.6,585.15,5.577
1665.6,588.15,5.463
1683.6,591.15,5.331
1701.6,594.15,5.179
1719.6,597.15,5.004
1737.6,600.15,4.806
1755.6,603.15,4.581
1774.2,606.15,4.332
1792.2,609.15,4.059
1810.2,612.15,3.769
1828.2,615.15,3.466
1846.2,618.15,3.165
1864.2,621.15,2.852
1882.2,624.15,2.54
1900.2,627.15,2.225
1918.2,630.15,1.917
1936.2,633.15,1.629
1954.2,636.15,1.351
1972.2,639.15,1.106
1990.8,642.15,0.891
2008.8,645.15,0.7117
2026.8,648.15,0.5643
2044.8,651.15,0.4459
2062.8,654.15,0.3542
2080.8,657.15,0.2842
2098.8,660.15,0.2324
2116.8,663.15,0.1932
2134.8,666.15,0.1619
2152.8,669.15,0.1375
2171.4,672.15,0.1181
2189.4,675.15,0.1027
2207.4,678.15,0.09083
2225.4,681.15,0.08167
2243.4,684.15,0.07494
2261.4,687.15,0.07102
2279.4,690.15,0.06892
2297.4,693.15,0.06774
2316,696.15,0.06701
2334,699.15,0.06642
2352,702.15,0.06595
2370,705.15,0.06558
2388,708.15,0.06536
2406,711.15,0.06506
2424,714.15,0.06479
2442.6,717.15,0.06456
2460.6,720.15,0.06436
2478.6,723.15,0.06426
2496.6,726.15,0.06409
2514.6,729.15,0.06401
2532.6,732.15,0.06376
2551.2,735.15,0.06364
2569.2,738.15,0.06353
2587.2,741.15,0.06343
2605.2,744.15,0.06319
2623.2,747.15,0.06306
2641.2,750.15,0.06298
2659.2,753.15,0.06284
2677.8,756.15,0.06268
2695.8,759.15,0.06259
2713.8,762.15,0.06251
2731.8,765.15,0.06241
2749.8,768.15,0.06228
2768.4,771.15,0.06214
2786.4,774.15,0.0621
2804.4,777.15,0.06198
2822.4,780.15,0.06192
2840.4,783.15,0.06176
2859,786.15,0.06167
2877,789.15,0.06162
2895,792.15,0.06156
2913,795.15,0.06152
2931,798.15,0.06143
2949.6,801.15,0.06133
2967.6,804.15,0.0613
2985.6,807.15,0.06122
3003.6,810.15,0.06116
3021.6,813.15,0.06105
3040.2,816.15,0.06109
3058.2,819.15,0.06101
3076.2,822.15,0.06097
3094.2,825.15,0.06093
3112.2,828.15,0.06095
3130.8,831.15,0.06087
3148.8,834.15,0.06088
3166.8,837.15,0.06077
3184.8,840.15,0.0607
3203.4,843.15,0.06063
3221.4,846.15,0.06066
3239.4,849.15,0.06065
3257.4,852.15,0.06064
3275.4,855.15,0.06057
3294,858.15,0.06047
3312,861.15,0.06036
3330,864.15,0.06039
3348,867.15,0.06033
3366.6,870.15,0.0603
3384.6,873.15,0.0603
3402.6,876.15,0.06027
3420.6,879.15,0.06022
3439.2,882.15,0.06014
3457.2,885.15,0.06019
3475.2,888.15,0.06009
3493.2,891.15,0.06005
3511.2,894.15,0.05999
3529.8,897.15,0.05993
3547.8,900.15,0.05995
3565.8,903.15,0.05991
3583.8,906.15,0.0598
3602.4,909.15,0.05977
3620.4,912.15,0.05973
3638.4,915.15,0.05975
3656.4,918.15,0.05969
3675,921.15,0.05969
3693,924.15,0.05964
3711,927.15,0.05965
3729,930.15,0.05961
3747.6,933.15,0.05956
3765.6,936.15,0.05953
3783.6,939.15,0.05948
3801.6,942.15,0.05942
3820.2,945.15,0.05944
3838.2,948.15,0.0594
3856.2,951.15,0.05938
3874.2,954.15,0.05944
3892.8,957.15,0.05946
3910.8,960.15,0.0594
3928.8,963.15,0.05944
3946.8,966.15,0.05935
3965.4,969.15,0.05927
3983.4,972.15,0.05933
4001.4,975.15,0.05927
4020,978.15,0.05929
4038,981.15,0.05922
4056,984.15,0.0592
4074,987.15,0.05922
4092.6,990.15,0.05922
4110.6,993.15,0.05925
4128.6,996.15,0.05924
4146.6,999.15,0.05922
4153.2,1000.15,0.05925