File: PMMA/Calibration_Data/UDRI/UDRI_Cone_65kW_4.csv
Time,Mass,HRR
[s],[g],[kW/m2]
0,74.67,-0.333476
2,74.9483,1.92449
4,74.7296,0.694066
6,74.64423,4.37942
8,74.66977,2.49624
10,74.6085,4.65261
12,74.66,2.29403
14,74.5875,-1.29712
16,74.5428,-9.97227
18,74.2834,-28.6219
20,74.1107,-40.3555
22,73.9576,-17.9228
24,73.6733,53.7478
26,73.2877,191.333
28,72.8715,274.094
30,72.4188,366.776
32,71.9593,424.397
34,71.5252,475.851
36,71.0328,496.215
38,70.5087,528.017
40,70.0236,547.552
42,69.51426,582.721
44,69.0588,604.56
46,68.50979,601.622
48,67.9894,610.379
50,67.4368,611.077
52,66.9166,627.928
54,66.3715,679.717
56,65.8336,659.421
58,65.2871,663.621
60,64.791,640.41
62,64.2086,630.119
64,63.6186,654.366
66,63.0515,680.714
68,62.49129,656.796
70,61.9239,670.504
72,61.3561,681.67
74,60.8035,744.394
76,60.1574,693.354
78,59.631,677.366
80,59.04112,685.708
82,58.4076,702.872
84,57.8211,745.447
86,57.2476,744.067
88,56.60924,761.894
90,56.0496,707.77
92,55.4397,746.192
94,54.8682,689.777
96,54.2362,708.187
98,53.5475,729.995
100,52.9382,769.505
102,52.341,763.711
104,51.7049,757.108
106,51.0812,741.774
108,50.3678,752.835
110,49.7783,802.62
112,49.1253,799.804
114,48.385,796.083
116,47.7364,819.315
118,47.0799,797.046
120,46.4356,784.107
122,45.719,785.103
124,45.0492,821.307
126,44.3827,800.842
128,43.7395,882.828
130,42.9385,805.509
132,42.2452,881.999
134,41.5501,863.187
136,40.8421,820.566
138,40.1071,868.9
140,39.39124,863.346
142,38.6722,872.38
144,37.8851,964.804
146,37.1368,856.198
148,36.4601,892.62
150,35.7313,916.283
152,34.939,820.403
154,34.0886,925.502
156,33.34576,904.893
158,32.501,985.266
160,31.7012,856.776
162,30.9097,984.888
164,30.0498,1009.02
166,29.2491,1056.5
168,28.3699,957.437
170,27.5663,962.129
172,26.6587,1027.46
174,25.8107,1019.66
176,24.8899,979.419
178,23.9825,1068.57
180,23.1268,1073
182,22.3068,1114.86
184,21.4153,1194.32
186,20.5531,1174.85
188,19.7422,1010.54
190,18.7855,1031.73
192,17.922,1134.33
194,16.9815,1109.03
196,16.0696,1031.11
198,15.14525,1148.58
200,14.1628,1105.23
202,13.2024,1145.64
204,12.1905,1033.82
206,11.1885,1171.26
208,10.1495,1234.07
210,9.08222,1168.22
212,8.082222,1294.09
214,7.009407,1140.6
216,5.908574,1285.89
218,4.918789,1390.23
220,3.93656,1401.76
222,2.978601,1294.56
224,2.160686,1373.4
226,1.522184,1409.08
228,1.108367,1354.95
230,0.727239,1157.98
232,0.420569,923.076
234,0.18701,716.147
236,-0.04958,565.026
238,-0.239097,451.225
240,-0.321619,373.347
242,-0.430043,303.414
244,-0.516621,248.221
246,-0.592602,203.843
248,-0.626233,159.604
250,-0.657502,119.122
252,-0.69589,91.1032
254,-0.663839,72.1988
256,-0.719838,51.0452
258,-0.701431,40.7335
260,-0.732099,27.6745
262,-0.693228,23.4408
264,-0.845973,13.0337
266,-0.510168,10.7628
268,-0.67134,6.79789
270,-0.714842,8.20061
272,-0.639258,4.57007
274,-0.705509,6.28902
276,-0.707965,3.69712
278,-0.724781,5.61835
280,-0.633397,3.27088
282,-0.658829,4.29195
284,-0.68323,1.18805
286,-0.680923,3.31437
288,-0.641768,1.51924
290,-0.671382,2.87855
292,-0.663142,3.51094
294,-0.683813,2.71389
296,-0.676757,4.49815
298,-0.650263,2.51348
300,-0.683382,5.0244
302,-0.680135,3.3991
304,-0.708892,4.77819
306,-0.71797,1.57569
308,-0.670487,3.67907
310,-0.740992,0.526977
312,-0.754865,2.16745
314,-0.729432,1.63985
316,-0.736679,3.25961
318,-0.738781,2.62657
320,-0.736573,2.16469
322,-0.748741,1.53806
324,-0.740396,1.3836
326,-0.748469,1.88595
328,-0.749176,2.03419
330,-0.763839,2.7056
332,-0.776938,1.29979
334,-0.754918,2.17272
336,-0.745732,1.94674
338,-0.714805,4.46115
340,-0.749189,3.21764
342,-0.76569,4.94161
344,-0.720474,3.09643
346,-0.679532,5.11032
348,-0.743249,2.45001
350,-0.776546,4.84229
352,-0.790954,3.75741
354,-0.808282,5.61989
356,-0.801495,1.70775
358,-0.794817,3.51619
359,-0.783293,3.41425