File: Wood/Calibration_Data/UDRI/UDRI_Cone_60kW_hor_R1.csv
Time (s),Mass (g),HRR (kW/m2),TC back 1 (K)
0,115.44,3.9,291.538
6,115.31,3.2,289.813
12,114.71,26.1,290.832
18,113.92,110.4,294.912
24,113.16,160.9,297.719
30,112.509,168.2,305.221
36,111.919,159.5,298.228
42,111.289,150.5,297.75
48,110.749,148,294.743
54,110.199,140.1,301.662
60,109.669,132.6,299.473
66,109.149,127.5,295.227
72,108.689,124.8,294.565
78,108.199,122.1,301.486
84,107.729,118.4,305.793
90,107.318,115.4,307.952
96,106.828,114.6,302.169
102,106.318,111.4,304.965
108,105.908,110.1,305.716
114,105.408,109.7,304.736
120,104.928,109,311.407
126,104.438,108.8,310.501
132,104.028,107.6,305.615
138,103.598,105.4,310.515
144,103.168,106.2,308.392
150,102.788,105.3,312.37
156,102.298,106.1,311.651
162,101.887,106.4,312.657
168,101.477,104.6,314.62
174,101.087,104.5,317.183
180,100.687,101.8,311.58
186,100.237,102.4,322.772
192,99.817,99.8,320.325
198,99.397,99.3,313.641
204,99.017,100.8,316.024
210,98.607,99.1,324.086
216,98.207,97.8,328.312
222,97.737,97.5,329.03
228,97.327,95.9,324.836
234,96.946,96.7,322.992
240,96.586,96.9,321.234
246,96.176,97.5,330.775
252,95.786,96.5,328.838
258,95.366,95.9,328.333
264,94.996,96.7,332.103
270,94.506,97.2,334.032
276,94.116,95.4,335.563
282,93.746,96.7,340.282
288,93.336,96.3,332.095
294,92.966,96.4,339.723
300,92.546,96.5,340.319
306,92.146,94.8,344.661
312,91.755,94.8,341.171
318,91.365,94.2,348.396
324,90.935,92.6,344.805
330,90.585,93.3,347.702
336,90.215,92.9,351.437
342,89.835,91.5,347.198
348,89.415,91.9,346.386
354,89.025,92.6,345.184
360,88.625,92.4,351.992
366,88.235,92.4,351.985
372,87.895,93.3,354.44
378,87.515,91.5,355.852
384,87.115,93.6,360.346
390,86.735,92.3,355.762
396,86.354,93.3,355.99
402,85.954,91.2,357.612
408,85.544,93.5,358.701
414,85.204,90.1,364.788
420,84.834,90.5,369.424
426,84.424,91.2,362.767
432,84.104,89.8,366.606
438,83.694,89.5,366.212
444,83.264,88,366.019
450,82.964,88.8,366.088
456,82.564,86.9,370.615
462,82.224,87.3,368.221
468,81.824,87.2,371.949
474,81.484,86.7,375.03
480,81.133,86.3,373.51
486,80.733,88.6,366.003
492,80.363,87.2,371.153
498,79.973,86,376.88
504,79.583,84.6,375.72
510,79.253,85,380.42
516,78.903,84.2,376.51
522,78.563,84.2,373.68
528,78.183,85.3,379.96
534,77.823,87.7,379.24
540,77.443,87.2,379.7
546,77.153,87.1,384.31
552,76.783,85.8,381.54
558,76.463,87.8,382.73
564,76.043,86.3,378.09
570,75.682,85.6,379.71
576,75.342,84,384.73
582,74.982,86.5,384.32
588,74.662,85,388.28
594,74.302,84.8,390.88
600,73.962,83,384.31
606,73.592,82,384.03
612,73.252,83.4,383.82
618,72.922,82.6,380.08
624,72.592,83.8,385.02
630,72.242,83.2,386.34
636,71.882,84.5,387.88
642,71.542,84.3,390.14
648,71.232,82.2,390.6
654,70.882,83.7,389.39
660,70.541,84.4,391
666,70.211,83.7,388.69
672,69.851,84.1,392.25
678,69.531,83.3,392.47
684,69.211,82.9,394.51
690,68.821,82.5,388.42
696,68.511,77.9,389.46
702,68.141,81.5,389.66
708,67.791,78.7,396.21
714,67.491,80.5,394.61
720,67.171,79.1,394.93
726,66.851,81,398.99
732,66.511,80.6,388.28
738,66.151,81.3,403.86
744,65.801,82.5,394.79
750,65.451,81.1,403.01
756,65.15,79.9,396.16
762,64.79,82.5,403.05
768,64.46,81.3,400.1
774,64.18,83.4,395.96
780,63.82,84,405.56
786,63.49,87,400.28
792,63.13,85.6,408.88
798,62.79,85,404.96
804,62.53,84.8,407.49
810,62.11,84.8,404.32
816,61.76,84.8,407.82
822,61.43,85.7,411.81
828,61.09,86.6,411.47
834,60.78,85.7,413.05
840,60.41,87,416.61
846,60.039,88.6,409.02
852,59.709,88.6,409.29
858,59.399,89.6,413.58
864,59.019,90.4,421.04
870,58.689,89.6,421.4
876,58.339,89.3,421.98
882,57.989,91.6,420.05
888,57.579,92.3,431.13
894,57.259,92.3,430.62
900,56.869,92.9,427.59
906,56.579,93.8,434.52
912,56.169,92.8,430.9
918,55.749,94.3,438.77
924,55.419,96.1,437.75
930,55.029,97.8,446.6
936,54.688,98.8,439.41
942,54.388,95.6,445.1
948,53.938,94.9,439.56
954,53.528,95.7,448.23
960,53.168,96.4,451.88
966,52.758,96.8,455.35
972,52.388,98.2,457.47
978,52.018,97.8,459
984,51.598,99.5,459.65
990,51.218,101,457.25
996,50.778,101.7,460.86
1002,50.348,101.8,468.78
1008,49.958,103.2,465.13
1014,49.517,103.1,480.91
1020,49.127,106.7,473.86
1026,48.707,109.7,481.12
1032,48.257,110.5,481.32
1038,47.787,109,495.64
1044,47.337,110.2,491.03
1050,46.887,109.9,490.63
1056,46.407,112.3,492.65
1062,46.017,111.9,501.67
1068,45.587,115.3,500.64
1074,45.077,116.2,502.43
1080,44.587,116.3,508.63
1086,44.146,117.5,505.49
1092,43.636,120.7,511.98
1098,43.206,121.2,517.19
1104,42.696,122.1,521.28
1110,42.166,122.6,521.04
1116,41.706,125.8,526.43
1122,41.186,128.6,529.41
1128,40.746,125.6,531.31
1134,40.196,128,534.32
1140,39.756,127.5,538.69
1146,39.246,127.1,538.64
1152,38.715,126,546.45
1158,38.265,124.7,549.13
1164,37.805,129,555.75
1170,37.265,126.6,552.1
1176,36.755,126.6,564.27
1182,36.285,126.1,567.68
1188,35.785,126.2,563.4
1194,35.275,130.4,571.83
1200,34.775,125.9,576.65
1206,34.315,129.5,584
1212,33.835,127.3,589.24
1218,33.294,127.1,595.72
1224,32.814,127.1,594.46
1230,32.354,124.5,597.39
1236,31.824,123.1,598.4
1242,31.334,125.5,605.65
1248,30.804,122,604.59
1254,30.314,125.8,616.84
1260,29.874,124.2,619.95
1266,29.424,122.3,626.59
1272,29.054,121.1,623.59
1278,28.654,117.5,629.71
1284,28.263,114.3,631.17
1290,27.903,109.6,631.54
1296,27.493,103.5,640.96
1302,27.103,100.4,641.95
1308,26.783,93.3,652.13
1314,26.483,92.9,654.41
1320,26.093,91.5,670.42
1326,25.823,86,671.19
1332,25.563,84.5,673.1
1338,25.343,80.4,682.76
1344,25.033,78.5,684.66
1350,24.923,73.8,685.75
1356,24.683,68.1,692.77
1362,24.543,66,698.9
1368,24.403,62.7,691.37
1374,24.203,58.9,702.8
1380,24.093,57.3,694.96
1386,23.993,58.2,700.04
1392,23.863,55.7,702.12
1398,23.793,54.8,698.15
1404,23.613,53.7,697.56
1410,23.493,52.3,703.33
1416,23.413,51.4,704.65
1422,23.272,49,707.59
1428,23.193,49.5,709.76
1434,23.072,48.7,707.22
1440,22.992,48.9,710.06
1446,22.852,49,712.94
1452,22.772,50.3,710.59
1458,22.622,49,708.32
1464,22.622,49.2,719.32
1470,22.502,49.3,713.59
1476,22.392,49.7,711.49
1482,22.342,47.9,715.75
1488,22.212,47.4,715.83
1494,22.102,47.5,714.71
1500,22.072,46.4,716.86
1506,21.922,45.6,716.83
1512,21.842,45.6,721.82
1518,21.772,43.9,725.68
1521,21.722,44.9,719.77