File: Wood/Calibration_Data/UDRI/UDRI_Wood_Cone_60kW_hor_R3.csv
Time (s),Mass (g),HRR (kW/m2),TC back 1 (K)
0,111.47,0.2,294.903
5,111.27,4.5,299.245
10,110.6,70.8,295.119
15,109.83,188.7,290.584
20,109.11,255.3,300.661
25,108.289,285.6,308.076
30,107.509,297.4,299.755
35,106.779,298.8,300.465
40,106.119,290.9,304.95
45,105.459,290.2,301.133
50,104.829,266.3,293.79
55,104.199,259.8,288.12
60,103.618,255.4,291.241
65,102.978,246.5,307.225
70,102.448,231,298.186
75,101.928,231.8,300.034
80,101.388,222.7,301.421
85,100.798,215.8,306.87
90,100.318,213,304.536
95,99.728,206.6,310.222
100,99.278,205.5,306.746
105,98.738,197,301.57
110,98.268,195.6,296.921
115,97.797,193.7,303.385
120,97.277,197.4,309.209
125,96.797,191.3,300.614
130,96.287,188.5,308.309
135,95.857,186.9,309.475
140,95.357,181.3,308.714
145,94.947,179.2,306.234
150,94.467,180.2,306.966
155,93.967,178.9,301.312
160,93.517,177.1,305.098
165,93.067,177.2,313.196
170,92.606,175.2,308.588
175,92.196,170.3,308.736
180,91.746,169.5,306.953
185,91.326,168.1,312.341
190,90.946,167.5,315.772
195,90.456,166.5,316.976
200,89.986,163.1,315.882
205,89.626,161.8,320.715
210,89.146,162.7,315.037
215,88.756,160.2,319.79
220,88.316,156.8,324.774
225,87.836,152.8,322.933
230,87.505,152.6,319.453
235,87.035,151.5,324.897
240,86.685,152.2,323.962
245,86.255,151.4,322.295
250,85.895,149,320.819
255,85.475,149.3,327.614
260,85.085,146.6,326.385
265,84.655,145.2,326.236
270,84.195,148.6,327.975
275,83.845,148.2,331.754
280,83.465,146.9,326.27
285,83.005,143.7,330.47
290,82.635,141.7,332.973
295,82.234,146.5,336.216
300,81.894,141.1,338.896
305,81.544,144.2,338.975
310,81.184,143.3,339.684
315,80.774,143.3,339.839
320,80.364,142,346.234
325,80.014,138.7,351.591
330,79.584,137.6,347.665
335,79.254,139.9,357.332
340,78.864,137.6,358.871
345,78.444,137.8,352.841
350,78.064,140.4,356.585
355,77.704,137.7,358.424
360,77.334,138,356.857
365,76.963,136.8,360.86
370,76.543,137.9,356.905
375,76.193,136,367.342
380,75.883,134.6,372.47
385,75.463,132.4,368.503
390,75.193,131.6,361.452
395,74.753,130,367.02
400,74.433,126.5,368.941
405,73.993,127.8,367.572
410,73.673,127.8,375.06
415,73.353,127.7,376.41
420,72.973,124.1,375.88
425,72.613,127,376.19
430,72.233,124.4,375.48
435,71.943,125.3,373.84
440,71.632,122.2,386.09
445,71.312,123.5,379.02
450,70.902,120.7,371.355
455,70.532,120.4,376.56
460,70.192,118.6,376.04
465,69.912,120.4,372.892
470,69.642,120.5,375.82
475,69.182,117.6,372.568
480,68.962,120,369.781
485,68.612,118.9,383.34
490,68.202,117.8,377.59
495,67.862,117.6,379.95
500,67.562,115.6,373.15
505,67.202,116.7,373.062
510,66.842,116.1,383.98
515,66.551,115.3,375.75
520,66.241,116.6,386.9
525,65.891,116.9,388.6
530,65.611,115.5,384.8
535,65.271,116.6,377.58
540,64.931,117.3,382.68
545,64.611,115.3,387.15
550,64.241,117.4,387.16
555,63.951,116.2,383.72
560,63.601,117.4,392.46
565,63.331,113.4,389.91
570,63.001,115,391.09
575,62.671,113.6,389.03
580,62.361,115.6,390.51
585,62.051,113.9,390.49
590,61.761,117.5,400.44
595,61.451,116.6,386.62
600,61.11,115.6,394.86
605,60.74,116.1,377.23
610,60.43,116.6,398.36
615,60.09,114.2,394.3
620,59.8,115.8,396.26
625,59.53,115.7,389.18
630,59.14,115.5,390.13
635,58.83,115.9,397.69
640,58.51,115.1,395.99
645,58.16,115.2,393.93
650,57.91,114.3,390.82
655,57.58,113.5,398.94
660,57.27,114.6,400.47
665,56.93,114.6,402.18
670,56.58,113,406.42
675,56.28,112.7,400.94
680,55.969,113.7,405.18
685,55.669,113.4,408.51
690,55.329,112.1,410.29
695,55.049,113.3,411.66
700,54.699,114.5,409.57
705,54.409,112.7,403.54
710,54.099,112.5,413.82
715,53.839,110.3,419.34
720,53.549,113.1,414.95
725,53.159,115.3,414.77
730,52.869,112.3,415.61
735,52.569,115.5,420.13
740,52.279,111.1,422.56
745,51.959,115.7,417.68
750,51.629,113.1,419.81
755,51.359,114.6,432.24
760,51.029,112.7,422.12
765,50.718,114.6,425.62
770,50.388,113.4,427.48
775,50.118,113,425.92
780,49.768,116.1,433.25
785,49.468,113.7,428.23
790,49.118,115.3,430.9
795,48.858,114.7,431.25
800,48.518,113.5,432.02
805,48.238,116,434.95
810,47.908,116.3,443.5
815,47.608,117.2,438.88
820,47.248,117.9,445.46
825,46.938,116.6,444.81
830,46.648,117.9,452.91
835,46.268,117.1,462.45
840,45.988,120.2,446.88
845,45.668,118.4,457.21
850,45.377,120,460.6
855,45.007,118.9,456.66
860,44.697,120.5,457.27
865,44.367,120.2,462.04
870,44.087,121.5,468.12
875,43.707,121.7,467.76
880,43.427,122.5,474.34
885,43.077,121.3,475.43
890,42.737,123.2,471.86
895,42.367,121.9,474.67
900,42.057,123.6,482.23
905,41.737,123.2,480.8
910,41.507,123.6,489.93
915,41.027,123.3,484.86
920,40.647,123.8,488.95
925,40.347,126,489.57
930,40.016,125.2,502.25
935,39.636,127.9,496.2
940,39.296,124.7,493.84
945,38.976,123.7,499.9
950,38.616,125.2,505.23
955,38.246,128.3,502.04
960,37.896,127.5,501.67
965,37.546,129.7,504.23
970,37.196,126.9,509.58
975,36.846,128.2,510.85
980,36.496,130.5,513.37
985,36.156,131.4,517.83
990,35.776,130.4,519.33
995,35.416,131.8,525.29
1000,35.056,133.8,524.86
1005,34.695,133.9,523.79
1010,34.365,134.4,524.14
1015,33.965,136,519.38
1020,33.625,134.4,534.8
1025,33.235,133.3,532.47
1030,32.825,136.4,537.88
1035,32.465,135.9,536.3
1040,32.085,136.9,534.93
1045,31.765,133.2,552.83
1050,31.355,137.5,544.73
1055,30.995,134.3,550.75
1060,30.665,136.7,550.48
1065,30.255,132.8,557.6
1070,29.905,135.2,559.34
1075,29.504,135.3,562.32
1080,29.154,135.7,564.9
1085,28.824,139.2,561.27
1090,28.434,136.7,564.92
1095,28.084,136.5,567.15
1100,27.744,134.4,570.68
1105,27.324,135.8,574.92
1110,26.994,134,577.96
1115,26.644,133,580.14
1120,26.254,135.4,582.87
1125,25.924,133.6,582.22
1130,25.544,129.1,578.1
1135,25.234,128.6,588.58
1140,24.904,129.8,593.21
1145,24.614,126.9,595.67
1150,24.273,124.5,595.54
1155,23.953,126.3,596.6
1160,23.623,121.8,600.36
1165,23.293,118.2,601.62
1170,22.993,118.4,604.89
1175,22.703,114.5,608.82
1180,22.413,114.3,610.63
1185,22.133,112.3,615.05
1190,21.893,110.8,620.89
1195,21.613,110.2,620.41
1200,21.373,108.9,623.32
1205,21.073,107.2,624.84
1210,20.773,105.2,627.15
1215,20.543,101.9,634.51
1220,20.303,99.9,635.49
1225,20.073,98.9,637.3
1230,19.843,97.2,642.82
1235,19.583,97.1,643.93
1240,19.353,95.7,647.84
1245,19.102,94.3,656.35
1250,18.922,93.2,656.04
1255,18.712,94.1,655.81
1260,18.572,90.2,662.68
1265,18.402,86.1,659.4
1270,18.202,85.2,657.97
1275,18.032,83.5,666.13
1280,17.862,82.5,669.79
1285,17.782,78.3,673.28
1290,17.642,77.1,680.3
1295,17.462,76.1,686.73
1300,17.312,73.9,690.63
1305,17.202,70.5,692.5
1310,17.122,68.2,701.27
1315,17.002,66.9,704.82
1320,16.932,65.8,709.46
1325,16.772,62.7,705.44
1330,16.722,62.7,710.3
1335,16.582,59.5,712.63
1340,16.512,59,717.21
1345,16.462,56,717.52
1350,16.382,56.1,719.83
1355,16.292,54.5,723.08
1360,16.172,52.9,724.53
1365,16.092,52.9,726.14
1370,16.022,53.1,728.53
1375,15.942,50.8,728.28
1380,15.942,49.4,731.11
1385,15.842,47.8,730.15
1390,15.782,49.2,731.71
1395,15.752,48.2,731.3
1400,15.672,48.3,728.89
1405,15.602,48.1,735.38
1410,15.592,47.1,730.52
1415,15.512,45.8,732.35
1420,15.442,43.8,735.5
1425,15.372,45.6,736.08
1430,15.322,45,739.55
1435,15.232,45.2,739.77
1436,15.272,45.2,740.83