File: Wood/Calibration_Data/UDRI/UDRI_Wood_Cone_60kW_hor_R2.csv
Time (s),Mass (g),HRR (kW/m2),TC back 1 (K)
0,112.48,-0.3,293.885
6,112.4,1,297.081
12,111.97,1.4,299.537
18,111.14,87.2,296.505
24,110.35,179.6,298.564
30,109.599,194.5,294.841
36,108.819,205.2,302.455
42,108.119,200.3,302.902
48,107.379,200.9,296.815
54,106.749,192,297.321
60,106.079,184.3,304.453
66,105.459,179.8,301.283
72,104.839,177.4,295.696
78,104.198,173.3,300.482
84,103.608,165.7,297.933
90,103.058,165.3,305.754
96,102.448,163.7,305.924
102,101.908,159.8,305.094
108,101.308,151.7,303.751
114,100.778,150.2,308.669
120,100.268,146.5,297.786
126,99.678,148.6,304.742
132,99.107,147.6,301.085
138,98.567,146.5,308.49
144,98.017,146.6,307.639
150,97.497,141.3,313.958
156,96.987,139.4,307.843
162,96.487,135.9,320
168,95.997,134.7,325.332
174,95.477,130.8,308.153
180,94.977,128.3,310.506
186,94.517,129.7,313.938
192,94.007,127.4,313.643
198,93.516,125.5,323.13
204,93.026,124.1,319.282
210,92.566,121.7,320.18
216,92.106,120.5,322.717
222,91.656,117.9,327.442
228,91.206,118.8,316.481
234,90.706,115.8,311.445
240,90.306,112.8,337.134
246,89.826,113.5,329.928
252,89.346,112.6,334.004
258,88.876,112.8,328.935
264,88.495,113.2,334.161
270,88.015,110.9,328.892
276,87.615,110.7,339.004
282,87.145,107.4,337.788
288,86.675,108.7,341.041
294,86.265,109.3,340.669
300,85.785,109.2,342.885
306,85.385,108,345.014
312,84.955,107.5,338.494
318,84.495,106.3,340.719
324,84.095,106.5,349.076
330,83.655,104.9,346.984
336,83.244,104.6,342.725
342,82.814,103.2,341.839
348,82.384,104.3,346
354,81.994,103.9,354.37
360,81.564,100.5,356.584
366,81.174,101.5,360.044
372,80.734,100.3,359.399
378,80.354,96.4,353.952
384,79.934,98.7,358.66
390,79.534,98.6,365.085
396,79.154,97.9,364.134
402,78.744,97.4,368.962
408,78.344,97.5,365.242
414,77.953,97.9,362.961
420,77.563,95.6,367.332
426,77.173,92.6,382.18
432,76.773,94.2,363.091
438,76.393,94.8,379.66
444,76.023,95.8,365.67
450,75.603,95.2,378.39
456,75.243,95.2,367.304
462,74.853,93.9,385.91
468,74.483,95.1,374.9
474,74.143,94.4,377.87
480,73.763,92.5,378.92
486,73.353,93.6,373.43
492,73.013,93.9,373.47
498,72.612,93.9,372.155
504,72.262,92.4,380.96
510,71.922,91.3,387.07
516,71.532,89.9,377.94
522,71.142,89.3,375.89
528,70.832,90,379.37
534,70.442,89.4,380.24
540,70.092,89.4,379.4
546,69.722,88.4,369.48
552,69.352,88.6,377.76
558,69.052,89.2,384.59
564,68.692,88.2,382.89
570,68.322,87.6,380.5
576,68.002,88.8,382.6
582,67.651,86.2,377.49
588,67.331,87,378.11
594,66.961,84.9,389.93
600,66.641,82.2,384.92
606,66.311,83.6,381.47
612,65.941,82.5,386.16
618,65.641,84.1,387.28
624,65.291,83.6,391.62
630,64.981,82.2,386.19
636,64.631,83.2,389.21
642,64.321,82.1,384.23
648,63.961,83,389.26
654,63.641,84,380.73
660,63.311,81.6,385.57
666,62.971,83.6,387.45
672,62.681,84,386.61
678,62.32,84.8,388.99
684,62.03,81.8,390.91
690,61.7,83.2,383.63
696,61.37,84.3,392.36
702,61.04,83.1,381.42
708,60.7,83,383.07
714,60.38,82.6,390.81
720,60.04,83,396.81
726,59.7,85.2,395.11
732,59.41,83.4,392.35
738,59.06,82.2,392.06
744,58.75,80.5,397.42
750,58.4,80.9,393.71
756,58.07,81.7,390.17
762,57.78,82.9,404.38
768,57.41,83.2,400.44
774,57.099,84,402.6
780,56.759,83.8,404.63
786,56.419,85.1,405.12
792,56.069,84.3,398.95
798,55.759,83.8,409.14
804,55.439,82.7,407
810,55.109,83.4,405.45
816,54.799,83.8,404.88
822,54.449,84.1,411.91
828,54.149,84.3,418.48
834,53.789,85.3,403.22
840,53.439,86.5,413.56
846,53.149,85.8,419.93
852,52.799,84.5,416.15
858,52.469,84.7,424.86
864,52.169,86.4,429.25
870,51.819,86.3,412.86
876,51.468,85.7,423.47
882,51.148,88.2,426.68
888,50.808,87.6,423.28
894,50.468,87.5,425.2
900,50.128,87.8,434.3
906,49.798,88.2,441.73
912,49.438,91.2,432.15
918,49.088,89.4,442.16
924,48.748,89.4,445.74
930,48.358,91.3,449.1
936,48.058,90.9,449.2
942,47.688,91.7,451.2
948,47.308,93.3,454
954,46.968,93.2,452.17
960,46.568,93.9,452.52
966,46.227,93.7,456.6
972,45.837,96.4,455.48
978,45.497,96.9,460.46
984,45.087,97.5,467.17
990,44.717,99.2,462.92
996,44.337,97.8,473.62
1002,43.887,99,460.12
1008,43.527,97.7,487.77
1014,43.137,102.4,470.08
1020,42.737,100,485.07
1026,42.307,103,493.01
1032,41.947,105.7,486.64
1038,41.467,103.8,484.84
1044,41.096,103.9,490.65
1050,40.676,106.7,487.33
1056,40.206,108.4,493.89
1062,39.776,105.9,501.27
1068,39.366,107.2,503.34
1074,38.926,108.3,504.35
1080,38.456,110.3,501.7
1086,38.006,111,501.42
1092,37.606,113.4,510.42
1098,37.106,114.3,517.58
1104,36.686,113.5,516.38
1110,36.176,115.8,513.65
1116,35.705,117.5,518.48
1122,35.265,117.2,525.64
1128,34.775,116.4,529.1
1134,34.355,117.7,524.74
1140,33.885,118.8,533.51
1146,33.425,120.2,535.29
1152,32.935,120.6,539.87
1158,32.505,119.9,543.14
1164,32.035,117.8,543.14
1170,31.575,119.5,547.51
1176,31.135,116.3,550.93
1182,30.664,117.4,551.88
1188,30.244,117.2,556.62
1194,29.804,116.1,559.47
1200,29.304,116.9,562.75
1206,28.904,117.9,565.24
1212,28.484,116.9,567.31
1218,28.024,114,568.72
1224,27.534,112.9,574.09
1230,27.144,112,575.48
1236,26.754,109.6,578.91
1242,26.304,108.9,579.31
1248,25.924,109.2,582.1
1254,25.534,109,582.92
1260,25.193,106.1,586.35
1266,24.813,105.8,588.55
1272,24.483,99.9,591.54
1278,24.153,97,594.96
1284,23.833,94,595.36
1290,23.563,90.9,598.29
1296,23.253,88,600.08
1302,22.983,85.5,603.91
1308,22.693,81.8,604.14
1314,22.423,80.3,606.25
1320,22.223,78.5,610.5
1326,21.953,78.2,611.2
1332,21.703,73.1,615.44
1338,21.523,71,617.49
1344,21.353,67,620.15
1350,21.153,63.8,622.26
1356,20.953,61.9,628.85
1362,20.793,61.9,630.79
1368,20.593,59.9,633.26
1374,20.383,58.4,638.24
1380,20.242,57,645.55
1386,20.092,56.2,649.9
1392,19.962,55,655.2
1398,19.802,54.8,665.4
1404,19.712,51.4,672.23
1410,19.622,49.3,676.69
1416,19.512,49.4,681.25
1422,19.402,47.8,681.45
1428,19.282,48,679.08
1434,19.172,48.9,679.88
1440,19.042,47.5,681.4
1446,18.972,46.8,683.8
1452,18.872,42.4,684.9
1458,18.782,42.4,681.69
1464,18.712,41.6,682.78
1470,18.622,41.4,686.37
1476,18.532,41.3,686.46
1482,18.412,41.3,688.26
1488,18.362,40.1,689.96
1494,18.282,39.4,689.54
1500,18.152,38.7,690.81
1506,18.072,39.2,694.99
1512,18.022,39.8,694.41
1518,17.902,38.5,695.49
1524,17.832,38.9,696.89
1530,17.722,38.1,700.18
1536,17.652,38.7,701.46
1542,17.572,37.4,703.25