File: Wood/Calibration_Data/UDRI/UDRI_MCC_N2_60K_R2.csv
Time (s),Temperature (K),HRR (W/g)
45.8406,397.5,0.207991
47.663,399.5,-0.0120324
49.501,401.5,-0.155321
51.3534,403.5,0.125361
53.1786,405.5,0.132986
55.0501,407.5,-0.0696205
56.8589,409.5,-0.493981
58.6581,411.5,-0.28275
60.5115,413.5,-0.323895
62.4641,415.5,-0.406657
64.3913,417.5,-0.275304
66.2766,419.5,-0.120624
68.1932,421.5,0.702654
70.0396,423.5,0.65254
71.9326,425.5,0.361808
73.7871,427.5,0.37115
75.5784,429.5,0.348757
77.4643,431.5,0.375687
79.3944,433.5,0.120403
81.2927,435.5,0.209385
83.1791,437.5,0.681255
85.1163,439.5,0.726528
87.0446,441.5,0.577419
88.9608,443.5,0.685015
90.8667,445.5,1.39688
92.8479,447.5,1.82427
94.8027,449.5,1.90354
96.7189,451.5,2.13549
98.6673,453.5,2.57877
100.518,455.5,2.83342
102.474,457.5,3.08866
104.375,459.5,3.36143
106.336,461.5,3.84087
108.31,463.5,4.47314
110.278,465.5,4.60226
112.108,467.5,4.84061
114.064,469.5,5.5584
116.073,471.5,5.87836
118.157,473.5,6.66306
120.132,475.5,7.49496
122.099,477.5,8.32053
123.984,479.5,8.60383
125.924,481.5,9.09925
127.829,483.5,9.56849
129.906,485.5,10.1896
131.878,487.5,10.9217
133.87,489.5,11.412
135.816,491.5,11.7984
137.777,493.5,12.1525
139.756,495.5,12.0467
141.805,497.5,11.6883
143.809,499.5,11.8978
145.825,501.5,11.7883
147.865,503.5,11.7899
149.827,505.5,11.7581
151.753,507.5,11.0177
153.71,509.5,10.356
155.518,511.5,9.82489
157.51,513.5,9.75902
159.514,515.5,9.55055
161.637,517.5,9.65007
163.722,519.5,10.2104
165.729,521.5,11.0537
167.752,523.5,11.7739
169.755,525.5,12.0106
171.744,527.5,12.1332
173.528,529.5,12.4785
175.517,531.5,12.8962
177.545,533.5,13.2643
179.627,535.5,13.6554
181.656,537.5,14.7145
183.672,539.5,15.7475
185.755,541.5,16.6926
187.725,543.5,17.1922
189.738,545.5,18.0731
191.59,547.5,18.6394
193.592,549.5,19.338
195.618,551.5,20.0047
197.663,553.5,21.2453
199.701,555.5,22.4276
201.669,557.5,23.2283
203.607,559.5,23.9704
205.604,561.5,25.106
207.623,563.5,26.1826
209.748,565.5,27.1529
211.745,567.5,28.2226
213.771,569.5,29.5392
215.772,571.5,30.6958
217.764,573.5,31.5015
219.776,575.5,32.4857
221.718,577.5,33.3857
223.741,579.5,34.4
225.79,581.5,35.6534
227.863,583.5,37.0316
229.84,585.5,38.3357
231.838,587.5,39.6022
233.812,589.5,41.052
235.775,591.5,42.5351
237.82,593.5,43.8313
239.726,595.5,45.0166
241.686,597.5,46.5411
243.729,599.5,48.3399
245.878,601.5,50.3022
247.921,603.5,52.1904
249.955,605.5,54.2219
251.925,607.5,56.1899
253.919,609.5,58.1174
255.898,611.5,60.386
258.016,613.5,62.3478
260.032,615.5,64.3259
261.987,617.5,66.7032
264.011,619.5,69.0197
266.018,621.5,71.0273
267.974,623.5,72.9904
269.85,625.5,74.447
271.798,627.5,76.1655
273.852,629.5,78.2353
276.01,631.5,80.0772
278.057,633.5,81.9067
280.058,635.5,83.4874
282.028,637.5,85.1288
283.971,639.5,86.9981
286.038,641.5,89.3453
288.116,643.5,91.7233
290.18,645.5,94.0774
292.137,647.5,96.7082
294.127,649.5,99.9681
296.131,651.5,103.102
298.145,653.5,106.292
300.176,655.5,109.959
302.22,657.5,113.372
304.205,659.5,116.787
306.217,661.5,119.985
308.189,663.5,122.644
310.195,665.5,124.854
312.245,667.5,126.148
314.275,669.5,125.781
316.286,671.5,123.414
318.258,673.5,119.52
320.153,675.5,113.84
322.158,677.5,105.958
324.165,679.5,96.0286
326.177,681.5,84.7813
328.124,683.5,73.1492
330.128,685.5,61.0392
332.115,687.5,50.1883
334.156,689.5,40.1171
336.147,691.5,32.0033
338.044,693.5,25.6148
340.085,695.5,20.8546
342.104,697.5,17.6784
344.291,699.5,15.1903
346.321,701.5,13.6812
348.345,703.5,12.6133
350.189,705.5,12.1527
352.202,707.5,11.3967
354.206,709.5,10.6346
356.225,711.5,9.89712
358.27,713.5,9.63468
360.261,715.5,9.07164
362.347,717.5,8.86073
364.349,719.5,8.47998
366.346,721.5,8.48389
368.478,723.5,8.405
370.5,725.5,7.81827
372.458,727.5,7.50741
374.299,729.5,6.97784
376.308,731.5,6.56032
378.306,733.5,5.83146
380.273,735.5,5.42873
382.359,737.5,5.6085
384.421,739.5,5.12924
386.48,741.5,4.94237
388.503,743.5,4.80908
390.495,745.5,4.46576
392.598,747.5,4.26372
394.592,749.5,3.87758
396.585,751.5,3.50442
398.47,753.5,3.21026
400.504,755.5,3.00088
402.495,757.5,2.65453
404.529,759.5,2.34188
406.575,761.5,2.01127
408.615,763.5,1.6648
410.603,765.5,2.01427
412.586,767.5,1.85222
414.588,769.5,1.53373
416.655,771.5,1.47257
418.63,773.5,0.826089
420.606,775.5,0.842049
422.727,777.5,1.03794
424.732,779.5,0.988342
426.754,781.5,1.07579
428.598,783.5,1.14298
430.53,785.5,0.556509
432.537,787.5,0.34468
434.551,789.5,0.122422
436.585,791.5,0.0542332
438.626,793.5,-0.193726
440.718,795.5,0.0745824
442.748,797.5,0.559185
444.823,799.5,0.587688
446.808,801.5,-0.094181
448.778,803.5,0.255953
450.756,805.5,0.153171
452.835,807.5,-0.00847174
454.866,809.5,0.15741
456.842,811.5,0.201423
458.793,813.5,0.0311912
460.711,815.5,-0.489221
462.822,817.5,-0.0199519
464.855,819.5,-0.0338267
466.867,821.5,-0.123184
468.867,823.5,-0.196955
470.862,825.5,0.255265
472.869,827.5,-0.0592218
474.831,829.5,0.117854
476.818,831.5,0.169908
478.814,833.5,0.278706
480.818,835.5,-0.670501
482.808,837.5,0.138385
484.796,839.5,-0.094185
486.805,841.5,-0.0642862
488.805,843.5,-0.0107654
490.828,845.5,-0.0321824
492.822,847.5,-0.258254
494.873,849.5,0.0448932
496.813,851.5,-0.0480579
498.846,853.5,-0.149801
500.826,855.5,0.121781
502.879,857.5,-0.434659
504.864,859.5,-0.174552
506.851,861.5,-0.331362
508.877,863.5,-0.105766
510.857,865.5,-0.0864372
512.87,867.5,-0.105891
514.895,869.5,0.0600009
516.913,871.5,0.248266
518.973,873.5,0.35964
520.879,875.5,0.0267772
522.914,877.5,0.0405441
524.911,879.5,-0.0452156
526.915,881.5,0.370276
528.907,883.5,0.127176
530.918,885.5,0.0728281
532.922,887.5,-0.072285
534.897,889.5,-0.210775
536.916,891.5,-0.166951
538.877,893.5,-0.0831194
540.899,895.5,-0.333986
542.898,897.5,-0.33546
544.882,899.5,0.0186992
546.887,901.5,-0.0345813
548.923,903.5,0.618072
550.892,905.5,0.0730141
552.918,907.5,0.438857
554.91,909.5,0.0566872
556.802,911.5,0.0583143
558.816,913.5,-0.161137
560.849,915.5,-0.532961
563.085,917.5,0.49248
565.075,919.5,0.00125575
567.073,921.5,-0.402438
568.951,923.5,0.0434109
570.976,925.5,0.254486
572.955,927.5,0.144093
574.934,929.5,-0.0409997
576.915,931.5,-0.318188
578.964,933.5,-0.111514
580.954,935.5,0.400263
582.973,937.5,0.694363
584.987,939.5,0.0855764
587.06,941.5,0.473203
589.034,943.5,0.204906
591.054,945.5,0.212044
593.054,947.5,0.0332602
594.975,949.5,-0.599429
596.927,951.5,-0.146198
599.012,953.5,-0.0362179
600.99,955.5,0.360936
603.002,957.5,-0.473849
605.028,959.5,0.193907
607.013,961.5,0.134742
608.985,963.5,0.38198
610.997,965.5,-0.0124219
612.985,967.5,-0.00758292
614.961,969.5,0.127927
617.003,971.5,-0.12549
618.89,973.5,-0.0592522
620.894,975.5,0.225411
622.899,977.5,-0.177526
624.854,979.5,0.180333
626.889,981.5,-0.0962899
628.919,983.5,-0.470204
630.869,985.5,0.058768
632.845,987.5,0.0463354
634.302,989.0,-0.100901