File: Wood/Calibration_Data/UDRI/UDRI_Wood_MCC_N2_60K_R1.csv
Time (s),Temperature (K),HRR (W/g)
75.8282,416,0.05
77.4678,418,-0.19
79.4387,420,-0.16
81.4393,422,-0.16
83.5091,424,0.21
85.4733,426,0.42
87.4513,428,0.66
89.3111,430,0.78
91.181,432,0.64
93.1524,434,0.92
95.1214,436,1.03
97.1495,438,1.36
99.112,440,1.47
101.025,442,1.52
102.857,444,1.27
104.835,446,1.70
106.79,448,1.95
108.913,450,2.57
110.914,452,2.86
112.891,454,3.24
114.785,456,3.45
116.738,458,3.81
118.675,460,3.60
120.648,462,3.76
122.64,464,4.45
124.611,466,5.20
126.706,468,6.19
128.693,470,6.47
130.693,472,6.92
132.511,474,7.39
134.512,476,8.06
136.509,478,8.44
138.45,480,8.52
140.425,482,9.28
142.389,484,9.92
144.501,486,10.78
146.527,488,11.30
148.521,490,11.76
150.507,492,12.51
152.438,494,12.93
154.447,496,12.96
156.431,498,12.96
158.374,500,12.94
160.455,502,12.90
162.497,504,12.61
164.5,506,12.57
166.533,508,12.22
168.484,510,11.89
170.52,512,11.68
172.469,514,11.40
174.469,516,11.46
176.463,518,11.37
178.498,520,11.37
180.475,522,11.71
182.474,524,12.21
184.499,526,12.34
186.544,528,12.75
188.422,530,13.21
190.463,532,13.65
192.482,534,14.15
194.424,536,14.87
196.463,538,15.45
198.453,540,16.27
200.617,542,16.90
202.634,544,17.69
204.677,546,18.71
206.713,548,19.81
208.681,550,20.41
210.683,552,21.13
212.601,554,21.90
214.602,556,22.82
216.609,558,23.89
218.744,560,25.15
220.745,562,26.06
222.763,564,27.29
224.669,566,28.58
226.657,568,29.50
228.667,570,30.54
230.611,572,31.64
232.599,574,32.54
234.649,576,33.72
236.682,578,34.96
238.765,580,36.29
240.769,582,37.71
242.842,584,39.25
244.855,586,40.41
246.83,588,41.51
248.702,590,42.62
250.704,592,44.13
252.752,594,45.39
254.803,596,46.84
256.818,598,48.49
258.832,600,50.06
260.833,602,51.86
262.844,604,53.73
264.881,606,55.69
266.938,608,57.79
268.91,610,59.82
270.968,612,62.03
272.942,614,64.17
274.932,616,66.09
276.92,618,68.10
278.899,620,70.08
280.942,622,71.99
282.949,624,73.76
284.985,626,75.63
287.001,628,77.69
289.067,630,79.53
291.005,632,81.29
293.009,634,83.02
294.998,636,84.65
296.926,638,86.34
298.941,640,88.26
301.022,642,90.56
303.228,644,92.96
305.21,646,95.40
307.204,648,98.26
309.18,650,101.22
311.187,652,104.45
313.229,654,107.84
315.276,656,111.50
317.31,658,115.08
319.279,660,118.29
321.257,662,121.10
323.206,664,123.48
325.23,666,125.00
327.25,668,125.37
329.207,670,124.44
331.253,672,121.91
333.299,674,117.22
335.305,676,110.76
337.287,678,102.60
339.256,680,92.81
341.183,682,82.09
343.124,684,70.96
345.105,686,59.81
347.054,688,49.30
349.075,690,39.75
351.131,692,31.62
353.087,694,25.72
355.129,696,21.15
357.187,698,17.92
359.224,700,15.69
361.221,702,14.23
363.271,704,13.05
365.307,706,12.17
367.312,708,11.71
369.367,710,11.44
371.423,712,11.02
373.384,714,10.28
375.386,716,10.24
377.294,718,9.58
379.271,720,9.14
381.268,722,8.64
383.265,724,8.46
385.259,726,8.04
387.316,728,7.72
389.373,730,7.40
391.423,732,6.90
393.424,734,6.82
395.387,736,6.68
397.421,738,6.22
399.407,740,5.76
401.388,742,5.47
403.41,744,5.22
405.386,746,4.90
407.355,748,4.21
409.38,750,3.96
411.378,752,3.86
413.456,754,3.59
415.484,756,3.30
417.444,758,2.88
419.394,760,2.67
421.433,762,2.72
423.48,764,2.31
425.49,766,2.01
427.471,768,2.03
429.459,770,1.90
431.457,772,1.66
433.445,774,1.45
435.463,776,1.23
437.488,778,1.31
439.535,780,1.24
441.608,782,0.99
443.546,784,0.95
445.586,786,0.86
447.572,788,0.88
449.686,790,0.86
451.662,792,0.75
453.664,794,0.53
455.527,796,0.64
457.537,798,0.47
459.604,800,0.48
461.676,802,0.39
463.669,804,0.30
465.653,806,0.44
467.625,808,0.46
469.636,810,0.24
471.653,812,0.20
473.608,814,0.13
475.61,816,0.21
477.669,818,0.11
479.773,820,0.02
481.765,822,0.02
483.802,824,0.06
485.769,826,0.08
487.729,828,0.06
489.75,830,0.15
491.758,832,-0.16
493.793,834,-0.13
495.788,836,0.10
497.823,838,-0.07
499.814,840,-0.09
501.848,842,-0.21
503.853,844,0.03
505.836,846,-0.01
507.827,848,0.15
509.837,850,0.15
511.817,852,0.12
513.823,854,0.08
515.835,856,0.07
517.862,858,0.22
519.838,860,0.15
521.873,862,-0.07
523.824,864,-0.04
525.821,866,-0.11
527.873,868,0.11
529.915,870,0.17
531.993,872,0.18
534.029,874,-0.01
535.903,876,0.06
537.917,878,0.03
539.943,880,-0.06
541.994,882,0.00
543.967,884,-0.10
545.986,886,0.12
547.894,888,-0.07
549.938,890,-0.11
551.945,892,-0.16
554.059,894,-0.12
556.029,896,-0.18
558.009,898,-0.09
560.005,900,0.08
561.97,902,-0.19
564.024,904,-0.28
565.893,906,-0.19
567.912,908,0.04
569.93,910,-0.08
572.061,912,-0.01
574.075,914,-0.23
576.067,916,-0.20
577.966,918,-0.15
579.998,920,-0.03
582.041,922,-0.20
584.033,924,-0.12
586.05,926,0.11
588.053,928,0.22
590.187,930,0.26
592.158,932,0.12
594.145,934,0.15
596.104,936,0.16
598.088,938,0.24
600.066,940,0.08
602.068,942,0.25
604.065,944,0.15
606.088,946,0.06
608.033,948,0.05
610.028,950,-0.02
611.984,952,0.02
613.97,954,-0.10
616.013,956,-0.12
618.044,958,0.05
620.133,960,0.13
622.121,962,0.26
624.134,964,0.19
626.024,966,0.08
627.98,968,-0.02
630.022,970,-0.14
632.06,972,-0.07
634.018,974,-0.16
636.005,976,0.05
637.978,978,-0.05
639.982,980,-0.06
642.029,982,-0.05
644.08,984,-0.05
646.14,986,-0.17
648.07,988,-0.11
649.525,989.5,0.11