File: Wood/Calibration_Data/UDRI/UDRI_Wood_Cone_30kW_hor_R2.csv
Time (s),Mass (g),HRR (kW/m2),TC back 1 (K)
0,106.04,-3.7,298.326
7,106.05,-3,304.012
14,106,-3.3,293.796
21,105.79,-1.8,292.798
28,105.44,29,298.499
35,104.78,94.3,297.389
42,104.12,131,300.746
49,103.64,123.3,301.013
56,103.169,110.6,302.833
63,102.699,99.5,300.295
70,102.289,96.5,292.552
77,101.899,91.4,303.761
84,101.519,85.8,304.2
91,101.179,84.5,300.633
98,100.829,84.9,300.744
105,100.479,79.6,302.344
112,100.099,80.1,303.05
119,99.749,77,303.682
126,99.439,76.9,296.738
133,99.109,75.2,306.052
140,98.739,76.2,299.208
147,98.429,76.8,295.405
154,98.139,74.2,311.79
161,97.748,73.5,306.326
168,97.488,72,296.373
175,97.148,72.1,303.673
182,96.798,73.4,308.745
189,96.508,72.2,306.84
196,96.248,71.2,304.546
203,95.858,72,309.477
210,95.568,71,308.161
217,95.268,69.1,298.401
224,94.908,69.1,310.746
231,94.658,68.9,304.135
238,94.318,68.3,307.298
245,94.028,68.8,315.423
252,93.688,68,320.511
259,93.408,68.3,311.736
266,93.148,69.5,315.485
273,92.858,67.9,314.737
280,92.547,67.3,317.991
287,92.257,65.2,322.994
294,91.967,65.1,319.812
301,91.607,65.1,319.068
308,91.307,65.2,317.105
315,90.967,65.7,322.231
322,90.657,65.9,314.389
329,90.397,66.5,321.2
336,90.107,67.8,323.648
343,89.747,66.5,316.263
350,89.477,67.1,315.962
357,89.137,66,335.341
364,88.827,65.8,327.681
371,88.567,66.9,323.667
378,88.217,68.6,325.858
385,87.927,69,332.541
392,87.596,69.1,326.607
399,87.296,68.9,333.454
406,87.006,67.9,333.552
413,86.636,69.7,332.136
420,86.396,68,329.53
427,86.066,68.4,334.962
434,85.776,67.5,344.498
441,85.396,68.4,335.416
448,85.146,66.5,335.925
455,84.766,68.5,340.896
462,84.486,69.1,342.069
469,84.206,68.5,342.497
476,83.896,69.2,351.486
483,83.606,69.7,349.895
490,83.276,68.8,346.075
497,82.966,67.4,351.62
504,82.646,68.2,349.652
511,82.346,67.3,354.609
518,82.015,66.2,353.454
525,81.735,65.9,353.309
532,81.405,66.1,362.002
539,81.085,65.4,353.485
546,80.815,65.5,351.708
553,80.475,66.1,364.281
560,80.135,65.2,360.319
567,79.875,65.8,365.386
574,79.565,65.2,360.756
581,79.215,67.1,365.369
588,78.895,68.2,363.542
595,78.625,68.2,364.549
602,78.325,67.6,361.49
609,78.015,67.7,362.306
616,77.685,68.4,365.933
623,77.375,68.7,366.618
630,77.115,70.7,371.197
637,76.794,71.7,375.65
644,76.514,68.7,366.898
651,76.184,69.8,371.982
658,75.874,70.5,373.5
665,75.574,70.2,378.07
672,75.244,70.7,374.45
679,74.924,70.2,371.43
686,74.624,69.3,382.38
693,74.334,68.8,376.79
700,74.004,67.8,382.18
707,73.714,68.9,374.02
714,73.414,69.4,369.431
721,73.084,70.9,371.485
728,72.824,70.2,374.91
735,72.434,69.6,383.55
742,72.154,69.1,373.72
749,71.894,71.4,382.47
756,71.533,70.1,379.36
763,71.253,69,381.87
770,70.993,71.7,374.7
777,70.633,69.6,377.37
784,70.373,68.2,378.04
791,70.043,66.6,377.2
798,69.733,67.1,374.69
805,69.383,68.6,371.526
812,69.133,67.2,385.21
819,68.853,66.9,379.04
826,68.553,66.5,391
833,68.273,67.8,383.21
840,67.943,66.2,385.02
847,67.673,67.2,385.58
854,67.343,68.6,384.94
861,67.073,67.7,387.9
868,66.803,68.1,385.09
875,66.462,67.7,389.17
882,66.162,69.2,386.69
889,65.872,67.4,385.06
896,65.592,69.9,390.9
903,65.332,70,387.76
910,64.992,70,391.54
917,64.682,71.5,382.56
924,64.422,72.4,390.12
931,64.092,71,384.94
938,63.802,72.1,390.87
945,63.542,70.8,393.1
952,63.262,73,393.81
959,62.962,72,397.12
966,62.622,73.5,388.05
973,62.322,72.5,395.86
980,62.032,72.8,395.6
987,61.742,72,397.2
994,61.452,74.1,401.4
1001,61.132,74.8,403.59
1008,60.851,74.1,398.5
1015,60.551,72,407.46
1022,60.261,72.4,409.96
1029,59.951,71,408.41
1036,59.661,72.5,404.89
1043,59.371,70.9,414
1050,59.071,71.7,408.15
1057,58.771,73.8,411.86
1064,58.501,73.9,418.66
1071,58.201,73.8,413.9
1078,57.891,74.8,412.35
1085,57.571,74,415.88
1092,57.251,76.1,423.56
1099,56.961,76.6,421.5
1106,56.661,76.3,429.28
1113,56.361,77.4,427.86
1120,56.061,78.1,429.53
1127,55.79,77.7,433.96
1134,55.46,79.2,434.52
1141,55.22,78,436.44
1148,54.84,79,451.96
1155,54.53,80.2,445.37
1162,54.24,81,434.87
1169,53.88,82.3,445.05
1176,53.55,84,445.72
1183,53.27,85.2,455.05
1190,52.92,84.6,456.07
1197,52.57,83.8,445.63
1204,52.29,84.9,464.26
1211,51.93,85.8,462.46
1218,51.58,87,461.94
1225,51.24,90,464.31
1232,50.87,87.9,465.52
1239,50.529,88.2,464.81
1246,50.169,88.1,473.44
1253,49.819,90.1,477.99
1260,49.439,90.6,476.39
1267,49.109,90.2,480.29
1274,48.709,91.6,486.9
1281,48.369,94.6,489.22
1288,47.979,92.7,485.47
1295,47.599,94,492.21
1302,47.199,94.3,491.01
1309,46.789,96.5,496.79
1316,46.429,97.1,504.31
1323,46.029,96.3,502.49
1330,45.619,96.5,509.58
1337,45.198,96.7,514.88
1344,44.848,98.5,514.91
1351,44.428,100.6,516.25
1358,44.008,102,522.78
1365,43.628,100.8,528.92
1372,43.208,100.3,527.93
1379,42.798,99.5,531.06
1386,42.398,98.3,532.7
1393,41.948,99.9,531.43
1400,41.548,101.9,539.81
1407,41.078,105.6,542.77
1414,40.628,106.6,551.45
1421,40.228,108.8,538.64
1428,39.807,107.5,552.77
1435,39.317,107.9,564.92
1442,38.907,109.5,560.79
1449,38.447,111.2,566.6
1456,37.977,108.5,564.85
1463,37.517,112.9,567.92
1470,37.077,115.3,571.47
1477,36.607,114.3,582.83
1484,36.197,114.2,580.78
1491,35.687,114.5,576.88
1498,35.247,114.2,593.18
1505,34.866,114.3,583.35
1512,34.426,115.1,589.82
1519,33.996,113.4,582.82
1526,33.596,111.9,586.9
1533,33.156,112.6,586.44
1540,32.766,109.7,595.44
1547,32.316,109.2,591.65
1554,31.936,107.8,594.5
1561,31.576,107,597.18
1568,31.166,106.4,599.77
1575,30.806,104.6,604.14
1582,30.416,104.8,608.66
1589,30.036,103.5,603.92
1596,29.696,102.5,602.04
1603,29.335,101.2,609.91
1610,28.985,100.3,602.25
1617,28.685,98.3,610.32
1624,28.345,98.2,612.08
1631,27.995,94.2,614.34
1638,27.715,92.9,621.36
1645,27.465,91.4,622.13
1652,27.085,88.4,621.74
1659,26.845,86.1,633.38
1666,26.555,85,620.61
1673,26.275,83.9,634.29
1680,26.075,81.3,635.1
1687,25.825,78.3,636.19
1694,25.525,77.5,634.89
1701,25.265,74.4,634.01
1708,25.055,72.7,634.5
1715,24.825,71.6,626.81
1722,24.635,69.6,633.99
1729,24.395,67.8,635.27
1736,24.194,68.3,636.81
1743,23.984,67.5,631.01
1750,23.764,66.8,642.22
1757,23.604,65.3,636.18
1764,23.414,63.6,642.43
1771,23.254,62.4,645.5
1778,23.064,62.2,640.92
1785,22.904,59.2,642.39
1792,22.674,58,647.34
1799,22.584,58,657.27
1806,22.424,56.7,652.6
1813,22.254,54.8,653.05
1820,22.124,52.7,642.34
1827,21.974,53.9,657.07
1834,21.814,52.3,652.21
1841,21.714,49.3,649.25
1848,21.584,49.8,640.98
1855,21.424,48.9,640.2
1862,21.344,46.3,648.34
1869,21.224,47.1,648.87
1876,21.064,46.7,652.5
1883,20.984,46.3,649.31
1890,20.884,42.9,644.68
1897,20.824,41.3,653.6
1904,20.694,42,651.46
1911,20.634,40.2,652
1918,20.514,40.7,654.32
1925,20.434,41.3,640.42
1932,20.344,41.4,649.08
1939,20.244,38.5,651.75
1946,20.134,38.2,646.41
1953,20.044,40.1,651.53
1960,20.044,36.9,649.45
1967,19.944,38.4,655.23
1974,19.834,35.5,650.24
1981,19.824,36.7,654.37
1988,19.704,35.9,646.58
1995,19.634,36.1,659.07
2002,19.464,35.9,654.45
2009,19.554,33.6,655.35
2016,19.414,27.3,648.06
2023,19.364,31.6,650.16
2030,19.294,34.4,648.49
2032,19.284,34.5,648.11