File: Wood/Calibration_Data/UDRI/UDRI_Wood_Cone_60kW_hor_R4.csv
Time (s),Mass (g),HRR (kW/m2),TC back 1 (K)
0,110.9,4,299.922
5,110.56,3.9,298.265
10,109.96,73.9,285.887
15,109.25,183,298.547
20,108.46,239.6,301.441
25,107.679,257.8,304.392
30,106.989,267,302.598
35,106.379,263.1,299.501
40,105.689,257.3,300.067
45,105.059,250.1,298.179
50,104.529,240.3,300.782
55,103.969,229.9,301.551
60,103.399,230.2,300.327
65,102.798,219.1,300.032
70,102.318,216.8,302.612
75,101.758,210.2,304.85
80,101.218,206.3,302.539
85,100.718,205.6,302.421
90,100.228,194.3,302.091
95,99.718,195.4,302.872
100,99.208,190,301.944
105,98.698,189.2,304.675
110,98.198,184.7,303.881
115,97.717,180.1,306.622
120,97.227,179.3,307.5
125,96.737,179.4,308.072
130,96.217,176.7,306.22
135,95.737,178.9,307.318
140,95.237,178.2,307.295
145,94.797,174.6,308.366
150,94.227,176.5,308
155,93.827,174.8,308.113
160,93.367,171,306.926
165,92.887,170.6,309.335
170,92.457,165.5,309.364
175,91.966,165.9,309.592
180,91.536,163.9,312.806
185,91.086,161.9,312.02
190,90.586,163.9,312.394
195,90.156,163.6,316.175
200,89.686,161.6,312.514
205,89.216,161.1,315.441
210,88.796,157.8,313.977
215,88.406,157.3,315.242
220,87.966,156.6,314.068
225,87.556,151.6,316.021
230,87.155,152.1,318.697
235,86.685,152.2,318.235
240,86.255,148.9,318.383
245,85.925,151.9,323.999
250,85.495,147.6,320.831
255,85.065,146.4,321.42
260,84.645,146.8,322.382
265,84.225,145.1,322.154
270,83.775,145.8,325.701
275,83.375,146.2,326.502
280,83.005,143.5,326.27
285,82.625,145.4,326.61
290,82.225,143,327.925
295,81.784,145.9,329.611
300,81.444,146.7,329.92
305,81.024,142.1,329.71
310,80.614,145.1,333.081
315,80.234,144.7,333.58
320,79.814,139.5,335.011
325,79.424,139.5,333.682
330,79.074,142.1,333.765
335,78.664,139.6,335.694
340,78.274,141.8,338.691
345,77.944,141.3,338.661
350,77.504,138.6,340.106
355,77.134,137.1,342.639
360,76.734,140.3,341.032
365,76.333,137.2,346.132
370,75.993,141.3,345.682
375,75.543,140.5,347.499
380,75.113,142.4,348.788
385,74.793,140.7,349.933
390,74.393,140.6,351.67
395,73.963,141.1,353.67
400,73.553,143.5,355.505
405,73.193,143.1,354.989
410,72.773,138.1,358.123
415,72.423,141.5,358.389
420,72.053,139.9,361.141
425,71.603,139.9,361.061
430,71.262,140.6,363.861
435,70.832,141.8,364.091
440,70.442,141.7,363.105
445,70.062,142.4,366.062
450,69.652,143.1,366.52
455,69.312,140.9,366.495
460,68.892,140.1,367.654
465,68.472,142.2,367.872
470,68.092,145.2,373.074
475,67.682,142.8,372.737
480,67.272,143.5,373.32
485,66.902,141.7,374.02
490,66.542,143.7,368.051
495,66.061,143.2,372.817
500,65.701,142.7,376.59
505,65.281,143.7,376.76
510,64.871,142,377.92
515,64.461,143.7,378.14
520,64.161,145.5,377.72
525,63.661,143,379.35
530,63.311,142.6,378.61
535,62.901,140.9,381.06
540,62.491,144.2,381.81
545,62.071,145.4,383.42
550,61.671,144.6,384.69
555,61.291,143.4,381.38
560,60.881,143.7,384.62
565,60.52,143.8,384.23
570,60.1,148.5,385.6
575,59.7,142,384.79
580,59.33,143,385.53
585,58.88,144.6,388.49
590,58.46,142.3,387.39
595,58.07,145.8,390.89
600,57.67,142.6,389.38
605,57.28,146.4,388.67
610,56.85,141.5,392.38
615,56.51,145.4,390.24
620,56.05,143.7,394.63
625,55.68,144.8,392.33
630,55.239,145.7,394.34
635,54.879,142.6,392.5
640,54.509,144,395.29
645,54.029,143.5,394.27
650,53.619,141.2,396.22
655,53.269,138.6,398.84
660,52.869,140.5,401.43
665,52.449,142.7,399.1
670,52.059,139.3,401.52
675,51.679,138.4,402.31
680,51.269,138.4,402.53
685,50.909,137.6,406.6
690,50.499,138.8,403.59
695,50.158,140.3,406.97
700,49.748,135,408.6
705,49.308,135.3,409.42
710,48.978,132.9,412.86
715,48.598,134,413.36
720,48.238,131.7,412.94
725,47.928,132.7,416.39
730,47.528,136.4,417.31
735,47.198,130.5,416.07
740,46.758,126.3,420.72
745,46.388,127.6,422
750,46.048,129.5,422.85
755,45.678,126.3,424.94
760,45.348,124.8,423.81
765,45.008,124.5,428.27
770,44.637,123.2,429.82
775,44.287,122.1,425.42
780,43.937,124.6,431.51
785,43.617,122.3,435.2
790,43.277,120.2,442.16
795,42.917,120.8,439.54
800,42.597,120.7,438.19
805,42.297,120.7,443.35
810,41.937,118.3,444.93
815,41.507,120.9,450.04
820,41.187,119,455.96
825,40.927,121.6,455.65
830,40.547,117.5,467.58
835,40.237,119.2,457.53
840,39.827,121.2,462.05
845,39.546,118.2,463.59
850,39.256,121.7,465.36
855,38.846,119.6,472.62
860,38.556,118.9,476.39
865,38.246,122,467.83
870,37.896,122,472.92
875,37.576,119.6,479.73
880,37.226,119.8,478.89
885,36.876,118.7,484.91
890,36.516,120,491.99
895,36.216,119.1,489.15
900,35.796,120.7,498.21
905,35.466,119.4,499.91
910,35.126,118,503
915,34.806,118.5,502.58
920,34.486,121.2,505.77
925,34.095,119.1,512.71
930,33.795,120.8,516.31
935,33.465,120,519.21
940,33.125,118.4,528.01
945,32.745,122.7,522.79
950,32.465,118.5,530.27
955,32.135,120.9,528.49
960,31.815,118.4,528.23
965,31.405,118.4,533.97
970,31.125,118.9,536.34
975,30.825,118.2,534.01
980,30.415,119.6,544.81
985,30.175,118,556.31
990,29.855,118,545.81
995,29.505,118.4,558.64
1000,29.174,117.7,553.85
1005,28.864,115.9,555.34
1010,28.544,115.2,559.36
1015,28.194,118.7,566.56
1020,27.914,119.6,564.11
1025,27.584,116.5,574.95
1030,27.294,115.8,576.75
1035,26.964,115.1,586.14
1040,26.634,115.9,582.64
1045,26.304,115.1,593.51
1050,26.024,111.8,589.12
1055,25.694,110.8,595.01
1060,25.384,113.5,599.41
1065,25.084,111.8,593.66
1070,24.794,111,597.62
1075,24.514,110.6,614.53
1080,24.154,109.1,613.71
1085,23.893,109,614.8
1090,23.633,106.3,623.9
1095,23.353,106.3,625.34
1100,23.063,107.7,633.31
1105,22.763,105.5,633.06
1110,22.473,104.8,635.87
1115,22.193,103.2,641.28
1120,21.953,103.9,654.36
1125,21.693,102.3,655.48
1130,21.413,101,666.11
1135,21.203,98.7,660.2
1140,20.953,97.7,665.6
1145,20.693,95.1,670.49
1150,20.443,94.5,671.08
1155,20.223,94.1,677.45
1160,19.953,93.5,682
1165,19.713,95.3,684.72
1170,19.493,92.4,685.67
1175,19.203,92.9,692.64
1180,18.983,90.5,700.15
1185,18.773,86.6,709.74
1190,18.572,83.4,719.12
1195,18.352,81.2,715.4
1200,18.102,79.5,722.23
1205,17.902,77.1,726.75
1210,17.762,76,735.4
1215,17.542,77,734.43
1220,17.392,71.9,745.53
1225,17.282,72.5,742.96
1230,17.102,68.4,745.63
1235,16.902,67.5,756.46
1240,16.742,68.3,756.52
1245,16.592,67.2,760.67
1250,16.432,66.1,769.85
1255,16.262,63.8,766.06
1260,16.132,63.7,778.13
1265,15.992,60.2,783.22
1270,15.862,59.1,788.64
1275,15.722,58.6,786.33
1280,15.622,58.7,789.72
1285,15.482,56.8,798.31
1290,15.372,56.1,797.48
1295,15.262,55.4,802.97
1300,15.142,55,807.45
1305,15.032,53.6,804.76
1310,14.932,51.2,814.2
1315,14.842,52.3,817.93
1320,14.732,47.8,819.22
1325,14.622,46.7,826.28
1330,14.552,46.9,825.02
1335,14.422,44.7,829.24
1340,14.372,45.6,847.83
1345,14.282,46.2,850.19
1350,14.152,44.7,873.55
1355,14.062,45.4,865.01
1360,13.952,45.1,891.17
1365,13.892,44.6,910.34
1370,13.802,44.5,942.72
1375,13.752,45,957.86
1380,13.652,42.6,975.27
1385,13.602,43.1,986.73
1390,13.522,43.2,995.74
1395,13.462,42,1023.52
1400,13.371,41.3,1029.1
1405,13.301,41,1036.18
1410,13.241,40.2,1047.75
1415,13.231,40.6,1058.75
1420,13.111,40.1,1061.45
1425,13.081,39.5,1071.07
1430,12.951,40.4,1065.86
1435,12.911,39.8,1075.16
1440,12.871,38.2,1072.34
1441,12.861,38.9,1072.27