File: Wood/Calibration_Data/UDRI/UDRI_Wood_MCC_N2_60K_R2.csv
Time (s),Temperature (K),HRR (W/g)
45.8406,397.5,0.21
47.663,399.5,-0.01
49.501,401.5,-0.16
51.3534,403.5,0.13
53.1786,405.5,0.13
55.0501,407.5,-0.07
56.8589,409.5,-0.49
58.6581,411.5,-0.28
60.5115,413.5,-0.32
62.4641,415.5,-0.41
64.3913,417.5,-0.28
66.2766,419.5,-0.12
68.1932,421.5,0.70
70.0396,423.5,0.65
71.9326,425.5,0.36
73.7871,427.5,0.37
75.5784,429.5,0.35
77.4643,431.5,0.38
79.3944,433.5,0.12
81.2927,435.5,0.21
83.1791,437.5,0.68
85.1163,439.5,0.73
87.0446,441.5,0.58
88.9608,443.5,0.69
90.8667,445.5,1.40
92.8479,447.5,1.82
94.8027,449.5,1.90
96.7189,451.5,2.14
98.6673,453.5,2.58
100.518,455.5,2.83
102.474,457.5,3.09
104.375,459.5,3.36
106.336,461.5,3.84
108.31,463.5,4.47
110.278,465.5,4.60
112.108,467.5,4.84
114.064,469.5,5.56
116.073,471.5,5.88
118.157,473.5,6.66
120.132,475.5,7.49
122.099,477.5,8.32
123.984,479.5,8.60
125.924,481.5,9.10
127.829,483.5,9.57
129.906,485.5,10.19
131.878,487.5,10.92
133.87,489.5,11.41
135.816,491.5,11.80
137.777,493.5,12.15
139.756,495.5,12.05
141.805,497.5,11.69
143.809,499.5,11.90
145.825,501.5,11.79
147.865,503.5,11.79
149.827,505.5,11.76
151.753,507.5,11.02
153.71,509.5,10.36
155.518,511.5,9.82
157.51,513.5,9.76
159.514,515.5,9.55
161.637,517.5,9.65
163.722,519.5,10.21
165.729,521.5,11.05
167.752,523.5,11.77
169.755,525.5,12.01
171.744,527.5,12.13
173.528,529.5,12.48
175.517,531.5,12.90
177.545,533.5,13.26
179.627,535.5,13.66
181.656,537.5,14.71
183.672,539.5,15.75
185.755,541.5,16.69
187.725,543.5,17.19
189.738,545.5,18.07
191.59,547.5,18.64
193.592,549.5,19.34
195.618,551.5,20.00
197.663,553.5,21.25
199.701,555.5,22.43
201.669,557.5,23.23
203.607,559.5,23.97
205.604,561.5,25.11
207.623,563.5,26.18
209.748,565.5,27.15
211.745,567.5,28.22
213.771,569.5,29.54
215.772,571.5,30.70
217.764,573.5,31.50
219.776,575.5,32.49
221.718,577.5,33.39
223.741,579.5,34.40
225.79,581.5,35.65
227.863,583.5,37.03
229.84,585.5,38.34
231.838,587.5,39.60
233.812,589.5,41.05
235.775,591.5,42.54
237.82,593.5,43.83
239.726,595.5,45.02
241.686,597.5,46.54
243.729,599.5,48.34
245.878,601.5,50.30
247.921,603.5,52.19
249.955,605.5,54.22
251.925,607.5,56.19
253.919,609.5,58.12
255.898,611.5,60.39
258.016,613.5,62.35
260.032,615.5,64.33
261.987,617.5,66.70
264.011,619.5,69.02
266.018,621.5,71.03
267.974,623.5,72.99
269.85,625.5,74.45
271.798,627.5,76.17
273.852,629.5,78.24
276.01,631.5,80.08
278.057,633.5,81.91
280.058,635.5,83.49
282.028,637.5,85.13
283.971,639.5,87.00
286.038,641.5,89.35
288.116,643.5,91.72
290.18,645.5,94.08
292.137,647.5,96.71
294.127,649.5,99.97
296.131,651.5,103.10
298.145,653.5,106.29
300.176,655.5,109.96
302.22,657.5,113.37
304.205,659.5,116.79
306.217,661.5,119.99
308.189,663.5,122.64
310.195,665.5,124.85
312.245,667.5,126.15
314.275,669.5,125.78
316.286,671.5,123.41
318.258,673.5,119.52
320.153,675.5,113.84
322.158,677.5,105.96
324.165,679.5,96.03
326.177,681.5,84.78
328.124,683.5,73.15
330.128,685.5,61.04
332.115,687.5,50.19
334.156,689.5,40.12
336.147,691.5,32.00
338.044,693.5,25.61
340.085,695.5,20.85
342.104,697.5,17.68
344.291,699.5,15.19
346.321,701.5,13.68
348.345,703.5,12.61
350.189,705.5,12.15
352.202,707.5,11.40
354.206,709.5,10.63
356.225,711.5,9.90
358.27,713.5,9.63
360.261,715.5,9.07
362.347,717.5,8.86
364.349,719.5,8.48
366.346,721.5,8.48
368.478,723.5,8.41
370.5,725.5,7.82
372.458,727.5,7.51
374.299,729.5,6.98
376.308,731.5,6.56
378.306,733.5,5.83
380.273,735.5,5.43
382.359,737.5,5.61
384.421,739.5,5.13
386.48,741.5,4.94
388.503,743.5,4.81
390.495,745.5,4.47
392.598,747.5,4.26
394.592,749.5,3.88
396.585,751.5,3.50
398.47,753.5,3.21
400.504,755.5,3.00
402.495,757.5,2.65
404.529,759.5,2.34
406.575,761.5,2.01
408.615,763.5,1.66
410.603,765.5,2.01
412.586,767.5,1.85
414.588,769.5,1.53
416.655,771.5,1.47
418.63,773.5,0.83
420.606,775.5,0.84
422.727,777.5,1.04
424.732,779.5,0.99
426.754,781.5,1.08
428.598,783.5,1.14
430.53,785.5,0.56
432.537,787.5,0.34
434.551,789.5,0.12
436.585,791.5,0.05
438.626,793.5,-0.19
440.718,795.5,0.07
442.748,797.5,0.56
444.823,799.5,0.59
446.808,801.5,-0.09
448.778,803.5,0.26
450.756,805.5,0.15
452.835,807.5,-0.01
454.866,809.5,0.16
456.842,811.5,0.20
458.793,813.5,0.03
460.711,815.5,-0.49
462.822,817.5,-0.02
464.855,819.5,-0.03
466.867,821.5,-0.12
468.867,823.5,-0.20
470.862,825.5,0.26
472.869,827.5,-0.06
474.831,829.5,0.12
476.818,831.5,0.17
478.814,833.5,0.28
480.818,835.5,-0.67
482.808,837.5,0.14
484.796,839.5,-0.09
486.805,841.5,-0.06
488.805,843.5,-0.01
490.828,845.5,-0.03
492.822,847.5,-0.26
494.873,849.5,0.04
496.813,851.5,-0.05
498.846,853.5,-0.15
500.826,855.5,0.12
502.879,857.5,-0.43
504.864,859.5,-0.17
506.851,861.5,-0.33
508.877,863.5,-0.11
510.857,865.5,-0.09
512.87,867.5,-0.11
514.895,869.5,0.06
516.913,871.5,0.25
518.973,873.5,0.36
520.879,875.5,0.03
522.914,877.5,0.04
524.911,879.5,-0.05
526.915,881.5,0.37
528.907,883.5,0.13
530.918,885.5,0.07
532.922,887.5,-0.07
534.897,889.5,-0.21
536.916,891.5,-0.17
538.877,893.5,-0.08
540.899,895.5,-0.33
542.898,897.5,-0.34
544.882,899.5,0.02
546.887,901.5,-0.03
548.923,903.5,0.62
550.892,905.5,0.07
552.918,907.5,0.44
554.91,909.5,0.06
556.802,911.5,0.06
558.816,913.5,-0.16
560.849,915.5,-0.53
563.085,917.5,0.49
565.075,919.5,0.00
567.073,921.5,-0.40
568.951,923.5,0.04
570.976,925.5,0.25
572.955,927.5,0.14
574.934,929.5,-0.04
576.915,931.5,-0.32
578.964,933.5,-0.11
580.954,935.5,0.40
582.973,937.5,0.69
584.987,939.5,0.09
587.06,941.5,0.47
589.034,943.5,0.20
591.054,945.5,0.21
593.054,947.5,0.03
594.975,949.5,-0.60
596.927,951.5,-0.15
599.012,953.5,-0.04
600.99,955.5,0.36
603.002,957.5,-0.47
605.028,959.5,0.19
607.013,961.5,0.13
608.985,963.5,0.38
610.997,965.5,-0.01
612.985,967.5,-0.01
614.961,969.5,0.13
617.003,971.5,-0.13
618.89,973.5,-0.06
620.894,975.5,0.23
622.899,977.5,-0.18
624.854,979.5,0.18
626.889,981.5,-0.10
628.919,983.5,-0.47
630.869,985.5,0.06
632.845,987.5,0.05
634.302,989,-0.10