File: Wood/Calibration_Data/UDRI/UDRI_Wood_Cone_30kW_hor_R1.csv
Time (s),Mass (g),HRR (kW/m2),TC back 1 (K)
0,110.44,-0.6,301.674
8,110.32,2.5,294.574
16,110.16,5.4,295.035
24,109.53,49.4,296.42
32,108.77,117.2,291.621
40,108.08,136,303.065
48,107.449,124.2,300.412
56,106.879,112.5,302.329
64,106.419,105.3,300.324
72,105.919,101.2,298.825
80,105.469,97,297.807
88,105.069,89.2,301.852
96,104.669,86.6,302.385
104,104.289,82.8,303.586
112,103.909,79.5,304.214
120,103.479,79.4,301.801
128,103.089,81,306.168
136,102.719,76.8,308.429
144,102.348,75.9,308.48
152,101.948,74.5,308.629
160,101.618,73.9,303.055
168,101.268,71.7,302.702
176,100.948,70.5,304.822
184,100.548,71.2,307.81
192,100.238,70.1,312.351
200,99.868,67.9,313.526
208,99.548,69.7,308.557
216,99.188,69.4,312.599
224,98.838,68.6,313.708
232,98.568,69.2,310.696
240,98.208,69.6,307.519
248,97.868,67.7,317.171
256,97.558,67.3,315.78
264,97.257,67.4,314.952
272,96.887,67.8,327.451
280,96.507,67,324.477
288,96.187,64,319.289
296,95.907,64.6,324.977
304,95.557,65.1,319.362
312,95.227,65.5,325.445
320,94.897,65.1,326.099
328,94.597,66.3,328.707
336,94.257,66.5,330.297
344,93.927,67.5,334.62
352,93.597,67.2,332.105
360,93.287,68.2,330.576
368,92.957,68.1,339.439
376,92.617,67.2,335.593
384,92.307,67.9,344.758
392,91.947,67.3,344.037
400,91.656,68.2,343.389
408,91.346,68.5,339.842
416,90.996,67.7,341.951
424,90.646,65.6,343.852
432,90.336,67.9,340.421
440,90.036,68.4,344.197
448,89.736,68.1,350.108
456,89.346,68.3,357.328
464,89.066,67.8,351.533
472,88.686,68.8,349.233
480,88.386,68.5,351.874
488,88.056,68,357.524
496,87.726,67,350.418
504,87.396,66,355.274
512,87.086,66.2,353.716
520,86.736,67.9,355.322
528,86.395,67.3,354.658
536,86.095,65.2,354.226
544,85.725,64.7,352.625
552,85.415,64.7,350.04
560,85.095,65.2,353.513
568,84.765,65.5,355.941
576,84.435,65.4,357.66
584,84.115,65.5,359.785
592,83.755,66.2,359.158
600,83.445,66.1,356.506
608,83.125,67.4,363.012
616,82.845,68,362.465
624,82.485,66.1,353.994
632,82.115,65.8,361.776
640,81.825,65.5,362.106
648,81.495,65.4,365.306
656,81.144,66.1,362.391
664,80.834,65.4,364.259
672,80.514,65.3,366.714
680,80.204,65.5,366.038
688,79.894,67.2,360.018
696,79.534,67.2,366.019
704,79.204,66.1,367.241
712,78.874,67.4,366.72
720,78.554,68.1,367.482
728,78.204,66.1,367.389
736,77.914,66.8,365.366
744,77.574,67.1,366.923
752,77.244,66.8,364.18
760,76.934,67.7,369.401
768,76.554,68.9,372.11
776,76.294,67.3,372.085
784,75.913,65.7,367.946
792,75.643,67.9,368.627
800,75.273,66.1,371.77
808,74.933,66.6,371.827
816,74.673,66.8,368.884
824,74.343,67.2,372.51
832,74.013,67.8,371.121
840,73.703,66.7,373.115
848,73.353,67.7,370.857
856,73.023,68,375.47
864,72.693,67.7,376.84
872,72.423,66.3,377.02
880,72.103,67.9,378.53
888,71.763,66.6,376.34
896,71.443,65.1,379.59
904,71.093,65.4,372.657
912,70.812,63.3,375.99
920,70.492,63.6,379.12
928,70.162,65.1,380.8
936,69.872,63.6,381.07
944,69.582,65.3,380.95
952,69.242,65.7,376.15
960,68.922,64.9,379.58
968,68.592,66,379.92
976,68.272,66.1,386.47
984,67.972,66,381.93
992,67.672,66.2,386.72
1000,67.332,68.1,388.06
1008,67.022,67.3,389.23
1016,66.722,65.5,383.55
1024,66.392,67.5,391.95
1032,66.122,67.5,391.05
1040,65.782,69,396.06
1048,65.511,68.2,398.6
1056,65.161,67.5,394.96
1064,64.881,67.9,394.41
1072,64.531,66.2,395.46
1080,64.231,70.4,401.26
1088,63.941,71.1,399.2
1096,63.651,70.2,403.74
1104,63.311,71.8,404.83
1112,63.021,71.7,405.22
1120,62.721,72.9,412.05
1128,62.411,71.9,410.39
1136,62.091,71.1,410.02
1144,61.781,70.8,411.92
1152,61.471,68.9,414.03
1160,61.151,69.8,416.38
1168,60.801,69.7,415.14
1176,60.491,69.6,415.7
1184,60.18,70,417.01
1192,59.88,70.5,416.72
1200,59.52,69.8,425.55
1208,59.23,71.9,427.85
1216,58.91,70.9,432.26
1224,58.55,73.7,429.86
1232,58.23,74.6,428.17
1240,57.91,74.3,431.37
1248,57.59,76.4,429.51
1256,57.23,75.9,434.36
1264,56.87,76.2,443.27
1272,56.54,75.7,443.6
1280,56.2,77.5,440.07
1288,55.83,77.5,445.85
1296,55.5,77.2,448.79
1304,55.15,77.8,446.42
1312,54.829,77,453.28
1320,54.449,77.8,451.69
1328,54.109,79.9,454.73
1336,53.739,80.4,458.51
1344,53.359,79.9,457.54
1352,52.989,79.5,460.63
1360,52.609,83.5,456.98
1368,52.229,83.2,460.83
1376,51.849,83.9,466.02
1384,51.459,83.4,467.52
1392,51.099,85.2,470.88
1400,50.679,86.1,469.01
1408,50.299,86.3,472.15
1416,49.889,87.1,473.77
1424,49.508,89.4,476.12
1432,49.068,91.3,478.23
1440,48.688,93.8,479.79
1448,48.268,94.3,480.54
1456,47.808,95.3,487.89
1464,47.388,95.1,485.58
1472,46.998,96.8,497.34
1480,46.508,97.2,488.12
1488,46.108,99,491.72
1496,45.658,101.9,493.03
1504,45.228,100.4,502.1
1512,44.788,100.6,499.47
1520,44.317,104,498.02
1528,43.897,104.6,503.67
1536,43.357,104.1,504.18
1544,42.967,100.2,511.69
1552,42.467,102.3,517.06
1560,42.017,101.8,511.64
1568,41.547,104.3,511.58
1576,41.107,104.9,512.63
1584,40.597,105,523.37
1592,40.137,103.5,522.68
1600,39.657,105.3,523.13
1608,39.146,106.5,524.34
1616,38.696,105.3,521.3
1624,38.266,106.2,524.16
1632,37.796,104.9,526.5
1640,37.336,106.3,531.93
1648,36.836,106.1,532.38
1656,36.406,106.5,531.01
1664,35.926,103.8,534.77
1672,35.486,103.7,537.18
1680,35.046,105,536.39
1688,34.616,102.6,539.41
1696,34.206,102.5,538.96
1704,33.745,100.4,539.27
1712,33.315,101.9,541.25
1720,32.935,101.3,549.83
1728,32.515,101.1,543.71
1736,32.085,98.2,552.13
1744,31.675,99.3,553.6
1752,31.295,97.2,545.63
1760,30.885,97.1,548.49
1768,30.475,96.3,550.92
1776,30.085,96.5,552.46
1784,29.765,95.6,554.78
1792,29.385,91.9,554.27
1800,29.035,90.8,557.09
1808,28.694,91,551.34
1816,28.334,87.3,554.61
1824,28.044,86.4,555.37
1832,27.734,83.7,564.81
1840,27.424,83.3,560.85
1848,27.104,80.1,565.22
1856,26.814,80.6,565.3
1864,26.504,78.6,565.21
1872,26.254,77.2,568.81
1880,25.924,74.4,564.02
1888,25.664,73.4,573.98
1896,25.414,70.3,567.9
1904,25.184,71.8,573.29
1912,24.914,71,573.72
1920,24.694,68.8,571.3
1928,24.444,68.2,571.33
1936,24.204,66,578.15
1944,23.984,66.3,576.24
1952,23.774,63.4,574.12
1960,23.564,62.6,575.67
1968,23.363,58.4,576.37
1976,23.143,59.7,580.86
1984,22.953,57.2,579.31
1992,22.773,56,579.02
2000,22.593,54.1,578.83
2008,22.443,54.4,577.81
2016,22.223,53,579
2024,22.063,54.2,578.67
2032,21.883,53.9,580.38
2040,21.723,55.7,582.07
2048,21.603,51.9,577.85
2056,21.403,49.4,581.71
2064,21.273,47,581.82
2072,21.143,47.3,581.8
2080,21.013,47,579.6
2088,20.823,46.5,578.97
2096,20.703,43.5,585.6
2104,20.553,43,580.37
2112,20.433,43.5,583.45
2120,20.303,42.1,584.91
2128,20.173,41.5,584.14
2136,20.083,41.9,577.7
2144,19.963,40.9,589.03
2152,19.873,41.1,584.68
2160,19.723,38.7,577.91
2168,19.613,38.8,580.69
2176,19.523,37.1,581.27
2184,19.413,37.1,581.72
2192,19.333,36.2,582.05
2200,19.213,35.5,578.8
2208,19.113,35.4,582.88
2216,18.983,35.5,577.11
2224,18.913,36,584.2
2232,18.833,35.5,581.49
2240,18.723,35.5,585.23
2248,18.663,33,579.97
2256,18.573,31.1,583.75
2264,18.473,29.2,580.39
2272,18.423,28.6,585.79
2280,18.343,28.6,583.72
2288,18.242,27.9,580.31
2296,18.182,27.9,583.34
2304,18.092,26.2,582.94
2312,18.002,27.8,586.31
2320,17.952,27.5,579.5
2328,17.862,27.3,576.5
2336,17.792,27.3,579.09
2344,17.732,26.7,581.35
2352,17.672,26.9,581.46
2359,17.602,28.1,582.12