File: Wood/Calibration_Data/UDRI/UDRI_MCC_N2_60K_R3.csv
Time (s),Temperature (K),HRR (W/g)
57.2388,405.0,-1.14905
59.1515,407.0,-0.459613
61.0739,409.0,0.0655725
63.0148,411.0,0.256702
64.885,413.0,0.255024
66.7421,415.0,0.0645614
68.646,417.0,0.318879
70.5513,419.0,0.343248
72.4854,421.0,-0.250209
74.4189,423.0,-0.416642
76.2152,425.0,-0.632024
78.1452,427.0,-0.172319
80.09,429.0,0.0313937
82.1721,431.0,0.613174
84.1008,433.0,0.492559
86.0158,435.0,0.827605
87.8622,437.0,1.17114
89.7698,439.0,1.14981
91.7017,441.0,0.753796
93.6349,443.0,1.01514
95.5177,445.0,1.00859
97.5135,447.0,1.24936
99.5052,449.0,1.26309
101.424,451.0,1.59638
103.391,453.0,2.2667
105.406,455.0,2.54465
107.424,457.0,3.4263
109.296,459.0,3.5488
111.245,461.0,3.25291
113.142,463.0,3.88701
115.124,465.0,4.27903
117.124,467.0,4.95366
119.112,469.0,5.62023
121.12,471.0,6.19769
123.088,473.0,6.39551
124.934,475.0,7.13266
126.945,477.0,7.28966
128.928,479.0,8.38433
130.959,481.0,9.2571
132.926,483.0,9.27288
134.876,485.0,9.93492
136.839,487.0,10.5284
138.837,489.0,11.1064
140.852,491.0,11.5937
142.862,493.0,12.0812
144.899,495.0,11.8118
146.879,497.0,11.8381
148.84,499.0,11.9949
150.878,501.0,11.9309
152.928,503.0,11.3811
154.839,505.0,11.0618
156.813,507.0,10.2439
158.804,509.0,10.4461
160.919,511.0,10.0773
162.926,513.0,9.79763
164.887,515.0,10.0363
166.774,517.0,9.84187
168.769,519.0,9.71298
170.757,521.0,10.0527
172.744,523.0,10.5346
174.755,525.0,10.5491
176.799,527.0,11.0826
178.863,529.0,11.3387
180.906,531.0,12.1731
182.908,533.0,12.9999
184.91,535.0,13.8335
186.882,537.0,14.3845
188.876,539.0,14.9679
190.882,541.0,15.8321
192.867,543.0,16.458
194.881,545.0,16.9953
196.853,547.0,17.9502
198.781,549.0,18.5518
200.819,551.0,19.2661
202.864,553.0,20.15
204.924,555.0,20.6712
206.961,557.0,22.2282
208.999,559.0,23.0376
211.057,561.0,24.0748
213.054,563.0,25.2371
215.039,565.0,26.3217
216.96,567.0,26.973
218.986,569.0,28.6195
220.962,571.0,28.8737
222.884,573.0,29.2919
224.941,575.0,31.4578
226.967,577.0,32.4409
229.085,579.0,33.5504
231.167,581.0,34.8101
233.084,583.0,35.991
235.096,585.0,36.9747
237.111,587.0,38.302
239.071,589.0,39.3755
241.022,591.0,40.4922
243.097,593.0,42.1484
245.152,595.0,43.8495
247.312,597.0,45.6966
249.31,599.0,47.4939
251.287,601.0,49.4581
253.079,603.0,51.3533
255.121,605.0,53.0897
257.182,607.0,54.7846
258.996,609.0,56.3745
261.063,611.0,58.6276
263.136,613.0,60.7794
265.305,615.0,62.8345
267.312,617.0,65.1116
269.317,619.0,67.4086
271.477,621.0,69.5268
273.469,623.0,71.3831
275.413,625.0,73.3661
277.273,627.0,75.1733
279.274,629.0,77.0071
281.292,631.0,78.6522
283.209,633.0,80.1476
285.233,635.0,81.9799
287.246,637.0,83.4696
289.427,639.0,85.643
291.49,641.0,87.9394
293.538,643.0,90.3436
295.492,645.0,92.5295
297.482,647.0,95.3959
299.479,649.0,98.4667
301.646,651.0,102.233
303.679,653.0,105.845
305.694,655.0,109.729
307.557,657.0,113.433
309.597,659.0,117.411
311.573,661.0,120.933
313.583,663.0,124.014
315.611,665.0,126.631
317.663,667.0,127.954
319.646,669.0,128.238
321.684,671.0,126.71
323.711,673.0,123.3
325.71,675.0,117.492
327.718,677.0,109.742
329.709,679.0,100.028
331.669,681.0,88.9316
333.642,683.0,76.6635
335.583,685.0,64.3845
337.524,687.0,52.4216
339.528,689.0,41.9705
341.521,691.0,33.2631
343.715,693.0,25.8046
345.711,695.0,20.9677
347.741,697.0,17.8332
349.719,699.0,15.2925
351.703,701.0,13.9267
353.709,703.0,12.8634
355.727,705.0,12.1836
357.786,707.0,11.3933
359.779,709.0,10.8509
361.729,711.0,10.2378
363.678,713.0,9.83709
365.682,715.0,9.42104
367.724,717.0,8.66889
369.701,719.0,8.35356
371.76,721.0,8.16124
373.821,723.0,7.85794
375.911,725.0,7.57322
377.897,727.0,7.25175
379.904,729.0,6.64937
381.824,731.0,6.32551
383.845,733.0,6.15919
385.912,735.0,5.84989
388.066,737.0,5.47597
390.067,739.0,5.26076
392.08,741.0,5.14339
393.958,743.0,4.85408
395.975,745.0,4.43416
397.937,747.0,3.93597
399.862,749.0,3.61184
401.854,751.0,3.3011
403.9,753.0,3.00289
405.939,755.0,2.63204
407.968,757.0,2.49359
410.013,759.0,2.35561
412.107,761.0,2.06156
414.161,763.0,1.73766
416.166,765.0,1.66757
417.999,767.0,1.59442
419.985,769.0,1.24875
421.987,771.0,1.13623
424.102,773.0,0.787238
426.075,775.0,0.688281
428.065,777.0,0.894521
430.033,779.0,0.828973
432.123,781.0,0.547931
434.1,783.0,0.480826
436.062,785.0,0.317149
438.058,787.0,0.326458
440.068,789.0,0.239244
442.052,791.0,0.336084
444.043,793.0,0.326395
446.032,795.0,0.181298
447.93,797.0,-0.162484
450.016,799.0,-0.0251194
452.036,801.0,-0.0544348
454.164,803.0,-0.219852
456.13,805.0,0.0580403
458.115,807.0,0.213166
460.237,809.0,0.275819
462.223,811.0,0.0250125
464.181,813.0,-0.0180645
466.168,815.0,-0.130296
468.188,817.0,0.0991996
470.219,819.0,0.0873762
472.238,821.0,0.0122289
474.183,823.0,0.0682649
476.173,825.0,0.00720313
478.116,827.0,-0.195675
480.112,829.0,-0.196814
482.153,831.0,-0.197914
484.191,833.0,-0.483685
486.219,835.0,-0.182015
488.217,837.0,-0.0347701
490.209,839.0,0.0521871
492.232,841.0,0.0631898
494.198,843.0,-0.0820447
496.217,845.0,-0.154244
498.199,847.0,-0.0437193
500.242,849.0,-0.163926
502.242,851.0,0.00333453
504.249,853.0,-0.0237451
506.226,855.0,-0.0756153
508.267,857.0,-0.236823
510.243,859.0,-0.0281684
512.268,861.0,0.0201625
514.321,863.0,0.0424772
516.315,865.0,0.220692
518.315,867.0,0.246985
520.318,869.0,0.15717
522.288,871.0,0.301196
524.322,873.0,0.0378272
526.328,875.0,0.013018
528.285,877.0,-0.0380379
530.305,879.0,-0.0962023
532.297,881.0,-0.0767708
534.307,883.0,0.131834
536.275,885.0,0.114465
538.315,887.0,-0.23575
540.314,889.0,-0.203018
542.349,891.0,0.0568079
544.393,893.0,0.117392
546.411,895.0,0.0830423
548.419,897.0,-0.069678
550.396,899.0,0.230667
552.319,901.0,0.384511
554.356,903.0,0.243333
556.334,905.0,0.0772387
558.207,907.0,-0.14245
560.312,909.0,-0.165333
562.346,911.0,-0.134269
564.44,913.0,-0.142634
566.452,915.0,-0.0600838
568.517,917.0,0.0900953
570.438,919.0,-0.109037
572.444,921.0,0.210147
574.452,923.0,0.27516
576.428,925.0,0.0319089
578.444,927.0,-0.031327
580.419,929.0,-0.154933
582.497,931.0,0.192752
584.472,933.0,0.196093
586.481,935.0,-0.0385446
588.46,937.0,-0.0866428
590.464,939.0,0.150104
592.47,941.0,-0.0891788
594.523,943.0,0.0905798
596.515,945.0,0.259571
598.544,947.0,0.161985
600.411,949.0,0.314083
602.374,951.0,0.139805
604.378,953.0,-0.213189
606.382,955.0,-0.51812
608.432,957.0,-0.489372
610.481,959.0,-0.227566
612.628,961.0,0.0893219
614.626,963.0,-0.0205459
616.56,965.0,-0.0404837
618.501,967.0,-0.130509
620.525,969.0,0.245134
622.515,971.0,0.0875089
624.534,973.0,-0.179675
626.547,975.0,0.179653
628.478,977.0,-0.00581364
630.487,979.0,-0.0444198
632.481,981.0,0.155264
634.533,983.0,0.104264
636.433,985.0,-0.0446574
638.355,987.0,-0.288617
640.354,989.0,-0.0836004
640.852,989.5,-0.139483