File: Wood/Calibration_Data/UDRI/UDRI_MCC_N2_60K_R1.csv
Time (s),Temperature (K),HRR (W/g)
75.8282,416.0,0.0547726
77.4678,418.0,-0.19147
79.4387,420.0,-0.161882
81.4393,422.0,-0.164665
83.5091,424.0,0.205216
85.4733,426.0,0.424352
87.4513,428.0,0.662509
89.3111,430.0,0.776798
91.181,432.0,0.638861
93.1524,434.0,0.918325
95.1214,436.0,1.03058
97.1495,438.0,1.36488
99.112,440.0,1.46756
101.025,442.0,1.52384
102.857,444.0,1.26674
104.835,446.0,1.69868
106.79,448.0,1.95193
108.913,450.0,2.56506
110.914,452.0,2.85831
112.891,454.0,3.24052
114.785,456.0,3.45426
116.738,458.0,3.80741
118.675,460.0,3.59978
120.648,462.0,3.75521
122.64,464.0,4.44824
124.611,466.0,5.19971
126.706,468.0,6.18683
128.693,470.0,6.46946
130.693,472.0,6.92086
132.511,474.0,7.39069
134.512,476.0,8.05818
136.509,478.0,8.44018
138.45,480.0,8.51722
140.425,482.0,9.28355
142.389,484.0,9.92052
144.501,486.0,10.7819
146.527,488.0,11.3017
148.521,490.0,11.7627
150.507,492.0,12.5117
152.438,494.0,12.9347
154.447,496.0,12.9623
156.431,498.0,12.9593
158.374,500.0,12.9432
160.455,502.0,12.905
162.497,504.0,12.6077
164.5,506.0,12.5703
166.533,508.0,12.2218
168.484,510.0,11.8903
170.52,512.0,11.6838
172.469,514.0,11.4035
174.469,516.0,11.4604
176.463,518.0,11.3739
178.498,520.0,11.3683
180.475,522.0,11.714
182.474,524.0,12.2062
184.499,526.0,12.3375
186.544,528.0,12.7452
188.422,530.0,13.2103
190.463,532.0,13.6504
192.482,534.0,14.1476
194.424,536.0,14.8662
196.463,538.0,15.4547
198.453,540.0,16.2675
200.617,542.0,16.9008
202.634,544.0,17.6915
204.677,546.0,18.7128
206.713,548.0,19.8136
208.681,550.0,20.4104
210.683,552.0,21.1309
212.601,554.0,21.9016
214.602,556.0,22.8223
216.609,558.0,23.8892
218.744,560.0,25.1489
220.745,562.0,26.0559
222.763,564.0,27.2912
224.669,566.0,28.5808
226.657,568.0,29.4999
228.667,570.0,30.5428
230.611,572.0,31.6436
232.599,574.0,32.5429
234.649,576.0,33.7234
236.682,578.0,34.9567
238.765,580.0,36.2868
240.769,582.0,37.7086
242.842,584.0,39.2461
244.855,586.0,40.4127
246.83,588.0,41.514
248.702,590.0,42.6179
250.704,592.0,44.1312
252.752,594.0,45.3896
254.803,596.0,46.8381
256.818,598.0,48.4884
258.832,600.0,50.0609
260.833,602.0,51.8637
262.844,604.0,53.728
264.881,606.0,55.6921
266.938,608.0,57.7872
268.91,610.0,59.8164
270.968,612.0,62.0335
272.942,614.0,64.1707
274.932,616.0,66.09
276.92,618.0,68.0951
278.899,620.0,70.0825
280.942,622.0,71.9884
282.949,624.0,73.7607
284.985,626.0,75.6323
287.001,628.0,77.6876
289.067,630.0,79.5301
291.005,632.0,81.2908
293.009,634.0,83.0231
294.998,636.0,84.6469
296.926,638.0,86.3429
298.941,640.0,88.2617
301.022,642.0,90.5558
303.228,644.0,92.9581
305.21,646.0,95.4011
307.204,648.0,98.2581
309.18,650.0,101.223
311.187,652.0,104.454
313.229,654.0,107.838
315.276,656.0,111.503
317.31,658.0,115.078
319.279,660.0,118.291
321.257,662.0,121.1
323.206,664.0,123.483
325.23,666.0,124.997
327.25,668.0,125.365
329.207,670.0,124.437
331.253,672.0,121.908
333.299,674.0,117.224
335.305,676.0,110.758
337.287,678.0,102.604
339.256,680.0,92.8113
341.183,682.0,82.0907
343.124,684.0,70.9557
345.105,686.0,59.8079
347.054,688.0,49.2997
349.075,690.0,39.7468
351.131,692.0,31.6211
353.087,694.0,25.7219
355.129,696.0,21.1531
357.187,698.0,17.9176
359.224,700.0,15.6948
361.221,702.0,14.2276
363.271,704.0,13.0535
365.307,706.0,12.1682
367.312,708.0,11.7064
369.367,710.0,11.439
371.423,712.0,11.0166
373.384,714.0,10.2779
375.386,716.0,10.2397
377.294,718.0,9.58431
379.271,720.0,9.13536
381.268,722.0,8.64269
383.265,724.0,8.46187
385.259,726.0,8.04386
387.316,728.0,7.72489
389.373,730.0,7.39778
391.423,732.0,6.89582
393.424,734.0,6.81849
395.387,736.0,6.67677
397.421,738.0,6.22411
399.407,740.0,5.75766
401.388,742.0,5.47401
403.41,744.0,5.22313
405.386,746.0,4.90481
407.355,748.0,4.21405
409.38,750.0,3.96423
411.378,752.0,3.86244
413.456,754.0,3.5934
415.484,756.0,3.29907
417.444,758.0,2.87512
419.394,760.0,2.67061
421.433,762.0,2.72454
423.48,764.0,2.30902
425.49,766.0,2.00707
427.471,768.0,2.02619
429.459,770.0,1.90208
431.457,772.0,1.66252
433.445,774.0,1.44644
435.463,776.0,1.22881
437.488,778.0,1.31267
439.535,780.0,1.23633
441.608,782.0,0.989548
443.546,784.0,0.946219
445.586,786.0,0.856243
447.572,788.0,0.881156
449.686,790.0,0.859214
451.662,792.0,0.745609
453.664,794.0,0.531043
455.527,796.0,0.637239
457.537,798.0,0.473192
459.604,800.0,0.483869
461.676,802.0,0.390877
463.669,804.0,0.300242
465.653,806.0,0.436934
467.625,808.0,0.46115
469.636,810.0,0.244825
471.653,812.0,0.198914
473.608,814.0,0.129147
475.61,816.0,0.212792
477.669,818.0,0.112472
479.773,820.0,0.0193254
481.765,822.0,0.0234388
483.802,824.0,0.0591406
485.769,826.0,0.0764389
487.729,828.0,0.0561078
489.75,830.0,0.146149
491.758,832.0,-0.16128
493.793,834.0,-0.133038
495.788,836.0,0.0987595
497.823,838.0,-0.0708742
499.814,840.0,-0.0924702
501.848,842.0,-0.210963
503.853,844.0,0.0317042
505.836,846.0,-0.0102945
507.827,848.0,0.14504
509.837,850.0,0.146589
511.817,852.0,0.115205
513.823,854.0,0.0844502
515.835,856.0,0.0713642
517.862,858.0,0.215634
519.838,860.0,0.151924
521.873,862.0,-0.0657954
523.824,864.0,-0.0433544
525.821,866.0,-0.105882
527.873,868.0,0.114459
529.915,870.0,0.173704
531.993,872.0,0.178682
534.029,874.0,-0.0123752
535.903,876.0,0.0578641
537.917,878.0,0.0258184
539.943,880.0,-0.0566024
541.994,882.0,0.00132302
543.967,884.0,-0.0962376
545.986,886.0,0.118814
547.894,888.0,-0.0729976
549.938,890.0,-0.108173
551.945,892.0,-0.164212
554.059,894.0,-0.117169
556.029,896.0,-0.176338
558.009,898.0,-0.0872154
560.005,900.0,0.0755049
561.97,902.0,-0.186636
564.024,904.0,-0.28289
565.893,906.0,-0.193691
567.912,908.0,0.0392116
569.93,910.0,-0.0769288
572.061,912.0,-0.0120475
574.075,914.0,-0.22887
576.067,916.0,-0.201082
577.966,918.0,-0.153775
579.998,920.0,-0.0286119
582.041,922.0,-0.197805
584.033,924.0,-0.117381
586.05,926.0,0.106425
588.053,928.0,0.216332
590.187,930.0,0.259138
592.158,932.0,0.121285
594.145,934.0,0.147798
596.104,936.0,0.161117
598.088,938.0,0.239519
600.066,940.0,0.0833449
602.068,942.0,0.254549
604.065,944.0,0.153459
606.088,946.0,0.0551238
608.033,948.0,0.0461087
610.028,950.0,-0.0211417
611.984,952.0,0.0249061
613.97,954.0,-0.102687
616.013,956.0,-0.11717
618.044,958.0,0.0510071
620.133,960.0,0.128868
622.121,962.0,0.255559
624.134,964.0,0.191238
626.024,966.0,0.0842012
627.98,968.0,-0.0193593
630.022,970.0,-0.138387
632.06,972.0,-0.0690143
634.018,974.0,-0.155179
636.005,976.0,0.047978
637.978,978.0,-0.0506288
639.982,980.0,-0.0552755
642.029,982.0,-0.046624
644.08,984.0,-0.0525472
646.14,986.0,-0.170713
648.07,988.0,-0.110718
649.525,989.5,0.106453