File: Wood/Calibration_Data/UDRI/UDRI_Cone_30kW_hor_R3.csv
Time (s),Mass (g),HRR (kW/m2),TC back 1 (K)
0,110.8,3.1,293.958
7,110.79,1.7,305.8
14,110.74,4.5,297.596
21,110.67,5.4,289.595
28,110.62,9,293.649
35,110.54,6.7,298.422
42,110.51,5.4,292.162
49,110.3,5.8,294.377
56,109.82,9.8,292.361
63,108.87,149.2,295.915
70,108.28,157.5,292.651
77,107.739,135.5,299.999
84,107.269,115.2,290.798
91,106.879,107.8,295.828
98,106.439,97.5,297.528
105,106.039,94.1,301.084
112,105.669,90.4,300.365
119,105.299,87.3,300.688
126,104.979,84.9,298.055
133,104.589,83.5,295.496
140,104.239,82.9,301.791
147,103.889,84.1,300.677
154,103.529,83.4,301.668
161,103.209,82.5,301.935
168,102.809,81.6,298.293
175,102.498,81.9,301.583
182,102.168,81.5,295.332
189,101.798,82.9,305.413
196,101.498,80.2,306.91
203,101.148,80.6,295.931
210,100.818,78.9,301.353
217,100.498,76.4,300.506
224,100.158,74.3,310.692
231,99.888,73.7,299.803
238,99.528,73.2,312.427
245,99.258,71.8,300.079
252,98.908,70.4,310.668
259,98.598,71.4,307.095
266,98.288,70.7,315.026
273,97.948,67.9,310.985
280,97.638,68.5,311.701
287,97.347,68.9,311.099
294,97.057,64.6,314.553
301,96.747,66.6,312.45
308,96.427,67.3,319.142
315,96.117,66,324.221
322,95.827,65.9,318.108
329,95.507,66.1,317.623
336,95.177,67.3,317.297
343,94.877,67,314.953
350,94.587,69,318.829
357,94.247,67.2,314.21
364,93.987,69.2,322.017
371,93.677,68.2,330.121
378,93.387,66.8,327.509
385,93.087,69,316.672
392,92.747,67.6,327.977
399,92.467,70.3,324.207
406,92.156,66.9,323.223
413,91.836,66.7,333.641
420,91.536,66.9,337.012
427,91.196,66.9,331.466
434,90.896,68.2,333.176
441,90.606,69.6,331.221
448,90.276,68.9,337.135
455,89.966,68.7,335.826
462,89.616,68.7,336.906
469,89.296,69,336.182
476,88.966,70,339.002
483,88.676,71.5,347.533
490,88.356,70.6,341.286
497,88.016,71.2,353.902
504,87.726,70,344.269
511,87.356,71.2,346.079
518,87.066,71.1,346.841
525,86.755,70.1,348.995
532,86.435,70.1,344.632
539,86.105,69.3,359.426
546,85.795,70.5,351.822
553,85.465,70.7,349.965
560,85.115,69.7,356.318
567,84.805,72.3,363.221
574,84.485,70.3,355.974
581,84.145,71.2,357.391
588,83.855,70.1,354.374
595,83.535,72.5,363.418
602,83.195,71.1,363.369
609,82.855,68.6,362.012
616,82.545,70.4,365.49
623,82.255,71,365.456
630,81.935,71.4,367.231
637,81.614,69.9,368.283
644,81.304,70.9,367.707
651,80.994,71.5,360.519
658,80.644,69.8,359.365
665,80.344,70,364.934
672,80.064,69.9,369.588
679,79.704,70.5,374.9
686,79.404,70.8,372
693,79.074,69.4,365.203
700,78.764,68.6,372.692
707,78.464,67.8,382.34
714,78.184,68.2,385.09
721,77.864,68.7,361.89
728,77.494,70.1,375.34
735,77.194,69.4,378.08
742,76.904,69.5,377.17
749,76.624,71,370.506
756,76.313,71,379.47
763,75.983,70.1,373.82
770,75.693,69.5,377.51
777,75.353,69.9,380.78
784,75.103,71.2,381
791,74.773,69,382.71
798,74.453,68.9,385.03
805,74.193,70,383.25
812,73.883,67.9,389.48
819,73.553,68.6,373.35
826,73.283,68.7,377.3
833,72.973,67.3,379.83
840,72.693,66.9,365.882
847,72.413,68,374.34
854,72.113,67.6,383.94
861,71.853,67,382.73
868,71.553,68.5,378.79
875,71.323,67.7,381.04
882,71.002,66.2,382.99
889,70.672,68.4,385.32
896,70.382,67.6,381.46
903,70.092,66.6,382.06
910,69.822,67.2,384.73
917,69.532,67.3,380.63
924,69.232,67.2,383.94
931,68.982,68.4,384.06
938,68.702,65.7,397.34
945,68.412,66.4,396.56
952,68.172,66.4,389.84
959,67.862,65.2,390.92
966,67.552,65.9,387.52
973,67.282,65.6,385.53
980,67.022,65.4,391.8
987,66.712,65.5,395.18
994,66.482,64.5,395.7
1001,66.162,64.1,392.32
1008,65.881,64.7,394.31
1015,65.611,63.3,394.78
1022,65.331,64.2,403.12
1029,65.041,66.4,396.77
1036,64.801,64.9,405.15
1043,64.521,65.7,405.18
1050,64.211,67.3,405.43
1057,63.971,68,398.03
1064,63.701,67.9,409.15
1071,63.401,66.8,410.48
1078,63.111,68.8,406.63
1085,62.791,68.4,410.62
1092,62.561,70.2,408.25
1099,62.301,69.5,408.83
1106,61.961,70.3,414.98
1113,61.721,69.9,416.4
1120,61.421,69.7,417.15
1127,61.131,71,413.33
1134,60.831,72.9,408.62
1141,60.56,74.1,421.81
1148,60.27,73.1,422.68
1155,59.98,72.6,421.25
1162,59.65,72.6,432.36
1169,59.39,73.8,430.17
1176,59.1,74.5,429.97
1183,58.82,75.3,432.48
1190,58.52,75,431.74
1197,58.19,76.6,438.48
1204,57.89,77.2,433.25
1211,57.57,77.3,441.78
1218,57.22,77.9,446
1225,56.96,79.4,442.06
1232,56.63,80,452.23
1239,56.33,82.1,449.2
1246,56.05,81.4,425.92
1253,55.7,82.5,463.48
1260,55.37,83,456.35
1267,54.979,85.3,462.84
1274,54.689,83.5,463.35
1281,54.349,86.9,463.37
1288,53.999,86.7,467.31
1295,53.659,88.3,465.42
1302,53.319,89.1,477.83
1309,52.969,89.2,475.46
1316,52.589,91.3,479.81
1323,52.219,91.4,476.32
1330,51.839,93.4,479.8
1337,51.449,92.1,476.08
1344,51.109,94.9,483.46
1351,50.679,94.3,483.34
1358,50.299,97.6,493.04
1365,49.888,95.7,495.59
1372,49.468,98,503.86
1379,49.108,97.4,509.14
1386,48.728,97,501.57
1393,48.318,96.2,509.06
1400,47.908,99.7,505.73
1407,47.428,100.8,522.21
1414,46.978,100.5,516.07
1421,46.598,99.7,515.93
1428,46.158,102,517.88
1435,45.698,101.5,520.89
1442,45.198,104.3,524.3
1449,44.767,104.5,530.99
1456,44.297,107.3,537.29
1463,43.857,108.3,531.6
1470,43.377,111.3,542.16
1477,42.847,111.5,545.27
1484,42.377,112.2,549.16
1491,41.827,115,559.5
1498,41.347,118.6,551.03
1505,40.837,117,561.21
1512,40.367,119.6,553.7
1519,39.797,121.8,556.99
1526,39.316,124.9,560.28
1533,38.766,127.9,562.4
1540,38.206,129.8,570.36
1547,37.666,129.5,575.2
1554,37.156,130.2,577.29
1561,36.596,127,581.1
1568,36.116,131.9,574.01
1575,35.536,131.4,573.01
1582,35.026,131.1,585.5
1589,34.436,130.9,590.96
1596,33.895,131.8,581.76
1603,33.375,131.1,591.98
1610,32.865,129.7,594.97
1617,32.365,135.6,601.1
1624,31.825,132.4,589.25
1631,31.385,127.9,602.51
1638,30.935,122.9,595.26
1645,30.405,122.7,601.4
1652,29.975,120,603.31
1659,29.625,117.6,602.84
1666,29.195,112.9,609.94
1673,28.814,112.5,610.23
1680,28.454,107.3,611.85
1687,28.074,104.6,615.56
1694,27.724,100.8,616.4
1701,27.464,95.5,619.35
1708,27.124,91.2,619.92
1715,26.824,88.1,626.39
1722,26.604,83.2,625.38
1729,26.294,82.2,617.72
1736,26.114,77.8,637.65
1743,25.884,75.6,635.82
1750,25.674,73.1,644.1
1757,25.424,71.5,633.48
1764,25.254,67.6,643.21
1771,25.064,65.6,663.64
1778,24.844,62.4,649.19
1785,24.684,59.4,653.41
1792,24.544,59.1,658.44
1799,24.344,57.2,660.95
1806,24.194,54.7,656.33
1813,24.074,53.8,662.96
1820,23.974,51.6,669.01
1827,23.844,50.7,667.3
1834,23.733,48.9,654.87
1841,23.613,47.7,665.24
1848,23.473,47.6,668.98
1855,23.413,46.3,662.88
1862,23.243,45.7,669.87
1869,23.173,46,660.62
1876,23.033,44,662.83
1883,22.943,43.2,656.61
1890,22.943,41.7,661.46
1897,22.783,41.3,655.89
1904,22.713,41.9,652.94
1911,22.573,42.3,656
1918,22.533,40.5,658.6
1925,22.403,39.5,656.14
1932,22.353,40.5,660.82
1939,22.293,41.8,651.86
1946,22.193,40.1,662.05
1953,22.093,40.6,658.3
1960,22.013,40.8,653.82
1967,21.943,39.4,666.15
1974,21.903,39.9,660.26
1981,21.783,39.4,660.84
1988,21.713,39.1,653.37
1995,21.633,39.2,661.36
2002,21.573,38,659.34
2009,21.473,37.9,653.6
2010,21.473,38.4,656.24