File: PMMA/Validation_Results/DBI/csv_files_non_calibrated/DBI-1_Gasification_q50_Mass_R5.csv
Time,Mass
[s],[g]
0.00,28.113
2.00,28.113
4.01,28.113
6.01,28.113
8.01,28.113
10.01,28.113
12.01,28.1129
14.01,28.1128
16.01,28.1124
18.00,28.1116
20.00,28.1098
22.00,28.1064
24.00,28.1005
26.00,28.0911
28.00,28.0768
30.00,28.0563
32.00,28.0287
34.00,27.993
36.00,27.9489
38.00,27.8962
40.00,27.8351
42.00,27.7662
44.01,27.6894
46.01,27.6062
48.01,27.5169
50.01,27.4218
52.01,27.3214
54.01,27.2161
56.01,27.1063
58.01,26.9925
60.01,26.8749
62.01,26.7539
64.01,26.6297
66.01,26.5025
68.01,26.3725
70.01,26.2398
72.01,26.1047
74.00,25.9678
76.00,25.8282
78.00,25.6866
80.00,25.543
82.00,25.3976
84.00,25.2501
86.00,25.1008
88.00,24.9494
90.00,24.7962
92.00,24.6413
94.00,24.4849
96.00,24.3269
98.00,24.1672
100.00,24.0059
102.00,23.843
104.00,23.6786
106.00,23.5126
108.00,23.3451
110.00,23.176
112.00,23.0055
114.00,22.8334
116.00,22.66
118.00,22.4852
120.00,22.3091
122.00,22.1316
124.00,21.9526
126.00,21.7721
128.00,21.5899
130.00,21.4061
132.00,21.2209
134.00,21.034
136.00,20.8455
138.00,20.6559
140.00,20.4649
142.00,20.2717
144.00,20.0764
146.00,19.8793
148.00,19.6806
150.00,19.4801
152.00,19.2781
154.00,19.0743
156.00,18.8687
158.00,18.6613
160.01,18.4515
162.01,18.2409
164.01,18.0283
166.01,17.8136
168.01,17.597
170.01,17.3785
172.01,17.1585
174.01,16.9363
176.01,16.712
178.01,16.4855
180.01,16.2567
182.01,16.0258
184.01,15.7925
186.01,15.5563
188.01,15.3167
190.01,15.0727
192.01,14.8278
194.01,14.5805
196.01,14.3312
198.01,14.0797
200.01,13.8258
202.01,13.5695
204.01,13.3111
206.01,13.0508
208.01,12.7884
210.01,12.5237
212.01,12.2571
214.01,11.9884
216.01,11.7175
218.01,11.4442
220.01,11.1692
222.01,10.8922
224.01,10.6127
226.01,10.3316
228.01,10.049
230.01,9.76451
232.01,9.47789
234.01,9.19015
236.01,8.90094
238.01,8.60993
240.01,8.31777
242.01,8.02449
244.01,7.72977
246.01,7.43402
248.01,7.13741
250.01,6.83926
252.01,6.54029
254.01,6.24103
256.01,5.94077
258.01,5.63944
260.01,5.33823
262.01,5.03706
264.01,4.73517
266.01,4.43316
268.01,4.13155
270.01,3.82982
272.01,3.52908
274.01,3.22984
276.01,2.93198
278.01,2.63564
280.01,2.34226
282.01,2.0528
284.01,1.76782
286.01,1.48792
288.01,1.21512
290.01,0.951163
292.01,0.698734
294.01,0.461059
296.01,0.247314
298.01,0.0787594
300.01,0.007054751
302.01,0.004503333
304.01,0.004503333
306.01,0.004503333
308.01,0.004503333
310.01,0.004503333
312.01,0.004503333
314.01,0.004503333
316.01,0.004503333
318.01,0.004503333
320.01,0.004503333
322.01,0.004503333
324.01,0.004503333
326.01,0.004503333
328.01,0.004503333
330.01,0.004503333
332.01,0.004503333
334.01,0.004503333
336.01,0.004503333
338.01,0.004503333
340.01,0.004503333
342.01,0.004503333
344.01,0.004503333
346.01,0.004503333
348.01,0.004503333
350.01,0.004503333
352.01,0.004503333
354.01,0.004503333
356.01,0.004503333
358.01,0.004503333
360.01,0.004503333
362.01,0.004503333
364.01,0.004503333
366.01,0.004503333
368.01,0.004503333
370.01,0.004503333
372.01,0.004503333
374.01,0.004503333
376.01,0.004503333
378.01,0.004503333
380.01,0.004503333
382.01,0.004503333
384.01,0.004503333
386.01,0.004503333
388.01,0.004503333
390.01,0.004503333
392.01,0.004503333
394.01,0.004503333
396.01,0.004503333
398.01,0.004503333
400.01,0.004503333
402.01,0.004503333
404.01,0.004503333
406.01,0.004503333
408.01,0.004503333
410.01,0.004503333
412.01,0.004503333
414.01,0.004503333
416.01,0.004503333
418.01,0.004503333
420.01,0.004503333
422.01,0.004503333
424.01,0.004503333
426.01,0.004503333
428.01,0.004503333
430.01,0.004503333
432.01,0.004503333
434.01,0.004503333
436.01,0.004503333
438.01,0.004503333
440.01,0.004503333
442.01,0.004503333
444.01,0.004503333
446.01,0.004503333
448.01,0.004503333
450.01,0.004503333
452.01,0.004503333
454.01,0.004503333
456.01,0.004503333
458.01,0.004503333
460.01,0.004503333
462.01,0.004503333
464.01,0.004503333
466.01,0.004503333
468.01,0.004503333
470.01,0.004503333
472.01,0.004503333
474.01,0.004503333
476.01,0.004503333
478.01,0.004503333
480.01,0.004503333
482.01,0.004503333
484.01,0.004503333
486.01,0.004503333
488.01,0.004503333
490.01,0.004503333
492.01,0.004503333
494.01,0.004503333
496.01,0.004503333
498.01,0.004503333
500.00,0.004503333