File: PMMA/Validation_Results/DBI/csv_files_non_calibrated/DBI-1_Gasification_q50_MLR_R3.csv
Time,MLR
[s],[g/m2/s]
0,0
2,6.47992E-07
4.01,9.71988E-06
6.01,0.000109784
8.01,0.000729514
10.01,0.003333159
12.01,0.01163585
14.01,0.0332212
16.01,0.080996
18,0.17484
20,0.340161
22,0.607853
24,1.00752
26,1.56187
28,2.27948
30,3.15004
32,4.14435
34,5.21931
36,6.32728
38,7.42635
40,8.485
42,9.48296
44.01,10.4009
46.01,11.2424
48.01,12.016
50.01,12.7348
52.01,13.3972
54.01,14.004
56.01,14.5612
58.01,15.0718
60.01,15.5401
62.01,15.9745
64.01,16.3833
66.01,16.7678
68.01,17.1281
70.01,17.47
72.01,17.7932
74,18.0951
76,18.3738
78,18.6432
80,18.9107
82,19.176
84,19.4458
86,19.7191
88,19.9857
90,20.2299
92,20.4539
94,20.6763
96,20.9079
98,21.1455
100,21.3791
102,21.6044
104,21.8233
106,22.0471
108,22.2718
110,22.4916
112,22.7135
114,22.9338
116,23.1463
118,23.3555
120,23.573
122,23.8074
124,24.0491
126,24.2819
128,24.5077
130,24.7303
132,24.944
134,25.16
136,25.3981
138,25.6581
140,25.9351
142,26.2166
144,26.4822
146,26.7225
148,26.9545
150,27.2123
152,27.4982
154,27.7897
156,28.0727
158,28.344
160.01,28.6175
162.01,28.9141
164.01,29.2201
166.01,29.5265
168.01,29.85315
170.01,30.216
172.01,30.6438
174.01,31.0946
176.01,31.4145
178.01,31.7226
180.01,32.0537
182.01,32.3279
184.01,32.6091
186.01,32.8879
188.01,33.1777
190.01,33.4763
192.01,33.7676
194.01,34.063
196.01,34.3701
198.01,34.6551
200.01,34.9323
202.01,35.2172
204.01,35.4984
206.01,35.7532
208.01,36.0211
210.01,36.3113
212.01,36.5354
214.01,36.7386
216.01,36.9999
218.01,37.2273
220.01,37.396
222.01,37.6181
224.01,37.8356
226.01,37.9626
228.01,38.1134
230.01,38.3184
232.01,38.4635
234.01,38.5747
236.01,38.7128
238.01,38.8195
240.01,38.9194
242.01,39.0503
244.01,39.1151
246.01,39.1104
248.01,39.1081
250.01,39.1481
252.01,39.1761
254.01,39.1368
256.01,39.0814
258.01,38.9516
260.01,38.7162
262.01,38.476
264.01,38.1984
266.01,37.7496
268.01,37.1733
270.01,36.528
272.01,35.6732
274.01,34.5345
276.01,33.1959
278.01,31.4388
280.01,28.7217
282.01,23.436
284.01,13.3782
286.01,3.47317
288.01,0.003703438
290.01,0
292.01,0
294.01,0
296.01,0
298.01,0
300.01,0
302.01,0
304.01,0
306.01,0
308.01,0
310.01,0
312.01,0
314.01,0
316.01,0
318.01,0
320.01,0
322.01,0
324.01,0
326.01,0
328.01,0
330.01,0
332.01,0
334.01,0
336.01,0
338.01,0
340.01,0
342.01,0
344.01,0
346.01,0
348.01,0
350.01,0
352.01,0
354.01,0
356.01,0
358.01,0
360.01,0
362.01,0
364.01,0
366.01,0
368.01,0
370.01,0
372.01,0
374.01,0
376.01,0
378.01,0
380.01,0
382.01,0
384.01,0
386.01,0
388.01,0
390.01,0
392.01,0
394.01,0
396.01,0
398.01,0
400.01,0
402.01,0
404.01,0
406.01,0
408.01,0
410.01,0
412.01,0
414.01,0
416.01,0
418.01,0
420.01,0
422.01,0
424.01,0
426.01,0
428.01,0
430.01,0
432.01,0
434.01,0
436.01,0
438.01,0
440.01,0
442.01,0
444.01,0
446.01,0
448.01,0
450.01,0
452.01,0
454.01,0
456.01,0
458.01,0
460.01,0
462.01,0
464.01,0
466.01,0
468.01,0
470.01,0
472.01,0
474.01,0
476.01,0
478.01,0
480.01,0
482.01,0
484.01,0
486.01,0
488.01,0
490.01,0
492.01,0
494.01,0
496.01,0
498.01,0
500,0