File: PMMA/Validation_Results/DBI/csv_files_non_calibrated/DBI-1_Gasification_q50_MLR_R5.csv
Time,MLR
[s],[g/m2/s]
0,0
2,6.47992E-07
4.01,9.07189E-06
6.01,0.000107836
8.01,0.00071912
10.01,0.003284438
12.01,0.0114702
14.01,0.0327606
16.01,0.0799098
18,0.172583
20,0.335956
22,0.600714
24,0.996387
26,1.5458
28,2.25795
30,3.1231
32,4.11265
34,5.18401
36,6.28975
38,7.38786
40,8.44658
42,9.44528
44.01,10.3643
46.01,11.207
48.01,11.9814
50.01,12.7006
52.01,13.3629
54.01,13.969
56.01,14.5249
58.01,15.0332
60.01,15.4983
62.01,15.9285
64.01,16.3322
66.01,16.7105
68.01,17.0636
70.01,17.3973
72.01,17.7112
74,18.0024
76,18.2694
78,18.5256
80,18.7774
82,19.0265
84,19.28
86,19.5362
88,19.7863
90,20.0135
92,20.2199
94,20.4272
96,20.6385
98,20.8493
100,21.0589
102,21.2647
104,21.4658
106,21.6659
108,21.8651
110,22.0615
112,22.2551
114,22.4412
116,22.6188
118,22.7926
120,22.9709
122,23.1593
124,23.3575
126,23.5638
128,23.7701
130,23.9707
132,24.1761
134,24.3847
136,24.562
138,24.7267
140,24.9552
142,25.2357
144,25.4906
146,25.7138
148,25.9333
150,26.1459
152,26.3609
154,26.5967
156,26.8292
158,27.0347
160.01,27.2423
162.01,27.4879
164.01,27.7579
166.01,28.0176
168.01,28.2643
170.01,28.4893
172.01,28.7244
174.01,29.0013
176.01,29.2882
178.01,29.5798
180.01,29.8634
182.01,30.1552
184.01,30.4961
186.01,30.9057
188.01,31.4163
190.01,31.7606
192.01,31.9707
194.01,32.2619
196.01,32.5357
198.01,32.8264
200.01,33.1421
202.01,33.4345
204.01,33.6962
206.01,33.9604
208.01,34.2391
210.01,34.514
212.01,34.7778
214.01,35.0541
216.01,35.3487
218.01,35.6162
220.01,35.86
222.01,36.148
224.01,36.4188
226.01,36.6202
228.01,36.8371
230.01,37.1003
232.01,37.3111
234.01,37.4793
236.01,37.692
238.01,37.8835
240.01,38.0307
242.01,38.197
244.01,38.358
246.01,38.4802
248.01,38.6358
250.01,38.79
252.01,38.8624
254.01,38.9453
256.01,39.0795
258.01,39.1415
260.01,39.13122
262.01,39.1758
264.01,39.2306
266.01,39.2117
268.01,39.1936
270.01,39.1377
272.01,38.9755
274.01,38.7882
276.01,38.5996
278.01,38.309
280.01,37.8623
282.01,37.3163
284.01,36.6953
286.01,35.9038
288.01,34.8682
290.01,33.5451
292.01,31.8377
294.01,29.3248
296.01,24.8347
298.01,15.6075
300.01,4.82376
302.01,0.165743
304.01,0
306.01,0
308.01,0
310.01,0
312.01,0
314.01,0
316.01,0
318.01,0
320.01,0
322.01,0
324.01,0
326.01,0
328.01,0
330.01,0
332.01,0
334.01,0
336.01,0
338.01,0
340.01,0
342.01,0
344.01,0
346.01,0
348.01,0
350.01,0
352.01,0
354.01,0
356.01,0
358.01,0
360.01,0
362.01,0
364.01,0
366.01,0
368.01,0
370.01,0
372.01,0
374.01,0
376.01,0
378.01,0
380.01,0
382.01,0
384.01,0
386.01,0
388.01,0
390.01,0
392.01,0
394.01,0
396.01,0
398.01,0
400.01,0
402.01,0
404.01,0
406.01,0
408.01,0
410.01,0
412.01,0
414.01,0
416.01,0
418.01,0
420.01,0
422.01,0
424.01,0
426.01,0
428.01,0
430.01,0
432.01,0
434.01,0
436.01,0
438.01,0
440.01,0
442.01,0
444.01,0
446.01,0
448.01,0
450.01,0
452.01,0
454.01,0
456.01,0
458.01,0
460.01,0
462.01,0
464.01,0
466.01,0
468.01,0
470.01,0
472.01,0
474.01,0
476.01,0
478.01,0
480.01,0
482.01,0
484.01,0
486.01,0
488.01,0
490.01,0
492.01,0
494.01,0
496.01,0
498.01,0
500,0