File: PMMA/Validation_Results/DBI/csv_files_non_calibrated/DBI-1_Gasification_q50_MLR_R4.csv
Time,MLR
[s],[g/m2/s]
0,0
2,0
4.01,9.07189E-06
6.01,0.000107836
8.01,0.000715223
10.01,0.003266249
12.01,0.0114078
14.01,0.0325884
16.01,0.0795021
18,0.171733
20,0.33437
22,0.598016
24,0.992172
26,1.53972
28,2.24979
30,3.1129
32,4.1007
34,5.17081
36,6.27592
38,7.37409
40,8.43351
42,9.43355
44.01,10.3546
46.01,11.1999
48.01,11.9776
50.01,12.701
52.01,13.3686
54.01,13.9811
56.01,14.5447
58.01,15.0622
60.01,15.5382
62.01,15.9809
64.01,16.399
66.01,16.7936
68.01,17.165
70.01,17.5186
72.01,17.8544
74,18.1711
76,18.4669
78,18.7535
80,19.0349
82,19.3108
84,19.5933
86,19.8851
88,20.1671
90,20.4303
92,20.685
94,20.9395
96,21.1897
98,21.4395
100,21.6945
102,21.947
104,22.1942
106,22.4357
108,22.6757
110,22.9163
112,23.1616
114,23.4151
116,23.6749
118,23.9334
120,24.1853
122,24.435
124,24.6807
126,24.9298
128,25.1903
130,25.4613
132,25.7452
134,26.0297
136,26.2985
138,26.5625
140,26.8419
142,27.1366
144,27.4274
146,27.7123
148,27.9849
150,28.2506
152,28.5495
154,28.8808
156,29.2207
158,29.5625
160.01,29.9247
162.01,30.3776
164.01,30.821
166.01,31.2017
168.01,31.5393
170.01,31.8711
172.01,32.2074
174.01,32.4901
176.01,32.7744
178.01,33.0703
180.01,33.4117
182.01,33.771
184.01,34.0629
186.01,34.3264
188.01,34.6144
190.01,34.9369
192.01,35.2365
194.01,35.4846
196.01,35.7681
198.01,36.0533
200.01,36.2822
202.01,36.4977
204.01,36.7281
206.01,36.9661
208.01,37.1983
210.01,37.423
212.01,37.6312
214.01,37.8045
216.01,37.9683
218.01,38.1392
220.01,38.2955
222.01,38.4278
224.01,38.5241
226.01,38.6266
228.01,38.7615
230.01,38.8924
232.01,39.0166
234.01,39.0845
236.01,39.1134
238.01,39.1793
240.01,39.1956
242.01,39.124
244.01,39.0869
246.01,39.052
248.01,38.8803
250.01,38.6545
252.01,38.4294
254.01,38.0761
256.01,37.6009
258.01,37.0632
260.01,36.3387
262.01,35.3972
264.01,34.2521
266.01,32.7235
268.01,30.6368
270.01,27.5583
272.01,21.2451
274.01,9.96701
276.01,1.56028
278.01,0
280.01,0
282.01,0
284.01,0
286.01,0
288.01,0
290.01,0
292.01,0
294.01,0
296.01,0
298.01,0
300.01,0
302.01,0
304.01,0
306.01,0
308.01,0
310.01,0
312.01,0
314.01,0
316.01,0
318.01,0
320.01,0
322.01,0
324.01,0
326.01,0
328.01,0
330.01,0
332.01,0
334.01,0
336.01,0
338.01,0
340.01,0
342.01,0
344.01,0
346.01,0
348.01,0
350.01,0
352.01,0
354.01,0
356.01,0
358.01,0
360.01,0
362.01,0
364.01,0
366.01,0
368.01,0
370.01,0
372.01,0
374.01,0
376.01,0
378.01,0
380.01,0
382.01,0
384.01,0
386.01,0
388.01,0
390.01,0
392.01,0
394.01,0
396.01,0
398.01,0
400.01,0
402.01,0
404.01,0
406.01,0
408.01,0
410.01,0
412.01,0
414.01,0
416.01,0
418.01,0
420.01,0
422.01,0
424.01,0
426.01,0
428.01,0
430.01,0
432.01,0
434.01,0
436.01,0
438.01,0
440.01,0
442.01,0
444.01,0
446.01,0
448.01,0
450.01,0
452.01,0
454.01,0
456.01,0
458.01,0
460.01,0
462.01,0
464.01,0
466.01,0
468.01,0
470.01,0
472.01,0
474.01,0
476.01,0
478.01,0
480.01,0
482.01,0
484.01,0
486.01,0
488.01,0
490.01,0
492.01,0
494.01,0
496.01,0
498.01,0
500,0