File: PMMA/Validation_Results/DBI/csv_files_non_calibrated/DBI-1_Gasification_q50_Temp_R1.csv
Time,Temp
[s],[K]
0,298.15
2,298.15
4.01,298.15
6.01,298.15
8.01,298.151
10.01,298.157
12.01,298.183
14.01,298.254
16.01,298.406
18,298.68
20,299.114
22,299.746
24,300.603
26,301.707
28,303.071
30,304.704
32,306.611
34,308.801
36,311.297
38,314.063
40,317.024
42,320.156
44.01,323.456
46.01,326.903
48.01,330.48
50.01,334.184
52.01,338.001
54.01,341.914
56.01,345.909
58.01,349.974
60.01,354.096
62.01,358.263
64.01,362.468
66.01,366.7
68.01,370.952
70.01,375.218
72.01,379.49
74,383.743
76,388.016
78,392.282
80,396.539
82,400.783
84,405.013
86,409.226
88,413.421
90,417.597
92,421.751
94,425.885
96,429.996
98,434.085
100,438.151
102,442.198
104,446.224
106,450.228
108,454.208
110,458.165
112,462.098
114,466.009
116,469.895
118,473.758
120,477.597
122,481.414
124,485.206
126,488.975
128,492.719
130,496.439
132,500.135
134,503.805
136,507.449
138,511.066
140,514.655
142,518.216
144,521.747
146,525.246
148,528.714
150,532.148
152,535.549
154,538.916
156,542.247
158,545.543
160.01,548.812
162.01,552.049
164.01,555.243
166.01,558.4
168.01,561.518
170.01,564.597
172.01,567.637
174.01,570.639
176.01,573.604
178.01,576.53
180.01,579.421
182.01,582.275
184.01,585.098
186.01,587.892
188.01,590.662
190.01,593.409
192.01,596.144
194.01,598.871
196.01,601.597
198.01,604.327
200.01,607.065
202.01,609.823
204.01,612.614
206.01,615.437
208.01,618.3
210.01,621.22
212.01,624.205
214.01,627.256
216.01,630.393
218.01,633.629
220.01,636.954
222.01,640.391
224.01,643.974
226.01,647.683
228.01,651.552
230.01,655.599
232.01,659.795
234.01,664.174
236.01,668.814
238.01,673.629
240.01,678.691
242.01,684.053
244.01,689.589
246.01,695.453
248.01,701.823
250.01,708.491
252.01,715.957
254.01,724.913
256.01,736.052
258.01,752.446
260.01,781.629
262.01,831.135
264.01,847.165
266.01,853.251
268.01,857.096
270.01,859.894
272.01,862.094
274.01,863.924
276.01,865.422
278.01,866.702
280.01,867.743
282.01,868.831
284.01,869.775
286.01,870.647
288.01,871.169
290.01,871.849
292.01,872.563
294.01,873.256
296.01,873.917
298.01,874.462
300.01,874.978
302.01,875.447
304.01,875.829
306.01,876.222
308.01,876.553
310.01,876.927
312.01,877.312
314.01,877.652
316.01,878.036
318.01,878.308
320.01,878.674
322.01,878.981
324.01,879.241
326.01,879.535
328.01,879.675
330.01,879.938
332.01,880.296
334.01,880.518
336.01,880.781
338.01,881.147
340.01,881.389
342.01,881.487
344.01,881.775
346.01,882.043
348.01,882.289
350.01,882.477
352.01,882.699
354.01,882.915
356.01,883.005
358.01,883.308
360.01,883.514
362.01,883.728
364.01,883.911
366.01,884.103
368.01,884.298
370.01,884.387
372.01,884.559
374.01,884.831
376.01,885.013
378.01,885.185
380.01,885.356
382.01,885.515
384.01,885.676
386.01,885.848
388.01,886.005
390.01,886.173
392.01,886.381
394.01,886.447
396.01,886.659
398.01,886.8
400.01,886.931
402.01,887.162
404.01,887.271
406.01,887.376
408.01,887.56
410.01,887.722
412.01,887.871
414.01,888.029
416.01,888.124
418.01,888.21
420.01,888.436
422.01,888.566
424.01,888.631
426.01,888.689
428.01,888.858
430.01,888.993
432.01,889.128
434.01,889.227
436.01,889.298
438.01,889.495
440.01,889.689
442.01,889.73
444.01,889.878
446.01,890.019
448.01,890.251
450.01,890.394
452.01,890.519
454.01,890.674
456.01,890.747
458.01,890.932
460.01,891.015
462.01,891.063
464.01,891.23
466.01,891.32
468.01,891.455
470.01,891.561
472.01,891.721
474.01,891.812
476.01,892.015
478.01,892.174
480.01,892.382
482.01,892.436
484.01,892.578
486.01,892.646
488.01,892.738
490.01,892.926
492.01,892.931
494.01,893.042
496.01,893.077
498.01,893.383
500,893.561
,500