File: PMMA/Validation_Results/DBI/csv_files_non_calibrated/DBI_Gasification_q50_Temp_R5.csv
Time,Temp
[s],[K]
0,298.15
2,298.15
4.01,298.15
6.01,298.15
8.01,298.15
10.01,298.15
12.01,298.152
14.01,298.16
16.01,298.18
18,298.227
20,298.314
22,298.462
24,298.69
26,299.015
28,299.454
30,300.024
32,300.735
34,301.597
36,302.618
38,303.803
40,305.155
42,306.675
44.01,308.373
46.01,310.26
48.01,312.322
50.01,314.532
52.01,316.852
54.01,319.277
56.01,321.799
58.01,324.411
60.01,327.107
62.01,329.884
64.01,332.737
66.01,335.659
68.01,338.642
70.01,341.679
72.01,344.765
74,347.878
76,351.043
78,354.242
80,357.469
82,360.72
84,363.992
86,367.282
88,370.587
90,373.905
92,377.233
94,380.568
96,383.91
98,387.257
100,390.608
102,393.96
104,397.314
106,400.667
108,404.02
110,407.371
112,410.721
114,414.072
116,417.421
118,420.767
120,424.11
122,427.449
124,430.784
126,434.116
128,437.442
130,440.764
132,444.082
134,447.395
136,450.704
138,454.008
140,457.306
142,460.6
144,463.888
146,467.171
148,470.449
150,473.721
152,476.987
154,480.247
156,483.5
158,486.747
160.01,489.996
162.01,493.238
164.01,496.464
166.01,499.681
168.01,502.89
170.01,506.089
172.01,509.279
174.01,512.459
176.01,515.627
178.01,518.784
180.01,521.927
182.01,525.056
184.01,528.168
186.01,531.273
188.01,534.359
190.01,537.433
192.01,540.489
194.01,543.528
196.01,546.548
198.01,549.548
200.01,552.527
202.01,555.484
204.01,558.417
206.01,561.326
208.01,564.208
210.01,567.063
212.01,569.892
214.01,572.695
216.01,575.473
218.01,578.226
220.01,580.956
222.01,583.665
224.01,586.354
226.01,589.027
228.01,591.689
230.01,594.342
232.01,596.99
234.01,599.642
236.01,602.301
238.01,604.971
240.01,607.665
242.01,610.385
244.01,613.134
246.01,615.928
248.01,618.773
250.01,621.673
252.01,624.647
254.01,627.696
256.01,630.822
258.01,634.057
260.01,637.399
262.01,640.841
264.01,644.415
266.01,648.166
268.01,652.044
270.01,656.075
272.01,660.337
274.01,664.766
276.01,669.376
278.01,674.253
280.01,679.375
282.01,684.674
284.01,690.391
286.01,696.329
288.01,702.61
290.01,709.402
292.01,717.246
294.01,726.095
296.01,738.236
298.01,756.415
300.01,789.285
302.01,837.356
304.01,848.896
306.01,854.328
308.01,857.9
310.01,860.543
312.01,862.592
314.01,864.3
316.01,865.774
318.01,866.949
320.01,868.172
322.01,869.333
324.01,870.093
326.01,871.011
328.01,871.754
330.01,872.325
332.01,873.016
334.01,873.524
336.01,874.051
338.01,874.702
340.01,875.208
342.01,875.554
344.01,875.953
346.01,876.507
348.01,876.853
350.01,877.038
352.01,877.494
354.01,877.986
356.01,878.206
358.01,878.54
360.01,878.88
362.01,879.202
364.01,879.517
366.01,879.707
368.01,879.988
370.01,880.309
372.01,880.601
374.01,880.733
376.01,881.01
378.01,881.359
380.01,881.575
382.01,881.766
384.01,881.973
386.01,882.109
388.01,882.397
390.01,882.66
392.01,882.864
394.01,883.08
396.01,883.225
398.01,883.495
400.01,883.789
402.01,883.985
404.01,884.191
406.01,884.346
408.01,884.489
410.01,884.667
412.01,884.844
414.01,884.945
416.01,885.149
418.01,885.37
420.01,885.535
422.01,885.694
424.01,885.888
426.01,886.004
428.01,886.041
430.01,886.295
432.01,886.492
434.01,886.659
436.01,886.726
438.01,887.007
440.01,887.2
442.01,887.318
444.01,887.428
446.01,887.486
448.01,887.696
450.01,887.86
452.01,887.99
454.01,888.118
456.01,888.276
458.01,888.496
460.01,888.621
462.01,888.707
464.01,888.863
466.01,888.873
468.01,889.003
470.01,889.238
472.01,889.396
474.01,889.56
476.01,889.701
478.01,889.783
480.01,889.885
482.01,890.019
484.01,890.21
486.01,890.338
488.01,890.448
490.01,890.578
492.01,890.669
494.01,890.791
496.01,890.868
498.01,891.065
500,891.225