File: PMMA/Calibration_Data/TIFP/TIFP_TGA_N2_10K_9.csv
Time,Temperature,Mass fraction
[s],[K],[mg]
0,300.147,5.7491
12,300.153,5.7492
24,300.22,5.7497
36,300.443,5.7502
48,300.91,5.7489
60,301.697,5.7537
72,302.855,5.7514
84,304.407,5.7515
96,306.348,5.7539
108,308.642,5.7531
120,311.218,5.7542
132,314.005,5.7551
144,316.928,5.755
156,319.915,5.7559
168,322.906,5.7561
180,325.849,5.7553
192,328.705,5.7563
204,331.452,5.7577
216,334.083,5.7563
228,336.6,5.7573
240,339.005,5.7573
252,341.306,5.7587
264,343.53,5.7587
276,345.678,5.761
288,347.773,5.76
300,349.83,5.7604
312,351.859,5.761
324,353.869,5.761
336,355.866,5.7624
348,357.856,5.7624
360,359.846,5.7637
372,361.833,5.7629
384,363.819,5.7636
396,365.802,5.7637
408,367.784,5.7637
420,369.767,5.7627
432,371.746,5.7651
444,373.73,5.7651
456,375.708,5.7637
468,377.685,5.7653
480,379.661,5.7649
492,381.643,5.7653
504,383.628,5.7653
516,385.614,5.7639
528,387.602,5.7657
540,389.602,5.7644
552,391.599,5.7671
564,393.608,5.7657
576,395.617,5.7671
588,397.627,5.7684
600,399.649,5.7664
612,401.668,5.7657
624,403.691,5.7665
636,405.715,5.7661
648,407.74,5.7647
660,409.765,5.7647
672,411.789,5.7654
684,413.814,5.7647
696,415.836,5.7634
708,417.858,5.762
720,419.874,5.762
732,421.89,5.7607
744,423.903,5.7594
756,425.91,5.7594
768,427.914,5.7567
780,429.917,5.7547
792,431.919,5.751
804,433.919,5.7523
816,435.919,5.7486
828,437.916,5.749
840,439.911,5.7442
852,441.908,5.7401
864,443.904,5.7374
876,445.893,5.7331
888,447.89,5.7254
900,449.881,5.7217
912,451.873,5.716
924,453.866,5.7093
936,455.864,5.7004
948,457.857,5.6947
960,459.845,5.6875
972,461.842,5.6768
984,463.833,5.6719
996,465.827,5.663
1008,467.821,5.6575
1020,469.814,5.6479
1032,471.809,5.6425
1044,473.803,5.6356
1056,475.799,5.6284
1068,477.792,5.6245
1080,479.786,5.6177
1092,481.776,5.611
1104,483.768,5.6063
1116,485.758,5.6014
1128,487.752,5.5973
1140,489.74,5.5919
1152,491.729,5.5892
1164,493.722,5.5879
1176,495.714,5.5862
1188,497.71,5.5848
1200,499.706,5.5835
1212,501.702,5.5808
1224,503.697,5.5812
1236,505.695,5.5808
1248,507.692,5.5771
1260,509.694,5.5772
1272,511.691,5.5752
1284,513.689,5.5752
1296,515.687,5.5746
1308,517.684,5.5722
1320,519.682,5.5705
1332,521.678,5.5689
1344,523.677,5.5675
1356,525.675,5.5668
1368,527.671,5.5635
1380,529.671,5.5622
1392,531.667,5.5595
1404,533.661,5.5568
1416,535.657,5.5541
1428,537.655,5.5514
1440,539.651,5.5481
1452,541.649,5.5446
1464,543.649,5.5406
1476,545.65,5.5352
1488,547.651,5.5315
1500,549.649,5.526
1512,551.649,5.5207
1524,553.646,5.5133
1536,555.645,5.5065
1548,557.643,5.4982
1560,559.642,5.4889
1572,561.636,5.4818
1584,563.633,5.4711
1596,565.628,5.4609
1608,567.626,5.4506
1620,569.619,5.4368
1632,571.616,5.4257
1644,573.61,5.4118
1656,575.607,5.3979
1668,577.607,5.3857
1680,579.603,5.3723
1692,581.602,5.3554
1704,583.6,5.3374
1716,585.599,5.322
1728,587.598,5.3052
1740,589.596,5.2875
1752,591.597,5.2668
1764,593.597,5.2444
1776,595.594,5.2192
1788,597.593,5.1918
1800,599.587,5.1623
1812,601.588,5.1292
1824,603.582,5.0909
1836,605.579,5.0504
1848,607.573,5.0031
1860,609.569,4.9522
1872,611.566,4.894
1884,613.564,4.8275
1896,615.56,4.7566
1908,617.56,4.6764
1920,619.562,4.5868
1932,621.561,4.4891
1944,623.562,4.382
1956,625.563,4.2649
1968,627.559,4.1358
1980,629.559,3.9958
1992,631.554,3.8462
2004,633.543,3.6856
2016,635.529,3.5169
2028,637.504,3.3447
2040,639.484,3.1715
2052,641.467,2.9994
2064,643.479,2.8242
2076,645.486,2.6385
2088,647.478,2.4536
2100,649.474,2.269
2112,651.479,2.0851
2124,653.479,1.8998
2136,655.481,1.7194
2148,657.481,1.547
2160,659.48,1.3753
2172,661.478,1.2122
2184,663.475,1.0611
2196,665.469,0.9282
2208,667.466,0.8094
2220,669.461,0.7081
2232,671.462,0.6189
2244,673.464,0.5383
2256,675.469,0.4708
2268,677.47,0.4176
2280,679.469,0.3689
2292,681.471,0.3288
2304,683.47,0.2978
2316,685.469,0.2717
2328,687.474,0.2463
2340,689.47,0.2287
2352,691.469,0.2122
2364,693.47,0.2011
2376,695.464,0.1949
2388,697.458,0.1825
2400,699.448,0.1768
2412,701.441,0.1727
2424,703.43,0.1649
2436,705.422,0.1622
2448,707.414,0.1585
2460,709.406,0.1572
2472,711.407,0.1568
2484,713.402,0.1568
2496,715.398,0.1558
2508,717.395,0.1545
2520,719.388,0.1585
2532,721.381,0.1572
2544,723.378,0.1558
2556,725.373,0.1572
2568,727.375,0.1558
2580,729.374,0.1545
2592,731.375,0.1545
2604,733.375,0.1545
2616,735.373,0.1555
2628,737.373,0.1545
2640,739.37,0.1555
2652,741.369,0.1532
2664,743.367,0.1558
2676,745.368,0.1545
2688,747.366,0.1558
2700,749.372,0.1558
2712,751.379,0.1545
2724,753.382,0.1572
2736,755.387,0.1552
2748,757.387,0.1542
2760,759.392,0.1552
2772,761.397,0.1545
2784,763.403,0.1558
2796,765.408,0.1542
2808,767.412,0.1538
2820,769.413,0.1552
2832,771.413,0.1538
2844,773.408,0.1558
2856,775.409,0.1535
2868,777.405,0.1555
2880,779.404,0.1548
2892,781.407,0.1548
2904,783.414,0.1548
2916,785.423,0.1535
2928,787.43,0.1545
2940,789.439,0.1518
2952,791.444,0.1541
2964,793.449,0.1554
2976,795.458,0.1567
2988,797.457,0.1544
3000,799.46,0.1517
3012,801.462,0.1549
3024,803.461,0.156
3036,805.459,0.1543
3048,807.457,0.1573
3060,809.457,0.1533
3072,811.463,0.1553
3084,813.469,0.1539
3096,815.471,0.1556
3108,817.474,0.1543
3120,819.477,0.1543
3132,821.484,0.1539
3135,821.985,0.1543