File: PMMA/Calibration_Data/TIFP/TIFP_DSC_N2_10K_8.csv
Time,Temperature,Heat Flow
[s],[K],[mW/mg]
0,300.149,0.00399
12,300.149,0.00364
24,300.221,0.00482
36,300.444,0.00747
48,300.91,0.0121
60,301.695,0.0185
72,302.851,0.0257
84,304.399,0.0343
96,306.341,0.0436
108,308.627,0.052
120,311.205,0.06
132,313.992,0.0663
144,316.921,0.0697
156,319.912,0.073
168,322.909,0.0751
180,325.852,0.0768
192,328.709,0.0784
204,331.461,0.0803
216,334.091,0.0826
228,336.605,0.0852
240,339.006,0.0885
252,341.308,0.092
264,343.523,0.0965
276,345.672,0.10178
288,347.769,0.10778
300,349.825,0.11389
312,351.856,0.12075
324,353.866,0.12643
336,355.864,0.13184
348,357.856,0.13466
360,359.844,0.13577
372,361.828,0.13595
384,363.812,0.13619
396,365.798,0.13767
408,367.776,0.13899
420,369.76,0.14117
432,371.742,0.14361
444,373.718,0.14629
456,375.698,0.14857
468,377.674,0.1519
480,379.654,0.15562
492,381.636,0.1589
504,383.621,0.16295
516,385.607,0.16695
528,387.599,0.17111
540,389.595,0.17548
552,391.597,0.18058
564,393.604,0.18607
576,395.615,0.19325
588,397.63,0.20066
600,399.649,0.20853
612,401.669,0.21657
624,403.692,0.2204
636,405.714,0.22216
648,407.74,0.22397
660,409.763,0.2266
672,411.785,0.2291
684,413.81,0.23318
696,415.832,0.23717
708,417.849,0.24096
720,419.871,0.24504
732,421.886,0.24874
744,423.9,0.25271
756,425.91,0.25778
768,427.918,0.26269
780,429.924,0.2689
792,431.928,0.27529
804,433.926,0.28221
816,435.923,0.28986
828,437.916,0.29793
840,439.91,0.30718
852,441.907,0.31742
864,443.899,0.32833
876,445.891,0.34003
888,447.885,0.35145
900,449.874,0.36242
912,451.865,0.3734
924,453.859,0.38374
936,455.85,0.39395
948,457.844,0.40223
960,459.835,0.40859
972,461.828,0.41343
984,463.818,0.41792
996,465.817,0.4214
1008,467.804,0.42477
1020,469.799,0.42816
1032,471.79,0.43225
1044,473.784,0.43798
1056,475.775,0.44487
1068,477.77,0.45255
1080,479.765,0.46118
1092,481.762,0.4687
1104,483.758,0.47528
1116,485.755,0.48013
1128,487.748,0.48216
1140,489.743,0.48485
1152,491.74,0.48791
1164,493.737,0.49199
1176,495.73,0.49717
1188,497.729,0.50471
1200,499.725,0.51233
1212,501.723,0.5211
1224,503.72,0.53141
1236,505.714,0.54189
1248,507.71,0.55388
1260,509.706,0.56593
1272,511.703,0.5782
1284,513.701,0.59053
1296,515.697,0.60349
1308,517.697,0.61709
1320,519.695,0.63278
1332,521.696,0.64762
1344,523.693,0.66274
1356,525.69,0.67877
1368,527.69,0.6964
1380,529.689,0.71348
1392,531.686,0.73096
1404,533.686,0.75074
1416,535.686,0.7712
1428,537.685,0.79302
1440,539.683,0.8147
1452,541.679,0.83583
1464,543.677,0.85764
1476,545.67,0.87936
1488,547.663,0.90113
1500,549.661,0.92466
1512,551.652,0.94738
1524,553.644,0.97222
1536,555.642,0.9992
1548,557.638,1.027
1560,559.636,1.05503
1572,561.631,1.08254
1584,563.626,1.11098
1596,565.623,1.13975
1608,567.617,1.16654
1620,569.614,1.19599
1632,571.611,1.22428
1644,573.609,1.25283
1656,575.604,1.28147
1668,577.607,1.31113
1680,579.604,1.342
1692,581.602,1.37763
1704,583.604,1.41576
1716,585.602,1.45503
1728,587.602,1.49685
1740,589.603,1.54335
1752,591.609,1.59323
1764,593.609,1.6493
1776,595.608,1.70829
1788,597.606,1.7734
1800,599.603,1.84425
1812,601.598,1.92202
1824,603.593,2.0069
1836,605.595,2.1008
1848,607.595,2.20299
1860,609.593,2.31387
1872,611.587,2.43572
1884,613.586,2.56968
1896,615.583,2.71445
1908,617.576,2.87266
1920,619.566,3.03985
1932,621.558,3.21954
1944,623.555,3.40852
1956,625.548,3.61109
1968,627.542,3.83143
1980,629.54,4.06226
1992,631.535,4.27602
2004,633.533,4.4887
2016,635.528,4.67701
2028,637.517,4.77786
2040,639.498,4.68899
2052,641.486,4.51284
2064,643.491,4.68281
2076,645.49,4.79925
2088,647.497,5.02155
2100,649.493,5.11035
2112,651.489,5.10066
2124,653.481,5.02593
2136,655.479,4.93704
2148,657.476,4.75904
2160,659.479,4.64197
2172,661.482,4.46408
2184,663.482,4.20847
2196,665.479,3.90437
2208,667.484,3.63019
2220,669.49,3.37375
2232,671.492,3.15779
2244,673.5,3.00147
2256,675.502,2.85312
2268,677.501,2.70983
2280,679.503,2.58321
2292,681.497,2.47387
2304,683.494,2.38219
2316,685.489,2.30808
2328,687.487,2.25232
2340,689.478,2.21014
2352,691.471,2.17995
2364,693.463,2.15968
2376,695.46,2.14733
2388,697.455,2.14256
2400,699.449,2.14328
2412,701.445,2.14456
2424,703.44,2.14834
2436,705.439,2.15598
2448,707.434,2.16857
2460,709.432,2.18966
2472,711.426,2.21541
2484,713.418,2.24746
2496,715.411,2.27097
2508,717.404,2.30675
2520,719.395,2.34618
2532,721.385,2.38979
2544,723.377,2.43446
2556,725.369,2.47999
2568,727.365,2.52627
2580,729.367,2.57424
2592,731.365,2.62334
2604,733.363,2.67319
2616,735.362,2.72401
2628,737.364,2.77685
2640,739.361,2.82986
2652,741.358,2.88381
2664,743.357,2.93842
2676,745.358,2.99354
2688,747.361,3.05005
2700,749.362,3.10744
2712,751.371,3.16486
2724,753.381,3.22285
2736,755.389,3.28127
2748,757.402,3.34061
2760,759.409,3.40026
2772,761.414,3.46117
2784,763.419,3.52145
2796,765.422,3.58176
2808,767.418,3.64194
2820,769.42,3.70332
2832,771.414,3.76371
2844,773.411,3.82469
2856,775.406,3.88526
2868,777.405,3.94613
2880,779.404,4.00661
2892,781.402,4.06589
2904,783.407,4.12555
2916,785.415,4.18466
2928,787.421,4.24362
2940,789.424,4.30283
2952,791.431,4.3621
2964,793.435,4.42147
2976,795.439,4.48085
2988,797.441,4.53946
3000,799.446,4.59612
3012,801.451,4.65593
3024,803.452,4.71382
3036,805.456,4.77155
3048,807.458,4.82467
3060,809.463,4.88048
3072,811.469,4.93625
3084,813.477,4.99116
3096,815.483,5.04652
3108,817.49,5.10143
3120,819.496,5.15542
3132,821.5,5.20835
3135,821.998,5.2211