File: PMMA/Calibration_Data/TIFP/TIFP_Gasification_65kW_2.csv
Time,Mass
[s],[g]
0,74.4
2,74.34111
4,74.2607
6,74.3441
8,74.36808
10,74.2382
12,73.8843
14,74.1869
16,73.4105
18,73.5743
20,74.6652
22,73.9116
24,74.25542
26,73.7291
28,73.6511
30,73.0531
32,72.6657
34,73.0007
36,72.7337
38,72.7946
40,71.1338
42,71.50218
44,71.911
46,70.3386
48,70.1864
50,70.33017
52,70.0529
54,69.5231
56,69.0985
58,68.8444
60,68.5677
62,68.1941
64,67.6993
66,67.73632
68,67.4068
70,67.1089
72,66.3421
74,65.3203
76,64.77579
78,64.9238
80,64.4475
82,63.9904
84,64.2294
86,63.7411
88,62.6428
90,62.6227
92,62.2131
94,61.6094
96,61.564
98,61.0303
100,60.8057
102,60.3625
104,59.6906
106,59.3682
108,58.8888
110,58.5474
112,57.6078
114,57.9975
116,57.6289
118,56.6551
120,56.6348
122,56.4125
124,55.8748
126,55.1556
128,54.4293
130,54.50755
132,53.4921
134,53.15144
136,53.5455
138,53.1002
140,51.5471
142,52.1072
144,51.3572
146,50.4414
148,50.6542
150,50.1468
152,49.54859
154,49.1023
156,48.5179
158,47.92546
160,47.4571
162,47.4425
164,46.6589
166,46.45
168,45.6544
170,45.9392
172,45.0675
174,44.7396
176,44.5831
178,43.8177
180,43.2998
182,42.85532
184,42.5691
186,41.67889
188,40.7769
190,40.6272
192,40.366
194,39.8317
196,39.4235
198,38.564
200,38.243
202,37.6397
204,37.2972
206,36.6989
208,35.95349
210,35.3633
212,35.4075
214,34.9197
216,34.0366
218,33.4784
220,33.0322
222,32.1103
224,32.0409
226,30.7158
228,30.252
230,30.198
232,29.23553
234,28.8509
236,28.5146
238,27.6583
240,27.0328
242,26.6608
244,25.9202
246,25.1283
248,24.79232
250,24.7649
252,23.68747
254,23.0622
256,22.2429
258,21.9773
260,21.6125
262,20.7076
264,19.9983
266,18.9457
268,18.5228
270,18.245
272,17.2073
274,16.9118
276,16.4293
278,15.9554
280,15.4232
282,15.3245
284,14.5693
286,14.1963
288,13.8961
290,14.3536
292,13.3259
294,12.8263
296,12.8549
298,12.7804
300,12.816
302,12.0848
304,11.9951
306,11.75173
308,11.4971
310,11.3163
312,11.0899
314,10.8813
316,10.6913
318,10.4564
320,10.2626
322,10.08877
324,9.910589
326,9.728073
328,9.567248
330,9.347206
332,9.216098
334,9.045246
336,8.875936
338,8.739117
340,8.583373
342,8.434958
344,8.279866
346,8.13506
348,8.002923
350,7.874879
352,7.74685
354,7.602897
356,7.493482
358,7.374556
360,7.244007
362,7.135383
364,7.044236
366,6.920494
368,6.811647
370,6.709363
372,6.624235
374,6.534892
376,6.405853
378,6.332984
380,6.224405
382,6.120505
384,6.035619
386,5.935449
388,5.825743
390,5.745254
392,5.648685
394,5.535481
396,5.485871
398,5.364619
400,5.266727
402,5.192973
404,5.068718
406,4.982222
408,4.894909
410,4.786907
412,4.692365
414,4.616481
416,4.504353
418,4.432461
420,4.337146
422,4.235242
424,4.134337
426,4.037959
428,3.925124
430,3.849322
432,3.767274
434,3.658627
436,3.56897
438,3.458982
440,3.366889
442,3.295505
444,3.165036
446,3.076286
448,3.006907
450,2.896405
452,2.824692
454,2.722483
456,2.62688
458,2.538429
460,2.448925
462,2.378587
464,2.303762
466,2.204842
468,2.133316
470,2.045442
472,1.969314
474,1.900702
476,1.800952
478,1.719188
480,1.656512
482,1.570625
484,1.518451
486,1.437029
488,1.362387
490,1.305241
492,1.245575
494,1.178173
496,1.145009
498,1.080848
500,1.013347
502,0.997569
504,0.935189
506,0.915302
508,0.867471
510,0.83192
512,0.809362
514,0.78167
516,0.687224
518,0.725303
520,0.682433
522,0.658429
524,0.64529
526,0.613378
528,0.580166
530,0.566876
532,0.527559
534,0.537641
536,0.510992
538,0.48663
540,0.486283
542,0.43824
544,0.43215
546,0.42811
548,0.41657
550,0.385708
552,0.384051
554,0.366496
556,0.351681
558,0.363138
560,0.32
562,0.336003
564,0.300189
566,0.28569
568,0.304887
570,0.274473
572,0.261343
574,0.240553
576,0.226063
578,0.237657
580,0.229606
582,0.196467
583,0.209312