File: PMMA/Calibration_Data/TIFP/TIFP_DSC_N2_10K_4.csv
Time,Temperature,Heat Flow
[s],[K],[mW/mg]
0,300.339,0.00238
12,300.323,0.00247
24,300.365,0.00495
36,300.562,0.0124
48,301.006,0.0245
60,301.77,0.0378
72,302.903,0.0459
84,304.434,0.0493
96,306.356,0.0564
108,308.631,0.0688
120,311.195,0.0858
132,313.966,0.10521
144,316.884,0.12483
156,319.859,0.14218
168,322.838,0.15742
180,325.774,0.16915
192,328.624,0.17803
204,331.371,0.18431
216,334.001,0.18989
228,336.514,0.19454
240,338.921,0.19933
252,341.232,0.20409
264,343.462,0.21007
276,345.62,0.21686
288,347.728,0.22475
300,349.794,0.23291
312,351.832,0.24236
324,353.85,0.25102
336,355.856,0.25899
348,357.851,0.26507
360,359.846,0.26896
372,361.834,0.27233
384,363.827,0.27563
396,365.812,0.28039
408,367.795,0.28582
420,369.778,0.29142
432,371.756,0.29771
444,373.737,0.30432
456,375.712,0.31137
468,377.693,0.31859
480,379.67,0.32639
492,381.65,0.33453
504,383.635,0.34245
516,385.626,0.35334
528,387.615,0.36297
540,389.612,0.37082
552,391.613,0.37822
564,393.618,0.38667
576,395.631,0.39466
588,397.639,0.40158
600,399.656,0.40743
612,401.674,0.41153
624,403.692,0.41582
636,405.715,0.4196
648,407.738,0.42322
660,409.764,0.42406
672,411.784,0.42789
684,413.809,0.43286
696,415.829,0.43817
708,417.848,0.44376
720,419.87,0.44835
732,421.883,0.4516
744,423.893,0.45464
756,425.906,0.45821
768,427.912,0.46893
780,429.916,0.47459
792,431.923,0.48002
804,433.92,0.4852
816,435.92,0.49088
828,437.914,0.49594
840,439.91,0.50087
852,441.904,0.50676
864,443.892,0.51292
876,445.886,0.51959
888,447.876,0.53363
900,449.866,0.54192
912,451.86,0.54953
924,453.85,0.5564
936,455.842,0.56126
948,457.831,0.56519
960,459.824,0.56719
972,461.811,0.56754
984,463.805,0.56731
996,465.797,0.56739
1008,467.789,0.56715
1020,469.786,0.568
1032,471.779,0.56997
1044,473.776,0.57416
1056,475.775,0.58021
1068,477.769,0.58748
1080,479.766,0.59432
1092,481.76,0.59932
1104,483.753,0.60383
1116,485.748,0.60627
1128,487.737,0.60616
1140,489.731,0.6081
1152,491.727,0.60934
1164,493.722,0.61038
1176,495.714,0.61217
1188,497.713,0.61642
1200,499.704,0.62323
1212,501.703,0.63133
1224,503.697,0.64034
1236,505.696,0.64905
1248,507.694,0.65968
1260,509.693,0.67066
1272,511.692,0.68243
1284,513.695,0.69519
1296,515.69,0.70882
1308,517.69,0.72505
1320,519.69,0.74454
1332,521.696,0.76452
1344,523.695,0.78389
1356,525.694,0.80296
1368,527.696,0.82103
1380,529.694,0.84182
1392,531.696,0.8636
1404,533.692,0.88509
1416,535.693,0.90678
1428,537.689,0.92907
1440,539.687,0.95305
1452,541.684,0.9788
1464,543.677,1.00381
1476,545.673,1.02981
1488,547.664,1.05513
1500,549.672,1.08892
1512,551.673,1.12611
1524,553.674,1.16148
1536,555.675,1.19491
1548,557.669,1.22575
1560,559.664,1.25429
1572,561.662,1.28345
1584,563.657,1.31284
1596,565.651,1.34618
1608,567.649,1.39349
1620,569.642,1.44408
1632,571.639,1.49298
1644,573.634,1.54056
1656,575.632,1.58846
1668,577.626,1.63588
1680,579.619,1.68227
1692,581.617,1.72878
1704,583.616,1.77849
1716,585.617,1.82884
1728,587.609,1.88399
1740,589.605,1.94336
1752,591.602,2.0085
1764,593.595,2.07879
1776,595.588,2.15463
1788,597.587,2.23693
1800,599.587,2.32576
1812,601.589,2.42066
1824,603.587,2.52388
1836,605.584,2.63535
1848,607.585,2.75812
1860,609.588,2.88871
1872,611.59,3.03291
1884,613.588,3.18743
1896,615.584,3.35446
1908,617.583,3.53629
1920,619.583,3.73425
1932,621.581,3.94705
1944,623.592,4.18132
1956,625.594,4.42937
1968,627.594,4.68643
1980,629.592,4.9444
1992,631.583,5.19606
2004,633.572,5.41673
2016,635.557,5.55957
2028,637.533,5.58775
2040,639.51,5.51621
2052,641.487,5.34969
2064,643.468,4.99843
2076,645.495,5.62033
2088,647.494,5.79034
2100,649.489,5.88117
2112,651.481,5.87117
2124,653.476,5.85311
2136,655.473,5.76708
2148,657.472,5.60315
2160,659.473,5.49337
2172,661.468,5.30672
2184,663.46,5.02576
2196,665.458,4.74645
2208,667.461,4.41388
2220,669.461,4.18172
2232,671.479,3.95174
2244,673.496,3.74936
2256,675.505,3.56539
2268,677.515,3.40623
2280,679.52,3.26559
2292,681.519,3.14604
2304,683.517,3.04821
2316,685.507,2.97041
2328,687.5,2.90983
2340,689.494,2.86536
2352,691.485,2.83258
2364,693.479,2.80772
2376,695.473,2.79149
2388,697.468,2.78314
2400,699.457,2.77674
2412,701.451,2.77428
2424,703.446,2.77208
2436,705.437,2.76969
2448,707.43,2.77251
2460,709.422,2.78037
2472,711.42,2.79749
2484,713.413,2.80709
2496,715.405,2.83031
2508,717.397,2.8645
2520,719.389,2.90192
2532,721.38,2.93986
2544,723.375,2.97762
2556,725.372,3.0188
2568,727.371,3.06017
2580,729.369,3.1031
2592,731.364,3.14533
2604,733.365,3.18788
2616,735.371,3.23114
2628,737.39,3.27419
2640,739.403,3.31944
2652,741.415,3.36594
2664,743.422,3.41257
2676,745.424,3.45945
2688,747.424,3.50686
2700,749.421,3.554
2712,751.415,3.60208
2724,753.411,3.64874
2736,755.408,3.69492
2748,757.405,3.74308
2760,759.399,3.7927
2772,761.39,3.84192
2784,763.38,3.89113
2796,765.367,3.93907
2808,767.365,3.98741
2820,769.363,4.0356
2832,771.365,4.08654
2844,773.368,4.13542
2856,775.372,4.18452
2868,777.381,4.23498
2880,779.387,4.28492
2892,781.395,4.32035
2904,783.421,4.37212
2916,785.442,4.42426
2928,787.457,4.47576
2940,789.467,4.52816
2952,791.477,4.57929
2964,793.482,4.62806
2976,795.485,4.67676
2988,797.486,4.72481
3000,799.485,4.77501
3012,801.479,4.824
3024,803.468,4.87306
3036,805.46,4.92095
3048,807.456,4.96644
3060,809.447,5.01153
3072,811.439,5.05658
3084,813.431,5.10172
3096,815.426,5.1449
3108,817.428,5.18495
3120,819.438,5.22644
3132,821.443,5.2637
3135,821.949,5.27292