File: PMMA/Calibration_Data/TIFP/TIFP_TGA_N2_10K_5.csv
Time,Temperature,Mass
[s],[K],[mg]
0,300.513,5.7616
12,300.492,5.7636
24,300.528,5.7651
36,300.705,5.7632
48,301.122,5.765
60,301.852,5.7656
72,302.945,5.7667
84,304.427,5.7687
96,306.305,5.7689
108,308.534,5.772
120,311.062,5.774
132,313.818,5.7741
144,316.714,5.7758
156,319.692,5.7763
168,322.682,5.7788
180,325.632,5.7827
192,328.503,5.7827
204,331.271,5.784
216,333.929,5.7881
228,336.469,5.7894
240,338.895,5.791
252,341.22,5.7923
264,343.457,5.7923
276,345.628,5.7936
288,347.737,5.797
300,349.805,5.7983
312,351.84,5.8004
324,353.856,5.8027
336,355.861,5.803
348,357.855,5.8057
360,359.849,5.8057
372,361.834,5.8064
384,363.822,5.8097
396,365.81,5.8124
408,367.795,5.8097
420,369.778,5.8111
432,371.762,5.8138
444,373.745,5.8147
456,375.724,5.816
468,377.704,5.8175
480,379.685,5.8178
492,381.665,5.8201
504,383.644,5.8188
516,385.627,5.8358
528,387.615,5.8329
540,389.605,5.8302
552,391.605,5.8269
564,393.609,5.8271
576,395.618,5.8281
588,397.636,5.8271
600,399.66,5.8283
612,401.68,5.8293
624,403.71,5.8293
636,405.741,5.8293
648,407.768,5.8308
660,409.799,5.8419
672,411.825,5.8291
684,413.852,5.8277
696,415.878,5.8291
708,417.898,5.8275
720,419.919,5.8275
732,421.936,5.8261
744,423.949,5.8247
756,425.962,5.8261
768,427.966,5.8247
780,429.969,5.8247
792,431.974,5.8229
804,433.977,5.8216
816,435.975,5.8189
828,437.978,5.8149
840,439.979,5.8149
852,441.977,5.8095
864,443.975,5.8068
876,445.973,5.8044
888,447.97,5.7999
900,449.966,5.7931
912,451.963,5.787
924,453.951,5.7834
936,455.948,5.7799
948,457.943,5.7668
960,459.935,5.7586
972,461.928,5.754
984,463.921,5.7469
996,465.918,5.7383
1008,467.912,5.7336
1020,469.911,5.7294
1032,471.908,5.7212
1044,473.903,5.7158
1056,475.901,5.7132
1068,477.899,5.7046
1080,479.896,5.6975
1092,481.896,5.6934
1104,483.894,5.6907
1116,485.891,5.6846
1128,487.89,5.6783
1140,489.885,5.6752
1152,491.883,5.6772
1164,493.879,5.6772
1176,495.878,5.6761
1188,497.876,5.6721
1200,499.877,5.671
1212,501.877,5.6697
1224,503.88,5.67
1236,505.883,5.6687
1248,507.884,5.6713
1260,509.883,5.6696
1272,511.891,5.6659
1284,513.888,5.6673
1296,515.886,5.6673
1308,517.883,5.6677
1320,519.883,5.6666
1332,521.879,5.6653
1344,523.881,5.6622
1356,525.882,5.6592
1368,527.878,5.6626
1380,529.877,5.659
1392,531.879,5.655
1404,533.881,5.6547
1416,535.886,5.6523
1428,537.885,5.651
1440,539.885,5.647
1452,541.888,5.6405
1464,543.892,5.6376
1476,545.885,5.6362
1488,547.883,5.6309
1500,549.877,5.6248
1512,551.875,5.6201
1524,553.872,5.6137
1536,555.871,5.6057
1548,557.871,5.597
1560,559.87,5.5894
1572,561.87,5.5794
1584,563.868,5.5699
1596,565.872,5.5555
1608,567.872,5.5453
1620,569.873,5.5318
1632,571.875,5.5197
1644,573.876,5.5059
1656,575.877,5.4931
1668,577.88,5.477
1680,579.876,5.4631
1692,581.878,5.4455
1704,583.873,5.4317
1716,585.871,5.4144
1728,587.867,5.3967
1740,589.863,5.3801
1752,591.861,5.3578
1764,593.859,5.3336
1776,595.862,5.309
1788,597.86,5.2849
1800,599.859,5.252
1812,601.855,5.2189
1824,603.853,5.1829
1836,605.847,5.1422
1848,607.845,5.0913
1860,609.84,5.0411
1872,611.835,4.9805
1884,613.833,4.9147
1896,615.831,4.8432
1908,617.83,4.7617
1920,619.832,4.6677
1932,621.834,4.5684
1944,623.835,4.4554
1956,625.83,4.332
1968,627.825,4.2003
1980,629.822,4.0558
1992,631.815,3.9011
2004,633.804,3.7381
2016,635.792,3.5679
2028,637.78,3.3949
2040,639.769,3.2207
2052,641.765,3.0488
2064,643.772,2.8717
2076,645.787,2.6911
2088,647.795,2.5054
2100,649.794,2.321
2112,651.788,2.1384
2124,653.799,1.9565
2136,655.805,1.7777
2148,657.807,1.6124
2160,659.824,1.4542
2172,661.848,1.3065
2184,663.883,1.1759
2196,665.923,1.0571
2208,667.979,0.9539
2220,670.047,0.8606
2232,672.122,0.7814
2244,674.203,0.7112
2256,676.274,0.6509
2268,678.348,0.6001
2280,680.414,0.5564
2292,682.473,0.523
2304,684.521,0.4936
2316,686.557,0.4701
2328,688.587,0.4515
2340,690.609,0.4344
2352,692.625,0.4227
2364,694.641,0.4116
2376,696.651,0.4029
2388,698.663,0.3966
2400,700.67,0.3896
2412,702.677,0.3856
2424,704.683,0.3828
2436,706.686,0.3788
2448,708.69,0.3788
2460,710.694,0.3779
2472,712.702,0.3795
2484,714.703,0.3775
2496,716.701,0.3802
2508,718.695,0.3789
2520,720.686,0.3795
2532,722.672,0.3802
2544,724.657,0.3816
2556,726.634,0.3856
2568,728.609,0.3856
2580,730.574,0.3856
2592,732.541,0.3842
2604,734.502,0.3856
2616,736.459,0.3856
2628,738.418,0.3846
2640,740.375,0.3856
2652,742.332,0.3869
2664,744.293,0.3883
2676,746.252,0.3869
2688,748.216,0.3886
2700,750.188,0.3909
2712,752.158,0.3896
2724,754.136,0.3909
2736,756.117,0.3923
2748,758.102,0.3923
2760,760.089,0.3909
2772,762.072,0.395
2784,764.057,0.3963
2796,766.041,0.3976
2808,768.028,0.397
2820,770.015,0.398
2832,772.007,0.3993
2844,773.999,0.4007
2856,775.99,0.4027
2868,777.983,0.404
2880,779.977,0.4054
2892,781.971,0.4044
2904,783.967,0.4057
2916,785.965,0.405
2928,787.964,0.4057
2940,789.964,0.4067
2952,791.963,0.4053
2964,793.962,0.4079
2976,795.959,0.4106
2988,797.96,0.411
3000,799.957,0.4123
3012,801.956,0.412
3024,803.956,0.411
3036,805.957,0.416
3048,807.95,0.415
3060,809.948,0.4163
3072,811.947,0.4163
3084,813.942,0.4163
3096,815.939,0.419
3108,817.935,0.419
3120,819.931,0.4203
3132,821.927,0.4197
3135,822.424,0.4203