File: PMMA/Calibration_Data/TIFP/TIFP_DSC_N2_10K_2.csv
Time,Temperature,Heat Flow
[s],[K],[mW/mg]
0,300.631,6.16E-03
22.8,300.59,4.33E-03
45.6,300.535,2.80E-03
68.4,300.46,2.33E-03
91.2,300.376,1.77E-03
114,300.29,2.11E-03
136.8,300.198,2.62E-03
159.6,300.11,2.91E-03
182.4,300.045,3.80E-03
205.2,300.002,5.73E-03
228,299.981,7.64E-03
250.8,299.992,8.69E-03
273.6,300.007,9.80E-03
296.4,300.032,1.01E-02
309,300.044,1.00E-02
320.4,300.1,1.07E-02
331.8,300.27,1.33E-02
343.2,300.636,1.88E-02
354.6,301.261,2.90E-02
366,302.201,4.34E-02
377.4,303.5,6.23E-02
388.8,305.148,8.48E-02
400.2,307.13,0.10856
411.6,309.409,0.13149
423,311.924,0.15167
434.4,314.604,0.16739
445.8,317.391,0.17801
457.2,320.225,0.18343
468.6,323.06,0.18442
480,325.843,0.18224
491.4,328.55,0.17739
502.8,331.168,0.17151
514.2,333.679,0.16447
525.6,336.085,0.15796
537,338.391,0.15171
548.4,340.612,0.14694
559.8,342.751,0.14292
571.2,344.823,0.14053
582.6,346.842,0.13896
594,348.813,0.13853
605.4,350.756,0.13924
616.8,352.681,0.14058
628.2,354.59,0.1411
639.6,356.489,0.14036
651,358.379,0.13879
662.4,360.272,0.13657
673.8,362.159,0.13463
685.2,364.046,0.13291
696.6,365.93,0.13177
708,367.812,0.13124
719.4,369.695,0.13105
730.8,371.58,0.13151
742.2,373.46,0.13177
753.6,375.339,0.13257
765,377.221,0.13367
776.4,379.1,0.13468
787.8,380.983,0.13623
799.2,382.865,0.13751
810.6,384.751,0.14052
822,386.643,0.14359
833.4,388.533,0.1458
844.8,390.432,0.1455
856.2,392.335,0.14573
867.6,394.24,0.14644
879,396.146,0.14603
890.4,398.057,0.1439
901.8,399.963,0.14064
913.2,401.881,0.13587
924.6,403.799,0.13238
936,405.716,0.12965
947.4,407.637,0.12879
958.8,409.552,0.12596
970.2,411.467,0.12718
981.6,413.378,0.1296
993,415.292,0.13203
1004.4,417.207,0.13576
1015.8,419.113,0.13796
1027.2,421.02,0.13892
1038.6,422.929,0.13959
1050,424.835,0.14067
1061.4,426.74,0.14651
1072.8,428.648,0.15016
1084.2,430.548,0.15285
1095.6,432.452,0.15549
1107,434.351,0.15813
1118.4,436.255,0.16073
1129.8,438.154,0.16212
1141.2,440.051,0.16413
1152.6,441.949,0.16671
1164,443.848,0.16939
1175.4,445.743,0.17227
1186.8,447.637,0.18218
1198.2,449.532,0.18795
1209.6,451.43,0.19384
1221,453.32,0.20156
1232.4,455.218,0.20663
1243.8,457.112,0.21165
1255.2,459.003,0.21765
1266.6,460.9,0.22365
1278,462.793,0.22969
1289.4,464.687,0.23604
1300.8,466.584,0.24175
1312.2,468.477,0.24917
1323.6,470.374,0.25663
1335,472.274,0.26464
1346.4,474.175,0.27431
1357.8,476.076,0.28367
1369.2,477.981,0.2933
1380.6,479.883,0.30233
1392,481.784,0.31141
1403.4,483.69,0.32192
1414.8,485.597,0.33212
1426.2,487.501,0.34099
1437.6,489.399,0.35176
1449,491.295,0.36149
1460.4,493.193,0.36964
1471.8,495.086,0.37749
1483.2,496.979,0.38586
1494.6,498.876,0.39529
1506,500.765,0.40514
1517.4,502.662,0.41603
1528.8,504.552,0.42444
1540.2,506.446,0.43212
1551.6,508.342,0.44168
1563,510.233,0.45135
1574.4,512.13,0.46314
1585.8,514.031,0.47447
1597.2,515.929,0.48564
1608.6,517.827,0.49651
1620,519.728,0.50798
1631.4,521.628,0.52035
1642.8,523.531,0.53258
1654.2,525.433,0.54497
1665.6,527.333,0.55807
1677,529.23,0.57015
1688.4,531.13,0.58444
1699.8,533.028,0.59867
1711.2,534.923,0.61457
1722.6,536.818,0.63105
1734,538.72,0.64896
1745.4,540.615,0.66909
1756.8,542.515,0.6896
1768.2,544.412,0.71347
1779.6,546.308,0.73953
1791,548.206,0.76851
1802.4,550.105,0.80141
1813.8,552.005,0.83994
1825.2,553.907,0.88254
1836.6,555.809,0.93128
1848,557.712,0.9846
1859.4,559.617,1.04336
1870.8,561.52,1.10616
1882.2,563.423,1.17615
1893.6,565.326,1.25673
1905,567.229,1.35501
1916.4,569.13,1.46469
1927.8,571.033,1.58017
1939.2,572.933,1.69994
1950.6,574.835,1.8142
1962,576.735,1.93075
1973.4,578.635,2.04788
1984.8,580.532,2.1686
1996.2,582.431,2.28918
2007.6,584.332,2.40278
2019,586.234,2.50683
2030.4,588.135,2.60161
2041.8,590.042,2.68281
2053.2,591.945,2.75325
2064.6,593.857,2.80993
2076,595.776,2.85707
2087.4,597.707,2.88662
2098.8,599.651,2.92163
2110.2,601.601,2.94218
2121.6,603.555,2.95474
2133,605.518,2.95288
2144.4,607.477,2.94362
2155.8,609.43,2.93031
2167.2,611.38,2.96066
2178.6,613.319,2.94056
2190,615.242,2.94271
2201.4,617.155,2.95523
2212.8,619.06,3.00607
2224.2,620.954,3.04116
2235.6,622.842,3.03644
2247,624.735,3.08406
2258.4,626.625,3.12647
2269.8,628.506,3.04545
2281.2,630.397,3.15053
2292.6,632.285,3.1294
2304,634.169,3.11507
2315.4,636.055,3.11043
2326.8,637.938,3.05133
2338.2,639.814,2.92654
2349.6,641.709,2.96593
2361,643.592,2.97812
2372.4,645.468,2.90393
2383.8,647.32,2.82247
2395.2,649.175,2.71281
2406.6,651.003,2.5384
2418,652.789,2.31237
2429.4,654.572,2.174
2440.8,656.354,2.11067
2452.2,658.133,2.11354
2463.6,659.919,2.09846
2475,661.684,2.05672
2486.4,663.443,1.96987
2497.8,665.209,1.88916
2509.2,666.987,1.8097
2520.6,668.788,1.73851
2532,670.62,1.67552
2543.4,672.48,1.61961
2554.8,674.372,1.57019
2566.2,676.295,1.52531
2577.6,678.251,1.48651
2589,680.224,1.44917
2600.4,682.215,1.41253
2611.8,684.222,1.3805
2623.2,686.228,1.34851
2634.6,688.241,1.31592
2646,690.249,1.27967
2657.4,692.25,1.23231
2668.8,694.237,1.17562
2680.2,696.21,1.11535
2691.6,698.168,1.06007
2703,700.11,1.03034
2714.4,702.039,1.02521
2725.8,703.949,1.03104
2737.2,705.859,1.04007
2748.6,707.747,1.04877
2760,709.633,1.05719
2771.4,711.508,1.06455
2782.8,713.386,1.07134
2794.2,715.261,1.0764
2805.6,717.148,1.0808
2817,719.049,1.08573
2828.4,720.958,1.09115
2839.8,722.881,1.09396
2851.2,724.81,1.09678
2862.6,726.732,1.0982
2874,728.655,1.0991
2885.4,730.568,1.09824
2896.8,732.476,1.09285
2908.2,734.374,1.08576
2919.6,736.277,1.20891
2931,738.164,1.17573
2942.4,740.056,1.15057
2953.8,741.942,1.12498
2965.2,743.828,1.09512
2976.6,745.713,1.06109
2988,747.597,1.01955
2999.4,749.481,0.97233
3010.8,751.37,0.91933
3022.2,753.26,0.85946
3033.6,755.153,0.79603
3045,757.047,0.73374
3056.4,758.944,0.67534
3067.8,760.844,0.62429
3079.2,762.753,0.5808
3090.6,764.662,0.54626
3102,766.57,0.51968
3113.4,768.475,0.49878
3124.8,770.388,0.48368
3136.2,772.297,0.47161
3147.6,774.205,0.46245
3159,776.107,0.4561
3170.4,778.007,0.45117
3181.8,779.913,0.44754
3193.2,781.819,0.4458
3204.6,783.724,0.44505
3216,785.627,0.44436
3227.4,787.531,0.44374
3238.8,789.436,0.44398
3250.2,791.337,0.44428
3261.6,793.236,0.44489
3273,795.138,0.44491
3284.4,797.04,0.44526
3295.8,798.94,0.44644
3307.2,800.858,0.44784
3318.6,802.763,0.44921
3330,804.668,0.4514
3341.4,806.574,0.45214
3352.8,808.475,0.4536
3364.2,810.37,0.45421
3375.6,812.27,0.45558
3387,814.165,0.45681
3398.4,816.061,0.4585
3409.8,817.95,0.4594
3421.2,819.838,0.46001
3432.6,821.727,0.45904
3436.8,822.421,0.45858