File: PMMA/Calibration_Data/TIFP/TIFP_DSC_N2_10K_7.csv
Time,Temperature,Heat Flow
[s],[K],[mW/mg]
0,300.13,0.00143
12,300.136,0.00163
24,300.205,0.00297
36,300.428,0.00557
48,300.899,0.00999
60,301.687,0.0171
72,302.842,0.0259
84,304.396,0.0363
96,306.339,0.0476
108,308.628,0.0574
120,311.207,0.0658
132,313.997,0.0723
144,316.925,0.0762
156,319.912,0.0794
168,322.906,0.081
180,325.846,0.0822
192,328.706,0.0823
204,331.452,0.0829
216,334.082,0.0836
228,336.595,0.0846
240,338.999,0.0859
252,341.296,0.0877
264,343.516,0.0902
276,345.665,0.0931
288,347.757,0.0965
300,349.812,0.10048
312,351.837,0.1053
324,353.847,0.10942
336,355.841,0.11295
348,357.831,0.11442
360,359.823,0.11381
372,361.807,0.11258
384,363.796,0.11172
396,365.787,0.11185
408,367.772,0.11154
420,369.759,0.11251
432,371.737,0.11335
444,373.721,0.11468
456,375.704,0.11568
468,377.687,0.11777
480,379.673,0.11982
492,381.654,0.12187
504,383.642,0.12412
516,385.63,0.12651
528,387.625,0.12907
540,389.622,0.13156
552,391.62,0.13408
564,393.624,0.137
576,395.629,0.1416
588,397.64,0.14649
600,399.654,0.15188
612,401.669,0.15696
624,403.688,0.15887
636,405.707,0.15833
648,407.732,0.15814
660,409.752,0.15898
672,411.775,0.16002
684,413.797,0.16172
696,415.819,0.16376
708,417.843,0.16534
720,419.863,0.16767
732,421.877,0.16963
744,423.893,0.17228
756,425.904,0.17532
768,427.913,0.17869
780,429.918,0.18286
792,431.923,0.18737
804,433.921,0.19286
816,435.919,0.19866
828,437.914,0.20493
840,439.907,0.21218
852,441.902,0.22023
864,443.894,0.22936
876,445.886,0.23888
888,447.883,0.2491
900,449.876,0.25878
912,451.874,0.2681
924,453.867,0.27676
936,455.862,0.28411
948,457.854,0.29017
960,459.847,0.29411
972,461.839,0.29683
984,463.829,0.29862
996,465.818,0.29931
1008,467.813,0.30027
1020,469.803,0.30085
1032,471.794,0.30234
1044,473.784,0.3053
1056,475.778,0.31058
1068,477.775,0.31637
1080,479.769,0.32274
1092,481.765,0.32801
1104,483.758,0.33212
1116,485.75,0.33455
1128,487.745,0.3353
1140,489.739,0.33624
1152,491.736,0.3363
1164,493.731,0.33707
1176,495.731,0.34006
1188,497.732,0.34475
1200,499.729,0.34938
1212,501.728,0.35535
1224,503.723,0.36205
1236,505.717,0.3698
1248,507.713,0.37803
1260,509.705,0.38712
1272,511.7,0.39627
1284,513.693,0.4064
1296,515.691,0.41733
1308,517.687,0.42816
1320,519.687,0.43963
1332,521.684,0.45175
1344,523.682,0.46445
1356,525.682,0.47785
1368,527.68,0.49203
1380,529.683,0.50676
1392,531.68,0.52193
1404,533.681,0.53802
1416,535.679,0.55403
1428,537.677,0.57092
1440,539.673,0.59002
1452,541.676,0.60892
1464,543.679,0.62861
1476,545.68,0.64817
1488,547.677,0.66653
1500,549.675,0.68512
1512,551.668,0.7034
1524,553.66,0.72291
1536,555.66,0.74484
1548,557.653,0.76732
1560,559.649,0.79113
1572,561.648,0.81624
1584,563.639,0.83954
1596,565.635,0.86495
1608,567.63,0.88899
1620,569.629,0.9146
1632,571.622,0.93684
1644,573.62,0.96126
1656,575.614,0.98378
1668,577.609,1.00822
1680,579.609,1.03379
1692,581.606,1.06399
1704,583.601,1.09551
1716,585.599,1.12912
1728,587.598,1.16342
1740,589.599,1.20272
1752,591.598,1.2462
1764,593.597,1.29402
1776,595.595,1.34717
1788,597.595,1.40629
1800,599.592,1.47156
1812,601.591,1.54424
1824,603.589,1.62322
1836,605.587,1.71056
1848,607.587,1.80734
1860,609.587,1.91488
1872,611.584,2.0324
1884,613.581,2.16201
1896,615.576,2.30463
1908,617.573,2.46165
1920,619.571,2.63069
1932,621.566,2.81334
1944,623.567,3.00948
1956,625.562,3.21885
1968,627.56,3.43956
1980,629.556,3.67229
1992,631.55,3.897
2004,633.547,4.10021
2016,635.536,4.24172
2028,637.52,4.26837
2040,639.506,4.22668
2052,641.493,4.10835
2064,643.482,3.99826
2076,645.485,4.06144
2088,647.5,4.45467
2100,649.497,4.43443
2112,651.497,4.40694
2124,653.489,4.27537
2136,655.494,4.29125
2148,657.492,4.25623
2160,659.493,4.12286
2172,661.493,4.10238
2184,663.49,3.95043
2196,665.487,3.6617
2208,667.479,3.33608
2220,669.479,3.05806
2232,671.483,2.88445
2244,673.482,2.65908
2256,675.487,2.45808
2268,677.487,2.28409
2280,679.489,2.12439
2292,681.487,1.9954
2304,683.481,1.88633
2316,685.478,1.7973
2328,687.472,1.72697
2340,689.47,1.67275
2352,691.466,1.63452
2364,693.459,1.60772
2376,695.449,1.58864
2388,697.445,1.57836
2400,699.443,1.57359
2412,701.441,1.56943
2424,703.436,1.56621
2436,705.431,1.56767
2448,707.427,1.57393
2460,709.419,1.58702
2472,711.42,1.60996
2484,713.415,1.62661
2496,715.405,1.64906
2508,717.393,1.68076
2520,719.382,1.71594
2532,721.377,1.75139
2544,723.369,1.789
2556,725.363,1.82747
2568,727.363,1.86657
2580,729.366,1.90649
2592,731.368,1.94826
2604,733.374,1.99023
2616,735.381,2.03253
2628,737.387,2.0765
2640,739.391,2.12
2652,741.398,2.16477
2664,743.401,2.20997
2676,745.403,2.25528
2688,747.404,2.30101
2700,749.406,2.34675
2712,751.403,2.39366
2724,753.401,2.44102
2736,755.396,2.48705
2748,757.397,2.53416
2760,759.394,2.58064
2772,761.394,2.62461
2784,763.398,2.67161
2796,765.402,2.7195
2808,767.404,2.76706
2820,769.407,2.81437
2832,771.408,2.86283
2844,773.412,2.91144
2856,775.416,2.95953
2868,777.42,3.00758
2880,779.422,3.05729
2892,781.423,3.1059
2904,783.425,3.15429
2916,785.425,3.20168
2928,787.428,3.24895
2940,789.433,3.2962
2952,791.434,3.34336
2964,793.441,3.39101
2976,795.441,3.43906
2988,797.447,3.48586
3000,799.448,3.53212
3012,801.447,3.57814
3024,803.445,3.62454
3036,805.445,3.67021
3048,807.442,3.71547
3060,809.446,3.75918
3072,811.449,3.80244
3084,813.456,3.84585
3096,815.461,3.89084
3108,817.469,3.93356
3120,819.476,3.97709
3132,821.477,4.01945
3135,821.98,4.03022