File: PMMA/Calibration_Data/TIFP/TIFP_DSC_N2_10K_6.csv
Time,Temperature,Heat Flow
[s],[K],[mW/mg]
0,302.613,0.0106
12,302.6,0.0105
24,302.592,0.00847
36,302.581,0.000677
48,302.569,-0.0167
60,302.56,-0.0465
72,302.585,-0.094
84,302.752,-0.15657
96,303.17,-0.2181
108,303.956,-0.26654
120,305.194,-0.28784
132,306.936,-0.26946
144,309.2,-0.20214
156,311.941,-0.0952
168,315.083,0.0298
180,318.521,0.1551
192,322.149,0.26662
204,325.855,0.35849
216,329.548,0.42739
228,333.145,0.4734
240,336.584,0.49879
252,339.832,0.50651
264,342.88,0.50096
276,345.711,0.4864
288,348.342,0.46594
300,350.795,0.44325
312,353.08,0.42094
324,355.242,0.40026
336,357.302,0.38143
348,359.285,0.36542
360,361.215,0.35373
372,363.11,0.34803
384,364.99,0.34896
396,366.858,0.35613
408,368.73,0.36835
420,370.612,0.38424
432,372.502,0.40302
444,374.407,0.4241
456,376.326,0.44637
468,378.257,0.46907
480,380.198,0.49207
492,382.149,0.51543
504,384.107,0.53795
516,386.072,0.56327
528,388.042,0.5869
540,390.019,0.60894
552,392.003,0.63066
564,393.99,0.65339
576,395.987,0.67611
588,397.984,0.69832
600,399.987,0.71899
612,401.996,0.73828
624,404.013,0.75825
636,406.03,0.77847
648,408.051,0.79889
660,410.079,0.816
672,412.105,0.8366
684,414.134,0.85794
696,416.159,0.87961
708,418.184,0.90166
720,420.206,0.92308
732,422.225,0.94337
744,424.244,0.9638
756,426.261,0.98475
768,428.275,1.01229
780,430.292,1.03484
792,432.3,1.05736
804,434.309,1.07949
816,436.313,1.10236
828,438.316,1.12426
840,440.315,1.1464
852,442.316,1.16844
864,444.313,1.19129
876,446.308,1.21371
888,448.301,1.24223
900,450.291,1.26519
912,452.281,1.28685
924,454.27,1.30701
936,456.261,1.3252
948,458.249,1.34159
960,460.235,1.356
972,462.22,1.36869
984,464.203,1.38019
996,466.191,1.39202
1008,468.182,1.40344
1020,470.173,1.41547
1032,472.162,1.42867
1044,474.153,1.44378
1056,476.147,1.45998
1068,478.138,1.47688
1080,480.129,1.49281
1092,482.122,1.50674
1104,484.117,1.51935
1116,486.112,1.52945
1128,488.104,1.53759
1140,490.096,1.54701
1152,492.088,1.55535
1164,494.082,1.56378
1176,496.074,1.57231
1188,498.069,1.58199
1200,500.063,1.59355
1212,502.06,1.60494
1224,504.058,1.61665
1236,506.052,1.62851
1248,508.048,1.64097
1260,510.044,1.65364
1272,512.038,1.6667
1284,514.031,1.67978
1296,516.021,1.69345
1308,518.02,1.70685
1320,520.011,1.72112
1332,522.005,1.73512
1344,524.003,1.74897
1356,525.998,1.76328
1368,527.994,1.77616
1380,529.992,1.79063
1392,531.989,1.80643
1404,533.989,1.82316
1416,535.99,1.84039
1428,537.99,1.85687
1440,539.991,1.87316
1452,541.991,1.88838
1464,543.99,1.90186
1476,545.991,1.91566
1488,547.988,1.92852
1500,549.987,1.94118
1512,551.983,1.95387
1524,553.978,1.96571
1536,555.973,1.97777
1548,557.965,1.98829
1560,559.959,1.99776
1572,561.951,2.00715
1584,563.942,2.01633
1596,565.934,2.02877
1608,567.928,2.05375
1620,569.92,2.0807
1632,571.916,2.10595
1644,573.915,2.12874
1656,575.912,2.15171
1668,577.906,2.17287
1680,579.907,2.19348
1692,581.906,2.21261
1704,583.908,2.23419
1716,585.906,2.25706
1728,587.909,2.28258
1740,589.91,2.31165
1752,591.906,2.34602
1764,593.906,2.38384
1776,595.901,2.42652
1788,597.898,2.47408
1800,599.896,2.52661
1812,601.892,2.58366
1824,603.89,2.64749
1836,605.885,2.7178
1848,607.88,2.79622
1860,609.876,2.88097
1872,611.871,2.97512
1884,613.866,3.07844
1896,615.86,3.19033
1908,617.858,3.31189
1920,619.856,3.44382
1932,621.855,3.585
1944,623.854,3.73386
1956,625.85,3.88893
1968,627.849,4.04499
1980,629.848,4.19688
1992,631.844,4.32684
2004,633.839,4.41226
2016,635.832,4.43785
2028,637.822,4.41985
2040,639.818,4.40964
2052,641.818,4.43453
2064,643.815,4.43721
2076,645.82,4.48871
2088,647.823,4.44965
2100,649.823,4.32905
2112,651.832,4.31904
2124,653.837,4.28545
2136,655.844,4.19433
2148,657.846,4.02583
2160,659.856,3.96542
2172,661.862,3.87904
2184,663.864,3.70366
2196,665.865,3.45679
2208,667.866,3.25607
2220,669.873,3.08158
2232,671.878,2.91354
2244,673.881,2.76442
2256,675.886,2.63299
2268,677.886,2.52276
2280,679.883,2.42444
2292,681.878,2.34246
2304,683.873,2.27389
2316,685.866,2.21487
2328,687.858,2.16483
2340,689.851,2.12387
2352,691.845,2.09007
2364,693.836,2.06182
2376,695.828,2.03982
2388,697.82,2.02276
2400,699.813,2.00525
2412,701.805,1.98651
2424,703.799,1.96582
2436,705.792,1.94672
2448,707.788,1.9331
2460,709.785,1.9252
2472,711.787,1.92249
2484,713.785,1.90713
2496,715.783,1.89957
2508,717.778,1.89542
2520,719.778,1.89392
2532,721.776,1.89193
2544,723.776,1.88946
2556,725.777,1.88902
2568,727.779,1.8887
2580,729.781,1.88872
2592,731.785,1.88872
2604,733.782,1.88927
2616,735.78,1.88915
2628,737.779,1.8883
2640,739.778,1.88857
2652,741.778,1.88869
2664,743.778,1.89001
2676,745.779,1.89119
2688,747.781,1.89209
2700,749.779,1.89383
2712,751.777,1.89642
2724,753.774,1.89877
2736,755.772,1.89928
2748,757.77,1.90197
2760,759.768,1.90589
2772,761.768,1.90934
2784,763.767,1.91293
2796,765.77,1.91614
2808,767.773,1.92062
2820,769.777,1.92639
2832,771.78,1.93324
2844,773.785,1.93953
2856,775.786,1.94632
2868,777.786,1.95397
2880,779.785,1.96026
2892,781.786,1.96777
2904,783.789,1.97544
2916,785.793,1.98351
2928,787.794,1.99035
2940,789.796,1.99866
2952,791.8,2.00569
2964,793.799,2.01249
2976,795.8,2.0192
2988,797.803,2.02534
3000,799.807,2.03381
3012,801.814,2.04056
3024,803.816,2.04884
3036,805.82,2.05701
3048,807.822,2.06459
3060,809.828,2.07113
3072,811.83,2.07869
3084,813.831,2.08555
3096,815.832,2.09191
3108,817.832,2.09774
3120,819.834,2.10505
3132,821.837,2.10914
3135,822.335,2.10981