File: PMMA/Calibration_Data/TIFP/TIFP_DSC_N2_10K_9.csv
Time,Temperature,Heat Flow
[s],[K],[mW/mg]
0,300.147,0.0045
12,300.153,0.00428
24,300.22,0.00517
36,300.443,0.00704
48,300.91,0.00988
60,301.697,0.0144
72,302.855,0.0194
84,304.407,0.0247
96,306.348,0.0313
108,308.642,0.0374
120,311.218,0.0432
132,314.005,0.0478
144,316.928,0.0506
156,319.915,0.0531
168,322.906,0.0546
180,325.849,0.056
192,328.705,0.0571
204,331.452,0.0586
216,334.083,0.0609
228,336.6,0.0635
240,339.005,0.0661
252,341.306,0.0694
264,343.53,0.0732
276,345.678,0.0777
288,347.773,0.0824
300,349.83,0.0874
312,351.859,0.0931
324,353.869,0.0981
336,355.866,0.1024
348,357.856,0.1045
360,359.846,0.10441
372,361.833,0.1036
384,363.819,0.1026
396,365.802,0.10284
408,367.784,0.10292
420,369.767,0.10398
432,371.746,0.10512
444,373.73,0.10663
456,375.708,0.10788
468,377.685,0.10999
480,379.661,0.11241
492,381.643,0.11459
504,383.628,0.1175
516,385.614,0.12036
528,387.602,0.12318
540,389.602,0.12651
552,391.599,0.12973
564,393.608,0.13342
576,395.617,0.13816
588,397.627,0.14364
600,399.649,0.14881
612,401.668,0.15402
624,403.691,0.15548
636,405.715,0.15466
648,407.74,0.15407
660,409.765,0.15482
672,411.789,0.1555
684,413.814,0.15736
696,415.836,0.15882
708,417.858,0.16059
720,419.874,0.16201
732,421.89,0.16339
744,423.903,0.1652
756,425.91,0.16783
768,427.914,0.17134
780,429.917,0.17542
792,431.919,0.18043
804,433.919,0.18565
816,435.919,0.19158
828,437.916,0.19756
840,439.911,0.20497
852,441.908,0.21326
864,443.904,0.22169
876,445.893,0.23044
888,447.89,0.23939
900,449.881,0.24868
912,451.873,0.25732
924,453.866,0.26557
936,455.864,0.27292
948,457.857,0.27855
960,459.845,0.282
972,461.842,0.28541
984,463.833,0.28688
996,465.827,0.28733
1008,467.821,0.28733
1020,469.814,0.28799
1032,471.809,0.28891
1044,473.803,0.29076
1056,475.799,0.29422
1068,477.792,0.29771
1080,479.786,0.302
1092,481.776,0.30602
1104,483.768,0.30883
1116,485.758,0.30997
1128,487.752,0.3103
1140,489.74,0.31037
1152,491.729,0.31043
1164,493.722,0.31136
1176,495.714,0.31353
1188,497.71,0.31725
1200,499.706,0.32154
1212,501.702,0.32735
1224,503.697,0.33335
1236,505.695,0.34031
1248,507.692,0.34928
1260,509.694,0.35759
1272,511.691,0.3663
1284,513.689,0.37499
1296,515.687,0.38449
1308,517.684,0.39406
1320,519.682,0.40464
1332,521.678,0.4161
1344,523.677,0.42778
1356,525.675,0.44005
1368,527.671,0.4534
1380,529.671,0.46717
1392,531.667,0.48155
1404,533.661,0.49678
1416,535.657,0.51287
1428,537.655,0.52944
1440,539.651,0.54677
1452,541.649,0.56456
1464,543.649,0.58362
1476,545.65,0.6043
1488,547.651,0.62499
1500,549.649,0.64597
1512,551.649,0.66654
1524,553.646,0.68839
1536,555.645,0.70932
1548,557.643,0.73168
1560,559.642,0.75456
1572,561.636,0.77725
1584,563.633,0.79979
1596,565.628,0.82199
1608,567.626,0.84345
1620,569.619,0.86563
1632,571.616,0.88638
1644,573.61,0.90702
1656,575.607,0.92802
1668,577.607,0.94863
1680,579.603,0.97098
1692,581.602,0.99759
1704,583.6,1.02487
1716,585.599,1.05535
1728,587.598,1.08664
1740,589.596,1.12168
1752,591.597,1.16022
1764,593.597,1.20438
1776,595.594,1.2527
1788,597.593,1.30632
1800,599.587,1.36533
1812,601.588,1.43082
1824,603.582,1.50331
1836,605.579,1.58274
1848,607.573,1.67058
1860,609.569,1.76693
1872,611.566,1.87341
1884,613.564,1.98984
1896,615.56,2.11764
1908,617.56,2.25832
1920,619.562,2.41086
1932,621.561,2.57588
1944,623.562,2.75462
1956,625.563,2.94769
1968,627.559,3.15386
1980,629.559,3.36849
1992,631.554,3.58333
2004,633.543,3.791
2016,635.529,3.9272
2028,637.504,3.92647
2040,639.484,3.85474
2052,641.467,3.72072
2064,643.479,4.00963
2076,645.486,4.16011
2088,647.478,4.17018
2100,649.474,4.15849
2112,651.479,4.31602
2124,653.479,4.30064
2136,655.481,4.30141
2148,657.481,4.24024
2160,659.48,4.15012
2172,661.478,4.0662
2184,663.475,3.88732
2196,665.469,3.65023
2208,667.466,3.36803
2220,669.461,3.09682
2232,671.462,2.86186
2244,673.464,2.6846
2256,675.469,2.53397
2268,677.47,2.38197
2280,679.469,2.23495
2292,681.471,2.11707
2304,683.47,2.01041
2316,685.469,1.92209
2328,687.474,1.85392
2340,689.47,1.80236
2352,691.469,1.76522
2364,693.47,1.73999
2376,695.464,1.72325
2388,697.458,1.71613
2400,699.448,1.71413
2412,701.441,1.71285
2424,703.43,1.71295
2436,705.422,1.71481
2448,707.414,1.72072
2460,709.406,1.73364
2472,711.407,1.75379
2484,713.402,1.77062
2496,715.398,1.79041
2508,717.395,1.81988
2520,719.388,1.85267
2532,721.381,1.88593
2544,723.378,1.92127
2556,725.373,1.95769
2568,727.375,1.99494
2580,729.374,2.03357
2592,731.375,2.07195
2604,733.375,2.11159
2616,735.373,2.15124
2628,737.373,2.19173
2640,739.37,2.23262
2652,741.369,2.27417
2664,743.367,2.31476
2676,745.368,2.35611
2688,747.366,2.39827
2700,749.372,2.44088
2712,751.379,2.4829
2724,753.382,2.52677
2736,755.387,2.57024
2748,757.387,2.61442
2760,759.392,2.65827
2772,761.397,2.70271
2784,763.403,2.74684
2796,765.408,2.79257
2808,767.412,2.83765
2820,769.413,2.88338
2832,771.413,2.93019
2844,773.408,2.97629
2856,775.409,3.0232
2868,777.405,3.06993
2880,779.404,3.1161
2892,781.407,3.1623
2904,783.414,3.20777
2916,785.423,3.2536
2928,787.43,3.30015
2940,789.439,3.34726
2952,791.444,3.39424
2964,793.449,3.44117
2976,795.458,3.48801
2988,797.457,3.53554
3000,799.46,3.58344
3012,801.462,3.6304
3024,803.461,3.67792
3036,805.459,3.72536
3048,807.457,3.77236
3060,809.457,3.81767
3072,811.463,3.86425
3084,813.469,3.90997
3096,815.471,3.956
3108,817.474,4.0024
3120,819.477,4.04822
3132,821.484,4.09385
3135,821.985,4.10477