File: PMMA/Calibration_Data/TIFP/TIFP_DSC_N2_10K_5.csv
Time,Temperature,Heat Flow
[s],[K],[mW/mg]
0,300.513,-0.00141
12,300.492,-0.00174
24,300.528,0.000675
36,300.705,0.0101
48,301.122,0.0273
60,301.852,0.0505
72,302.945,0.0735
84,304.427,0.0946
96,306.305,0.1208
108,308.534,0.15105
120,311.062,0.18502
132,313.818,0.21862
144,316.714,0.24917
156,319.692,0.27413
168,322.682,0.29273
180,325.632,0.30479
192,328.503,0.31106
204,331.271,0.31207
216,333.929,0.31087
228,336.469,0.30725
240,338.895,0.3031
252,341.22,0.2994
264,343.457,0.29691
276,345.628,0.29574
288,347.737,0.29604
300,349.805,0.29776
312,351.84,0.30171
324,353.856,0.30564
336,355.861,0.31019
348,357.855,0.31338
360,359.849,0.31475
372,361.834,0.31588
384,363.822,0.3169
396,365.81,0.31941
408,367.795,0.32351
420,369.778,0.3274
432,371.762,0.33227
444,373.745,0.33705
456,375.724,0.34292
468,377.704,0.34794
480,379.685,0.35374
492,381.665,0.36006
504,383.644,0.36635
516,385.627,0.37511
528,387.615,0.38312
540,389.605,0.38977
552,391.605,0.39623
564,393.609,0.40355
576,395.618,0.41108
588,397.636,0.41763
600,399.66,0.4225
612,401.68,0.42653
624,403.71,0.43035
636,405.741,0.43351
648,407.768,0.43618
660,409.799,0.43564
672,411.825,0.43838
684,413.852,0.44226
696,415.878,0.44622
708,417.898,0.45099
720,419.919,0.4553
732,421.936,0.45846
744,423.949,0.46142
756,425.962,0.4649
768,427.966,0.47533
780,429.969,0.48164
792,431.974,0.48804
804,433.977,0.49439
816,435.975,0.50232
828,437.978,0.51002
840,439.979,0.51738
852,441.977,0.52627
864,443.975,0.53538
876,445.973,0.54528
888,447.97,0.56177
900,449.966,0.57311
912,451.963,0.58391
924,453.951,0.59297
936,455.948,0.60058
948,457.943,0.60742
960,459.935,0.61255
972,461.928,0.6158
984,463.921,0.61853
996,465.918,0.62202
1008,467.912,0.62484
1020,469.911,0.62952
1032,471.908,0.63539
1044,473.903,0.64345
1056,475.901,0.65295
1068,477.899,0.66438
1080,479.896,0.67596
1092,481.896,0.6861
1104,483.894,0.69419
1116,485.891,0.70052
1128,487.89,0.70456
1140,489.885,0.71047
1152,491.883,0.71543
1164,493.879,0.71994
1176,495.878,0.72637
1188,497.876,0.7344
1200,499.877,0.74484
1212,501.877,0.7564
1224,503.88,0.76914
1236,505.883,0.78279
1248,507.884,0.79747
1260,509.883,0.81292
1272,511.891,0.83083
1284,513.888,0.84773
1296,515.886,0.86438
1308,517.883,0.88261
1320,519.883,0.90186
1332,521.879,0.9212
1344,523.881,0.94291
1356,525.882,0.96487
1368,527.878,0.98411
1380,529.877,1.00616
1392,531.879,1.02988
1404,533.881,1.05471
1416,535.886,1.08037
1428,537.885,1.10464
1440,539.885,1.13015
1452,541.888,1.15667
1464,543.892,1.18203
1476,545.885,1.20569
1488,547.883,1.23005
1500,549.877,1.25524
1512,551.875,1.28066
1524,553.872,1.30622
1536,555.871,1.33286
1548,557.871,1.35956
1560,559.87,1.38421
1572,561.87,1.41022
1584,563.868,1.43582
1596,565.872,1.46592
1608,567.872,1.5084
1620,569.873,1.55333
1632,571.875,1.59659
1644,573.876,1.63848
1656,575.877,1.68015
1668,577.88,1.72095
1680,579.876,1.76053
1692,581.878,1.80002
1704,583.873,1.83998
1716,585.871,1.88194
1728,587.867,1.92723
1740,589.863,1.97658
1752,591.861,2.03127
1764,593.859,2.0907
1776,595.862,2.15574
1788,597.86,2.22449
1800,599.859,2.29887
1812,601.855,2.37904
1824,603.853,2.46607
1836,605.847,2.55969
1848,607.845,2.66307
1860,609.84,2.77368
1872,611.835,2.89559
1884,613.833,3.02863
1896,615.831,3.17263
1908,617.83,3.33081
1920,619.832,3.50358
1932,621.834,3.68914
1944,623.835,3.88641
1956,625.83,4.09605
1968,627.825,4.31145
1980,629.822,4.52035
1992,631.815,4.69818
2004,633.804,4.81574
2016,635.792,4.85448
2028,637.78,4.78464
2040,639.769,4.64768
2052,641.765,4.48729
2064,643.772,4.58251
2076,645.787,4.75112
2088,647.795,4.8734
2100,649.794,4.94171
2112,651.788,4.7587
2124,653.799,4.91273
2136,655.805,4.88981
2148,657.807,4.73581
2160,659.824,4.68182
2172,661.848,4.55399
2184,663.883,4.34668
2196,665.923,4.10648
2208,667.979,3.81913
2220,670.047,3.60695
2232,672.122,3.4107
2244,674.203,3.23448
2256,676.274,3.06365
2268,678.348,2.91527
2280,680.414,2.78583
2292,682.473,2.67347
2304,684.521,2.57686
2316,686.557,2.49551
2328,688.587,2.42838
2340,690.609,2.37357
2352,692.625,2.32869
2364,694.641,2.29131
2376,696.651,2.26285
2388,698.663,2.24145
2400,700.67,2.21977
2412,702.677,2.19772
2424,704.683,2.17467
2436,706.686,2.15399
2448,708.69,2.13949
2460,710.694,2.13349
2472,712.702,2.1323
2484,714.703,2.12228
2496,716.701,2.12241
2508,718.695,2.12835
2520,720.686,2.13494
2532,722.672,2.14319
2544,724.657,2.15093
2556,726.634,2.16064
2568,728.609,2.16968
2580,730.574,2.1783
2592,732.541,2.18529
2604,734.502,2.19089
2616,736.459,2.19424
2628,738.418,2.19597
2640,740.375,2.1964
2652,742.332,2.19616
2664,744.293,2.19421
2676,746.252,2.19203
2688,748.216,2.18797
2700,750.188,2.1828
2712,752.158,2.1776
2724,754.136,2.1724
2736,756.117,2.16555
2748,758.102,2.16087
2760,760.089,2.15735
2772,762.072,2.15366
2784,764.057,2.15091
2796,766.041,2.14752
2808,768.028,2.14483
2820,770.015,2.14234
2832,772.007,2.14065
2844,773.999,2.13871
2856,775.99,2.13641
2868,777.983,2.13423
2880,779.977,2.13165
2892,781.971,2.13048
2904,783.967,2.12995
2916,785.965,2.12867
2928,787.964,2.12683
2940,789.964,2.12512
2952,791.963,2.12402
2964,793.962,2.12309
2976,795.959,2.12177
2988,797.96,2.12067
3000,799.957,2.12043
3012,801.956,2.11936
3024,803.956,2.11871
3036,805.957,2.11836
3048,807.95,2.11803
3060,809.948,2.11709
3072,811.947,2.11645
3084,813.942,2.11611
3096,815.939,2.11536
3108,817.935,2.11392
3120,819.931,2.11368
3132,821.927,2.11125
3135,822.424,2.11016