File: PMMA/Calibration_Data/TIFP/TIFP_Cone_65kW_1.csv
Time,Mass,HRR,Back Surface Temperature 1,Back Surface Temperature 2
[s],[g],[kW/m2],[K],[K]
0,69.9,0.595238,299.25,299.55
2,69.9043,-0.0714286,299.25,299.25
4,69.7088,-0.345238,299.25,299.25
6,69.6822,0.857143,299.25,299.15
8,69.6274,1.5119,299.25,299.05
10,69.4814,0.416667,299.15,298.85
12,69.5695,-6,299.15,298.75
14,69.7398,14.0238,299.25,298.85
16,69.6233,128.702,299.45,298.95
18,69.6762,301.5,301.05,299.55
20,69.4209,420.262,301.65,300.95
22,69.1857,506.845,303.25,302.25
24,68.7574,534.905,304.15,303.05
26,68.3792,564.417,306.35,304.85
28,67.8204,623.798,307.65,305.85
30,67.3954,700.226,310.45,308.15
32,67.0076,713.417,311.95,309.45
34,66.0807,725.917,315.15,312.05
36,65.5318,695.119,316.95,313.45
38,65.0119,696.607,320.55,316.65
40,64.4353,712.464,324.55,318.35
42,63.9218,710.238,326.45,321.75
44,63.367,769.333,330.65,323.55
46,62.8231,746.381,332.65,327.35
48,62.3639,731.012,336.95,329.45
50,61.8187,765.798,339.25,333.25
52,61.3142,767.583,343.55,337.55
54,60.7156,731.571,345.85,339.55
56,60.216,743.655,350.15,343.65
58,59.6492,762.155,352.65,345.85
60,59.1651,780.976,357.15,350.25
62,58.5876,779.464,353.65,358.85
64,58.0542,747.333,362.15,359.05
66,57.5176,738.464,366.25,360.25
68,56.9629,746,369.95,363.05
70,56.4303,757.131,381.75,365.35
72,55.8604,783.167,396.05,369.45
74,55.3297,775.702,402.75,371.85
76,54.8198,769.857,402.75,375.95
78,54.2492,809.655,408.45,377.95
80,53.7089,775.607,408.45,382.05
82,53.1137,830.762,404.75,384.25
84,52.5066,815.155,396.55,388.25
86,51.8309,807.286,401.25,392.15
88,51.2027,799.476,403.45,393.95
90,50.5969,810.631,407.55,395.75
92,50.0552,794.19,409.45,399.95
94,49.4577,842.631,413.55,402.35
96,48.914,822.524,415.55,406.65
98,48.3294,837.643,419.45,410.95
100,47.7535,804.393,421.55,412.95
102,47.1215,806.952,425.85,417.25
104,46.5856,815.083,427.95,419.25
106,46.0134,836.964,432.05,423.65
108,45.4189,856.786,434.65,425.75
110,44.8132,874.595,439.45,430.15
112,44.2044,803.774,442.05,432.75
114,43.5822,847.81,451.25,437.55
116,42.954,852.595,453.75,439.85
118,42.3405,844.381,459.45,445.05
120,41.7286,877.976,462.25,447.35
122,41.082,926.238,468.35,452.75
124,40.467,885.643,471.45,455.05
126,39.8372,871.262,477.25,460.35
128,39.1935,947.536,483.55,463.75
130,38.5393,866.94,486.45,469.75
132,37.859,940.726,493.05,472.75
134,37.2015,972.298,496.25,479.15
136,36.5303,942.821,503.15,485.15
138,35.8657,905.393,506.85,487.85
140,35.7078,972.714,513.65,494.25
142,35.0474,1001.87,517.65,497.85
144,34.2842,1012.17,525.55,504.95
146,33.4711,1036.19,529.35,508.25
148,32.6329,1059.69,537.65,515.45
150,31.9336,1055.76,541.55,518.95
152,31.1665,1060.48,550.15,525.45
154,30.4421,1061.67,554.55,529.05
156,29.6066,1092.42,563.85,536.15
158,28.8394,1078.9,573.55,539.85
160,28.022,1050.75,577.55,546.65
162,27.1963,1137.07,,
164,26.4524,1107.48,,
166,25.5618,1102.54,,
168,24.679,1147.33,,
170,23.8624,1128.5,,
172,23.0084,1139.43,,
174,22.2341,1167.18,,
176,21.3913,1141.75,,
178,20.6605,1139.38,,
180,19.8445,1276.06,,
182,18.9641,1192.29,,
184,18.0792,1051.58,,
186,17.2186,1099.5,,
188,16.3973,1120.98,,
190,15.6119,1070.06,,
192,14.7462,945.56,,
194,13.769,906.524,,
196,13.0843,871.107,,
198,12.5106,763.06,,
200,12.0157,722.762,,
202,11.5402,625.548,,
204,11.1074,577.762,,
206,10.7972,512.952,,
208,10.3573,473.5,,
210,10.0411,449.893,,
212,9.7507,400.202,,
214,9.4228,376.179,,
216,9.1182,354.321,,
218,8.9392,330.429,,
220,8.7474,317.476,,
222,8.4464,312.381,,
224,8.321,290.857,,
226,8.1428,279.512,,
228,7.9057,265.381,,
230,7.711,264.702,,
232,7.5583,260.476,,
234,7.3369,252.738,,
236,7.2067,255.31,,
238,7.0773,247.94,,
240,6.8828,238.369,,
242,6.6667,235.595,,
244,6.516,227.048,,
246,6.4234,218.929,,
248,6.2454,214.333,,
250,6.0881,204.381,,
252,5.8845,203.429,,
254,5.7672,194.893,,
256,5.612,190.405,,
258,5.5334,191.798,,
260,5.3514,184.369,,
262,5.1673,182.488,,
264,5.0773,186.774,,
266,4.9404,184.012,,
268,4.83,184.274,,
270,4.6752,185,,
272,4.6132,187.5,,
274,4.6172,187.833,,
276,4.5011,181,,
278,4.3462,182.869,,
280,4.1438,181.381,,
282,4.1045,176.893,,
284,3.9077,186.024,,
286,3.8736,176.429,,
288,3.7337,176.964,,
290,3.6134,172.131,,
292,3.4528,170.464,,
294,3.2869,168.738,,
296,3.2294,169.976,,
298,3.0381,165.821,,
300,2.9018,164.833,,
302,2.8707,162.94,,
304,2.7684,164,,
306,2.5872,161.952,,
308,2.4937,161.583,,
310,2.418,163.798,,
312,2.2924,160.452,,
314,2.2075,157.286,,
316,2.0839,157,,
318,1.9092,152.238,,
320,1.8423,151.036,,
322,1.8291,147.952,,
324,1.6475,146.321,,
326,1.5302,138.643,,
328,1.4407,142.107,,
330,1.3847,138.917,,
332,1.2632,137.929,,
334,1.1734,132.738,,
336,1.0003,130.583,,
338,0.9115,127.452,,
340,0.8863,122.464,,
342,1.0942,122.31,,
344,1.1788,121.298,,
346,1.1831,121.548,,
348,1.285,117.94,,
350,2.2986,118.393,,
352,2.2001,113.131,,
354,2.0357,109.333,,
356,2.0657,107.929,,
358,1.9444,101.214,,
360,1.8433,97.7381,,
362,1.874,95.9643,,
364,1.7374,94.9048,,
366,1.5753,87.25,,
368,1.5319,89.3214,,
370,1.4478,86.5476,,
372,1.5705,82.4048,,
374,1.3569,80.2143,,
376,1.3443,79.0595,,
378,1.3578,75.4048,,
380,1.1959,73.0714,,
382,1.2978,69.369,,
384,1.1334,69.1071,,
386,0.96,63.7738,,
388,0.953,62.4643,,
390,1.0054,61.2381,,
392,0.9769,57.0714,,
394,0.3301,52.5714,,
396,-0.7718,48.369,,
398,-0.7874,42.9643,,
400,-0.7251,38.0357,,
402,-0.7823,34.7857,,
404,-0.8576,30.8571,,
406,-0.9378,29.2976,,
408,-0.8718,29.25,,
410,-0.891,27.4762,,
412,-0.8799,26.9524,,
414,-0.9135,25.7143,,
416,-0.9396,24.2976,,
418,-0.8928,24.8214,,
420,-0.9642,24.4643,,
422,-0.9304,24.2143,,
424,-0.9574,24.0238,,
426,-1.0657,22.5357,,
428,-1.0164,21.0476,,
430,-1.033,20.2024,,
432,-1.069,18.9048,,
434,-1.045,16.4762,,
436,-1.038,15.3571,,
438,-1.1054,13.0238,,
440,-1.0644,11.0357,,
442,-1.0748,10.1905,,
444,-1.0757,8.69048,,
446,-1.0852,7.52381,,
448,-1.1625,7.28571,,
450,-1.0876,5.78571,,
452,-1.0905,4.2619,,
454,-1.1549,4.5,,
456,-1.1667,3.70238,,
458,-1.0321,3.09524,,
460,-1.098,2.54762,,
462,-1.0944,0.761905,,
464,-1.1867,-1.57143,,
466,-1.1606,-3.22619,,
468,-1.1202,-4.40476,,
470,-1.0117,-4.40476,,
472,-1.0475,-4.04762,,
474,-1.1291,-5.2381,,
476,-1.1307,-5.46429,,
478,-1.1773,-5.30952,,
480,-1.1025,-4.59524,,
482,-1.071,-4.34524,,
484,-1.1649,-3.44048,,
486,-1.0823,-3.5119,,
488,-1.1343,-3.92857,,
490,-1.1942,-4.13095,,
492,-1.1966,-4.46429,,
494,-1.0859,-4.04762,,
496,-1.1754,-4.15476,,
498,-1.1225,-4.28571,,
500,-1.1473,-4.55952,,