File: PMMA/Calibration_Data/TIFP/TIFP_TGA_N2_10K_6.csv
Time,Temperature,Mass
[s],[K],[mg]
0,302.613,5.4602
12,302.6,5.463
24,302.592,5.452
36,302.581,5.4278
48,302.569,5.3961
60,302.56,5.3581
72,302.585,5.3195
84,302.752,5.3047
96,303.17,5.2996
108,303.956,5.3079
120,305.194,5.3284
132,306.936,5.3524
144,309.2,5.3854
156,311.941,5.4155
168,315.083,5.4456
180,318.521,5.4743
192,322.149,5.4925
204,325.855,5.5099
216,329.548,5.5238
228,333.145,5.5307
240,336.584,5.5349
252,339.832,5.5351
264,342.88,5.5335
276,345.711,5.529
288,348.342,5.524
300,350.795,5.5173
312,353.08,5.5109
324,355.242,5.5061
336,357.302,5.5007
348,359.285,5.4967
360,361.215,5.4927
372,363.11,5.49
384,364.99,5.4906
396,366.858,5.4893
408,368.73,5.488
420,370.612,5.4893
432,372.502,5.4913
444,374.407,5.4902
456,376.326,5.4929
468,378.257,5.4929
480,380.198,5.4942
492,382.149,5.4962
504,384.107,5.4969
516,386.072,5.5126
528,388.042,5.511
540,390.019,5.5056
552,392.003,5.5023
564,393.99,5.5035
576,395.987,5.5035
588,397.984,5.5035
600,399.987,5.5048
612,401.996,5.5074
624,404.013,5.5077
636,406.03,5.5047
648,408.051,5.5061
660,410.079,5.5159
672,412.105,5.5024
684,414.134,5.5031
696,416.159,5.5031
708,418.184,5.5028
720,420.206,5.5025
732,422.225,5.5012
744,424.244,5.5001
756,426.261,5.5012
768,428.275,5.4985
780,430.292,5.4985
792,432.3,5.4967
804,434.309,5.4943
816,436.313,5.494
828,438.316,5.49
840,440.315,5.4886
852,442.316,5.4846
864,444.313,5.4819
876,446.308,5.4796
888,448.301,5.4739
900,450.291,5.4699
912,452.281,5.4635
924,454.27,5.4578
936,456.261,5.4529
948,458.249,5.4441
960,460.235,5.4343
972,462.22,5.4295
984,464.203,5.424
996,466.191,5.4173
1008,468.182,5.4116
1020,470.173,5.4056
1032,472.162,5.4006
1044,474.153,5.3944
1056,476.147,5.3895
1068,478.138,5.384
1080,480.129,5.3784
1092,482.122,5.3733
1104,484.117,5.3688
1116,486.112,5.3634
1128,488.104,5.3594
1140,490.096,5.3577
1152,492.088,5.3584
1164,494.082,5.3584
1176,496.074,5.3574
1188,498.069,5.3534
1200,500.063,5.3523
1212,502.06,5.3496
1224,504.058,5.3527
1236,506.052,5.3514
1248,508.048,5.3527
1260,510.044,5.3499
1272,512.038,5.3509
1284,514.031,5.3506
1296,516.021,5.3479
1308,518.02,5.3492
1320,520.011,5.3479
1332,522.005,5.3466
1344,524.003,5.3466
1356,525.998,5.3439
1368,527.994,5.3435
1380,529.992,5.3436
1392,531.989,5.3396
1404,533.989,5.3393
1416,535.99,5.3356
1428,537.99,5.3343
1440,539.991,5.3322
1452,541.991,5.3276
1464,543.99,5.3255
1476,545.991,5.3219
1488,547.988,5.3165
1500,549.987,5.3123
1512,551.983,5.3063
1524,553.978,5.2994
1536,555.973,5.2938
1548,557.965,5.286
1560,559.959,5.278
1572,561.951,5.2686
1584,563.942,5.2589
1596,565.934,5.2472
1608,567.928,5.2372
1620,569.92,5.2229
1632,571.916,5.2123
1644,573.915,5.2016
1656,575.912,5.1871
1668,577.906,5.1737
1680,579.907,5.161
1692,581.906,5.1457
1704,583.908,5.1314
1716,585.906,5.1139
1728,587.909,5.0958
1740,589.91,5.0784
1752,591.906,5.0558
1764,593.906,5.0321
1776,595.901,5.0084
1788,597.898,4.9775
1800,599.896,4.9456
1812,601.892,4.9117
1824,603.89,4.8697
1836,605.885,4.8245
1848,607.88,4.7713
1860,609.876,4.7169
1872,611.871,4.6509
1884,613.866,4.578
1896,615.86,4.4983
1908,617.858,4.4101
1920,619.856,4.3101
1932,621.855,4.2005
1944,623.854,4.0806
1956,625.85,3.9528
1968,627.849,3.8123
1980,629.848,3.6661
1992,631.844,3.5086
2004,633.839,3.3439
2016,635.832,3.1725
2028,637.822,2.9976
2040,639.818,2.8237
2052,641.818,2.6462
2064,643.815,2.4688
2076,645.82,2.294
2088,647.823,2.1197
2100,649.823,1.9514
2112,651.832,1.7863
2124,653.837,1.6243
2136,655.844,1.4692
2148,657.846,1.3272
2160,659.856,1.1935
2172,661.862,1.0677
2184,663.864,0.9541
2196,665.865,0.8554
2208,667.866,0.77
2220,669.873,0.6931
2232,671.878,0.6254
2244,673.881,0.569
2256,675.886,0.5192
2268,677.886,0.4804
2280,679.883,0.4445
2292,681.878,0.4184
2304,683.873,0.3942
2316,685.866,0.3776
2328,687.858,0.362
2340,689.851,0.3517
2352,691.845,0.3412
2364,693.836,0.3295
2376,695.828,0.324
2388,697.82,0.3189
2400,699.813,0.3135
2412,701.805,0.3108
2424,703.799,0.308
2436,705.792,0.306
2448,707.788,0.3043
2460,709.785,0.3044
2472,711.787,0.3064
2484,713.785,0.3047
2496,715.783,0.3071
2508,717.778,0.3071
2520,719.778,0.3078
2532,721.776,0.3084
2544,723.776,0.3098
2556,725.777,0.3111
2568,727.779,0.3111
2580,729.781,0.3125
2592,731.785,0.3111
2604,733.782,0.3131
2616,735.78,0.3131
2628,737.779,0.3145
2640,739.778,0.3155
2652,741.778,0.3155
2664,743.778,0.3182
2676,745.779,0.3182
2688,747.781,0.3198
2700,749.779,0.3208
2712,751.777,0.3218
2724,753.774,0.3222
2736,755.772,0.3222
2748,757.77,0.3232
2760,759.768,0.3225
2772,761.768,0.3252
2784,763.767,0.3279
2796,765.77,0.3279
2808,767.773,0.3275
2820,769.777,0.3286
2832,771.78,0.3282
2844,773.785,0.3309
2856,775.786,0.3336
2868,777.786,0.3326
2880,779.785,0.3353
2892,781.786,0.3332
2904,783.789,0.3359
2916,785.793,0.3373
2928,787.794,0.3369
2940,789.796,0.3376
2952,791.8,0.3396
2964,793.799,0.3403
2976,795.8,0.3393
2988,797.803,0.342
3000,799.807,0.3433
3012,801.814,0.3457
3024,803.816,0.343
3036,805.82,0.3457
3048,807.822,0.3457
3060,809.828,0.347
3072,811.83,0.346
3084,813.831,0.3477
3096,815.832,0.351
3108,817.832,0.3497
3120,819.834,0.352
3132,821.837,0.3514
3135,822.335,0.3507