File: PMMA/Calibration_Data/TIFP/TIFP_Cone_25kW_1.csv
Time,mass,HRR,Back surface temperature 1,Back surface temperature 2
s,g,kW/m2,K,K
0,71.44,0,297.25,297.25
4,71.40949,-0.470611,297.25,297.25
8,71.3018,-0.0696196,297.35,297.45
12,71.2115,1.59665,297.45,297.55
16,71.2067,1.62437,297.55,297.55
20,71.3107,0.761806,297.75,297.75
24,71.2969,-0.927616,298.15,298.25
28,71.2326,0.806836,298.95,299.15
32,71.0416,1.09545,300.05,300.45
36,71.1712,9.43E-03,302.75,303.25
40,71.1826,0.0510181,304.85,305.55
44,70.708,3.2125,307.35,308.15
48,71.1581,2.40262,310.15,310.95
52,71.1233,4.11766,312.95,314.05
56,71.2044,6.03468,316.15,317.15
60,71.1958,3.67581,319.65,320.55
64,71.192,1.87251,323.05,323.95
68,71.20113,4.43749,326.55,327.45
72,71.2165,7.40353,331.55,331.05
76,71.2051,5.25548,335.35,334.65
80,71.23277,6.24123,339.05,338.35
84,71.2496,6.77016,342.95,343.15
88,71.2443,5.22095,346.75,346.85
92,71.1977,3.00117,350.65,350.45
96,71.2252,4.13806,354.35,354.05
100,71.1809,3.35939,358.25,357.65
104,71.1627,64.0411,362.15,361.25
108,71.0303,157.026,366.05,364.95
112,70.7649,240.346,369.85,368.45
116,70.3721,312.691,373.35,371.75
120,69.93162,318.418,376.85,375.05
124,69.4389,328.88,380.15,378.45
128,68.9744,341.339,383.55,381.55
132,68.4555,333.185,386.85,384.85
136,68.0182,340.467,389.95,387.85
140,67.4972,346.277,393.15,391.15
144,67.1568,365.792,396.45,394.35
148,66.6715,361.146,399.75,397.75
152,66.1073,376.153,404.25,401.15
156,65.5693,369.228,407.55,404.75
160,65.0176,376.761,410.75,408.15
164,64.499,374.508,414.15,412.85
168,63.9605,382.689,417.55,416.55
172,63.4105,386.909,420.95,420.05
176,62.8618,387.077,424.15,423.65
180,62.2986,387.769,427.65,427.15
184,61.7555,392.004,430.85,430.65
188,61.1903,391.432,434.25,434.15
192,60.6186,412.911,437.55,437.65
196,60.0454,402.183,440.75,440.95
200,59.5021,382.845,444.05,444.35
204,58.9818,385.439,447.45,447.95
208,58.3506,405.858,450.65,451.25
212,57.8035,414.219,453.85,454.75
216,57.19179,396.536,457.15,458.05
220,56.6282,404.164,460.45,461.45
224,56.4008,413.809,463.75,464.85
228,55.81941,421.918,467.05,468.05
232,55.2226,412.357,470.25,471.55
236,54.5874,419.851,473.45,474.85
240,53.9689,401.599,477.65,478.15
244,53.3941,428.099,480.65,481.35
248,52.8118,433.24,483.85,484.75
252,52.1907,427.015,487.35,488.05
256,51.5869,435.149,490.65,492.55
260,50.9509,415.389,493.35,495.65
264,50.273,431.554,495.95,499.15
268,49.6958,445.354,498.35,502.25
272,49.0676,445.249,500.85,505.45
276,48.3787,455.968,503.25,508.75
280,47.6783,446.788,505.85,511.95
284,47.3025,463.656,508.65,515.25
288,46.542,451.86,511.75,518.25
292,45.8328,459.263,514.75,521.35
296,45.1211,483.617,518.15,524.15
300,44.4208,456.263,520.95,526.85
304,43.7065,484.458,523.65,529.45
308,43.3761,477.301,526.45,531.55
312,42.6996,486.832,529.55,533.95
316,41.9719,491.794,532.65,536.75
320,41.3003,515.88,536.35,539.85
324,40.5911,494.265,540.15,543.45
328,39.8992,494.94,545.65,547.25
332,39.2346,490.318,549.85,552.85
336,38.528,488.968,554.15,555.85
340,37.888,503.002,558.55,560.35
344,37.2371,513.086,563.25,566.65
348,36.4717,519.227,567.75,571.45
352,35.7984,502.026,572.75,576.05
356,35.0875,520.887,579.05,580.65
360,34.33637,490.153,590.35,585.25
364,33.6141,527.974,594.25,589.55
368,32.88203,525.351,593.35,593.85
372,32.1508,509.384,598.15,597.95
376,31.3751,522.931,605.75,601.95
380,30.7534,519.94,609.65,605.75
384,30.0018,541.277,613.65,609.55
388,29.2139,540.987,617.75,613.55
392,28.4692,554.418,622.75,617.75
396,27.677,511.916,627.85,622.35
400,26.949,542.504,633.15,626.95
404,26.2206,552.532,,
408,25.47289,560.353,,
412,24.6719,564.467,,
416,23.8596,575.555,,
420,23.1133,567.463,,
424,22.305,549.42,,
428,21.535,537.586,,
432,20.6985,528.254,,
436,19.9916,510.226,,
440,19.2912,480.641,,
444,18.5166,508.255,,
448,17.8572,429.87,,
452,17.1994,407.87,,
456,16.6394,366.695,,
460,16.1323,352.224,,
464,15.619,311.903,,
468,15.21116,256.598,,
472,14.8204,236.466,,
476,14.5172,212.39,,
480,14.2341,186.892,,
484,13.9079,173.052,,
488,13.6551,164.609,,
492,13.4201,169.369,,
496,13.1992,157.345,,
500,12.9743,156.314,,
504,12.7831,144.034,,
508,12.59377,129.24,,
512,12.3913,130.286,,
516,12.2233,124.352,,
520,12.0279,121.179,,
524,11.8331,123.905,,
528,11.7034,112.849,,
532,11.5345,106.346,,
536,11.3307,105.217,,
540,11.1698,108.253,,
544,11.0448,100.972,,
548,10.9174,102.52,,
552,10.7433,96.4002,,
556,10.62824,100.086,,
560,10.482,98.0525,,
564,10.3227,95.1284,,
568,10.2108,92.6446,,
572,10.13,90.1871,,
576,9.923846,87.1901,,
580,9.802385,91.0969,,
584,9.687428,91.6311,,
588,9.5531,93.3732,,
592,9.41798,93.1549,,
596,9.296329,90.3122,,
600,9.189752,88.2994,,
604,9.067964,86.4736,,
608,8.903359,82.4589,,
612,8.812066,83.6825,,
616,8.701014,79.2255,,
620,8.574734,79.6977,,
624,8.420429,77.6801,,
628,8.352074,77.1177,,
632,8.203231,79.2429,,
636,8.10375,81.2583,,
640,8.002933,79.4569,,
644,7.888161,74.7782,,
648,7.76811,72.3879,,
652,7.666761,70.5196,,
656,7.558984,72.2517,,
660,7.446669,68.3382,,
664,7.354773,66.774,,
668,7.3071,73.1935,,
672,7.158024,71.2372,,
676,7.074641,69.4731,,
680,6.969882,69.9063,,
684,7.004596,70.1289,,
688,6.824488,66.7861,,
692,6.695158,64.1478,,
696,6.610287,66.1293,,
700,6.500433,66.9346,,
704,6.380179,68.2236,,
708,6.326049,69.6362,,
712,6.244781,65.8244,,
716,6.156781,66.9619,,
720,6.046994,61.5931,,
724,5.936214,59.7815,,
728,5.885494,59.5272,,
732,5.768286,61.3703,,
736,5.72746,67.601,,
740,5.724247,68.2894,,
744,5.525896,71.3384,,
748,5.406631,76.5548,,
752,5.299026,72.2449,,
756,5.235876,61.7485,,
760,5.148606,54.4605,,
764,5.011006,45.6585,,
768,5.000795,42.1865,,
772,4.960896,41.3008,,
776,4.921424,38.5886,,
780,4.836373,38.017,,
784,4.76157,36.3241,,
788,4.756178,34.9757,,
792,4.679003,32.2734,,
796,4.647904,32.7113,,
800,4.640236,32.3607,,
804,4.586224,31.7128,,
808,4.51881,31.9336,,
812,4.498005,33.1364,,
816,4.427299,31.288,,
820,4.390836,30.5992,,
824,4.338096,36.1721,,
828,4.291514,33.7536,,
832,4.248045,31.489,,
836,4.199303,30.072,,
840,4.164798,31.9744,,
844,4.105694,30.8702,,
848,4.090578,31.586,,
852,4.044663,28.8066,,
856,3.993569,30.8216,,
860,3.945349,31.5929,,
864,3.901471,30.2193,,
868,3.861813,27.2006,,
872,3.827106,27.9452,,
876,3.773112,28.9164,,
880,3.721685,27.9311,,
884,3.684859,27.349,,
888,3.650207,28.8488,,
892,3.613,26.5053,,
896,3.553908,27.8309,,
900,3.519184,30.0489,,
904,3.46115,29.9196,,
908,3.435582,32.5663,,
912,3.390711,35.0643,,
916,3.359024,35.9745,,
920,3.291139,34.85728,,
924,3.24082,38.5369,,
928,3.197777,34.7578,,
932,3.126947,34.5146,,
936,3.119844,35.3852,,
940,3.041141,36.1906,,
944,3.007567,37.3221,,
948,2.968142,36.7298,,
952,2.922512,34.1523,,
956,2.884202,33.5086,,
960,2.843244,32.7202,,
964,2.796216,31.9464,,
968,2.712655,35.171,,
972,2.733308,35.5369,,
976,2.664036,36.7028,,
980,2.611756,36.7131,,
984,2.57,33.3924,,
988,2.547583,36.3016,,
992,2.500727,37.5023,,
996,2.441341,33.1857,,
1000,2.414463,27.2511,,