File: PMMA/Calibration_Data/TIFP/TIFP_Gasification_65kW_1.csv
Time,Mass
[s],[g]
0,74.1
3,73.9907
6,73.9014
9,73.8641
12,73.8742
15,73.7983
18,73.7851
21,73.7629
24,73.6279
27,73.3325
30,72.9578
33,72.5592
36,72.13808
39,71.6689
42,71.1879
45,70.6829
48,70.14512
51,69.6472
54,69.1305
57,68.6177
60,68.0543
63,67.51129
66,67.0084
69,66.4028
72,65.9559
75,65.2742
78,64.6675
81,64.043
84,63.5734
87,63.0048
90,62.3237
93,61.8566
96,61.2587
99,60.7396
102,60.1609
105,59.321
108,58.8203
111,58.26941
114,57.6344
117,56.9679
120,56.3118
123,55.633
126,55.1434
129,54.7262
132,53.8313
135,53.0854
138,52.3718
141,51.9907
144,51.2892
147,50.579
150,49.8926
153,49.3209
156,48.3932
159,47.7184
162,46.9998
165,46.258
168,45.8525
171,45.1823
174,44.08598
177,43.655
180,42.9768
183,42.22625
186,41.3714
189,40.9032
192,40.0293
195,38.9773
198,38.7249
201,37.8269
204,37.2682
207,36.2683
210,35.3033
213,34.6669
216,33.6007
219,33.0883
222,32.8905
225,31.55149
228,30.6385
231,29.7439
234,28.7509
237,28.0194
240,26.8967
243,26.4159
246,25.4852
249,24.578
252,23.9102
255,22.6709
258,21.7706
261,20.8139
264,19.87777
267,19.0182
270,18.1364
273,17.3303
276,16.574
279,15.9395
282,15.3921
285,14.8396
288,14.3592
291,13.893
294,13.4668
297,13.1209
300,12.7128
303,12.3835
306,12.0493
309,11.738
312,11.4073
315,11.0921
318,10.8269
321,10.5552
324,10.26066
327,9.97471
330,9.724986
333,9.433079
336,9.23029
339,8.967827
342,8.735002
345,8.475231
348,8.24988
351,8.004391
354,7.752788
357,7.54609
360,7.306721
363,7.102781
366,6.880737
369,6.67742
372,6.475121
375,6.260144
378,6.069156
381,5.835626
384,5.661112
387,5.458684
390,5.279572
393,5.099974
396,4.919501
399,4.743991
402,4.567315
405,4.493101
408,4.235254
411,4.074122
414,3.909667
417,3.695952
420,3.618621
423,3.449629
426,3.3278
429,3.170049
432,3.028886
435,2.89046
438,2.747371
441,2.62642
444,2.505611
447,2.391262
450,2.246337
453,2.132108
456,2.027682
459,1.90402
462,1.810718
465,1.684891
468,1.586004
471,1.470321
474,1.394018
477,1.300935
480,1.214475
483,1.099435
486,1.050691
489,0.95796
492,0.881398
495,0.788501
498,0.736617
501,0.696939
504,0.610949
507,0.55601
510,0.481184
513,0.45158
516,0.4
519,0.391063
522,0.353385
525,0.323073
528,0.319791
531,0.279
534,0.294772
537,0.237102
540,0.24396
543,0.202373
546,0.181591
549,0.196855
552,0.178497
555,0.198122
558,0.160658
561,0.174195
564,0.125262
567,0.14285
570,0.113106
573,0.116571
576,0.118799
579,0.097543
582,0.084814
585,0.065809
588,0.097011
591,0.075026
594,0.074278
597,0.06444
600,0.084114
603,0.062537
606,0.073435
609,0.056001
612,0.051769
615,0.056831
618,0.048
621,0.040787
624,0.027241
627,0.048267
630,0.02054
633,0.032213
636,0.010508