File: PMMA/Calibration_Data/TIFP/TIFP_DSC_O2-21_10K_2.csv
Time,Temperature,Heat Flow
[s],[K],[mW/mg]
0,297.5898,-0.178378
15,298.9133,-0.167026
30,301.071,-0.089332
45,303.2608,-0.04574
60,305.4848,-0.016735
75,307.7528,0.003134
90,310.0502,0.018647
105,312.3632,0.032727
120,314.6739,0.04238
135,317.0269,0.046709
150,319.3781,0.05519
165,321.739,0.062607
180,324.1054,0.061982
195,326.488,0.062893
210,328.8691,0.072353
225,331.2648,0.075329
240,333.6706,0.079544
255,336.0793,0.087577
270,338.4749,0.092072
285,340.9009,0.099045
300,343.3283,0.099982
315,345.7647,0.107439
330,348.1989,0.111091
345,350.6356,0.114414
360,353.1,0.113297
375,355.5473,0.118358
390,358.0112,0.111952
405,360.4646,0.112123
420,362.9407,0.108575
435,365.4177,0.115259
450,367.8998,0.117023
465,370.3807,0.121835
480,372.8682,0.123655
495,375.361,0.127894
510,377.856,0.12924
525,380.352,0.134954
540,382.88,0.136813
555,385.38,0.14169
570,387.877,0.149221
585,390.406,0.156639
600,392.906,0.164677
615,395.431,0.174335
630,397.958,0.179149
645,400.476,0.189794
660,403.014,0.199718
675,405.549,0.199299
690,408.078,0.200808
705,410.617,0.195051
720,413.159,0.194153
735,415.689,0.192834
750,418.24,0.190542
765,420.781,0.189408
780,423.332,0.196346
795,425.879,0.191885
810,428.438,0.199955
825,430.986,0.198632
840,433.536,0.198263
855,436.09,0.198905
870,438.64,0.197336
885,441.201,0.203248
900,443.75,0.20691
915,446.31,0.207446
930,448.87,0.20899
945,451.435,0.21394
960,453.991,0.218335
975,456.553,0.21696
990,459.103,0.220295
1005,461.68,0.221364
1020,464.25,0.219978
1035,466.808,0.224096
1050,469.372,0.224032
1065,471.947,0.221622
1080,474.512,0.220203
1095,477.073,0.220611
1110,479.642,0.219934
1125,482.206,0.225113
1140,484.768,0.227385
1155,487.349,0.219961
1170,489.913,0.221578
1185,492.495,0.223444
1200,495.046,0.217973
1215,497.629,0.218348
1230,500.194,0.221578
1245,502.756,0.220889
1260,505.317,0.228625
1275,507.888,0.228408
1290,510.461,0.231505
1305,513.013,0.23375
1320,515.586,0.240844
1335,518.152,0.249106
1350,520.711,0.246484
1365,523.261,0.25059
1380,525.838,0.256934
1395,528.395,0.264789
1410,530.96,0.269157
1425,533.529,0.282838
1440,536.093,0.305313
1455,538.667,0.337111
1470,541.234,0.380407
1485,543.81,0.432255
1500,546.379,0.492874
1515,548.951,0.557992
1530,551.531,0.615839
1545,554.103,0.659404
1560,556.678,0.677574
1575,559.252,0.684341
1590,561.819,0.687707
1605,564.393,0.703978
1620,566.959,0.742458
1635,569.529,0.81974
1650,572.093,0.925815
1665,574.665,1.068514
1680,577.243,1.255148
1695,579.817,1.519916
1710,582.394,1.865654
1725,584.978,2.312702
1740,587.572,2.7115
1755,590.164,2.982364
1770,592.759,3.240617
1785,595.352,3.439853
1800,597.929,3.999054
1815,600.486,4.600875
1830,603.066,5.154233
1845,605.656,5.610106
1860,608.273,5.933816
1875,610.899,6.048775
1890,613.537,5.964901
1905,616.173,5.625889
1920,618.816,5.321211
1935,621.44,4.964705
1950,624.061,4.6582
1965,626.674,4.102959
1980,629.306,3.245346
1995,631.885,2.813675
2010,634.446,2.544388
2025,636.994,2.355052
2040,639.528,2.173426
2055,642.054,1.900653
2070,644.572,1.58222
2085,647.088,1.215228
2100,649.593,0.800699
2115,652.099,0.25956
2130,654.563,-0.161441
2145,657.022,-0.3621
2160,659.468,-0.437369
2175,661.918,-0.412028
2190,664.351,-0.337092
2205,666.786,-0.254643
2220,669.222,-0.172701
2235,671.667,-0.102876
2250,674.121,-0.041586
2265,676.581,0.010852
2280,679.034,0.053578
2295,681.486,0.10594
2310,683.952,0.167754
2325,686.413,0.212308
2340,688.88,0.231932
2355,691.373,0.245231
2370,693.86,0.242359
2385,696.358,0.245671
2400,698.855,0.24945
2415,701.361,0.255852
2430,703.864,0.252551
2445,706.366,0.253975
2460,708.875,0.254606
2475,711.389,0.242755
2490,713.904,0.22901
2505,716.408,0.222033
2520,718.918,0.214599
2535,721.431,0.205012
2550,723.948,0.187772
2565,726.454,0.173323
2580,728.98,0.1591
2595,731.489,0.147999
2610,734,0.136902
2625,736.52,0.121626
2640,739.023,0.11117
2655,741.54,0.10444
2670,744.051,0.09339
2685,746.559,0.078862
2700,749.077,0.072148
2715,751.578,0.077645
2730,754.1,0.066359
2745,756.607,0.057371
2760,759.116,0.057207
2775,761.623,0.046929
2790,764.129,0.037786
2805,766.64,0.037673
2820,769.141,0.031257
2835,771.651,0.022426
2850,774.157,0.018588
2865,776.667,0.014777
2880,779.175,0.016833
2895,781.685,0.006805
2910,784.191,-0.001591
2925,786.701,-0.003375
2940,789.206,-0.004066
2955,791.714,-0.005656
2970,794.213,-0.007467
2985,796.725,-0.017989
3000,799.215,-0.017383
3015,801.728,-0.024118
3030,804.235,-0.018725
3045,806.744,-0.028047
3060,809.25,-0.04223
3075,811.751,-0.048932
3090,814.251,-0.058389
3105,816.749,-0.054987
3120,819.249,-0.057483
3135,821.764,-0.060833
3150,824.259,-0.064056
3165,826.763,-0.073467
3180,829.262,-0.073694
3195,831.759,-0.069272
3210,834.26,-0.074037
3225,836.757,-0.07619
3240,839.261,-0.081571
3255,841.763,-0.082563
3270,844.259,-0.096632
3285,846.768,-0.099409
3300,849.259,-0.0984
3315,851.759,-0.098967
3330,854.256,-0.094751
3345,856.752,-0.099281
3360,859.254,-0.111419
3375,861.75,-0.120102
3390,864.248,-0.12454
3405,866.749,-0.12683
3420,869.241,-0.13131
3435,871.744,-0.139215
3450,874.234,-0.1429
3465,876.738,-0.145887
3480,879.239,-0.152137
3495,881.723,-0.154105
3510,884.227,-0.155399
3525,886.726,-0.15863
3540,889.223,-0.1658
3555,891.715,-0.171416
3570,894.199,-0.182492
3585,896.694,-0.175116
3600,899.183,-0.196441
3615,901.675,-0.209993
3630,904.17,-0.210149
3645,906.664,-0.209961
3660,909.16,-0.22979
3675,911.655,-0.235457
3690,914.139,-0.230692
3705,916.628,-0.234158
3720,919.114,-0.245898
3735,921.608,-0.249729
3750,924.097,-0.254923
3765,926.582,-0.273028
3780,929.071,-0.286716
3795,931.567,-0.288021
3810,934.056,-0.294899
3825,936.542,-0.320794
3840,939.027,-0.322958
3855,941.519,-0.31805
3870,943.999,-0.332968
3885,946.488,-0.337292
3900,948.976,-0.357048
3915,951.455,-0.361596
3930,953.946,-0.363966
3945,956.431,-0.380341
3960,958.911,-0.382095
3975,961.39,-0.397898
3990,963.872,-0.404056
4005,966.364,-0.422663
4020,968.839,-0.424948
4035,971.32,-0.443222
4050,973.801,-0.465759
4065,976.278,-0.468442
4080,978.764,-0.486445
4095,981.241,-0.498958
4110,983.724,-0.523595
4125,986.208,-0.582311
4140,988.683,-0.62305
4155,991.169,-0.655715
4170,993.649,-0.673041
4185,996.125,-0.691569
4200,998.601,-0.725128
4215,1001.072,-0.753253
4230,1003.546,-0.774101
4245,1006.026,-0.769358
4260,1008.499,-0.757284
4275,1010.972,-0.789568
4290,1013.449,-0.812445
4305,1015.92,-0.818283
4320,1018.397,-0.835163
4335,1020.864,-0.850152
4350,1023.341,-0.880501