File: PMMA/Calibration_Data/TIFP/TIFP_DSC_O2-21_10K_1.csv
Time,Temperature,Heat flow
s,K,W g-1
0,297.6031,-0.19889
15,298.9183,-0.18551
30,301.0276,-0.13283
45,303.1958,-0.09267
60,305.4102,-0.06535
75,307.6714,-0.04973
90,309.95,-0.03649
105,312.2576,-0.0199
120,314.5601,-0.01217
135,316.875,-0.00853
150,319.2268,-0.00508
165,321.5738,-0.00126
180,323.9411,0.00113
195,326.3165,-0.00393
210,328.6843,0.00408
225,331.0868,0.00902
240,333.4718,0.00945
255,335.8798,0.0143
270,338.2917,0.01678
285,340.7218,0.02377
300,343.1384,0.03036
315,345.5557,0.03357
330,348.0068,0.03474
345,350.4402,0.0334
360,352.8951,0.03338
375,355.3437,0.03372
390,357.803,0.0319
405,360.2714,0.02891
420,362.7423,0.0283
435,365.2177,0.02746
450,367.7069,0.0264
465,370.1871,0.03093
480,372.6759,0.03318
495,375.179,0.03075
510,377.663,0.0354
525,380.163,0.03975
540,382.681,0.0448
555,385.184,0.05017
570,387.685,0.05688
585,390.216,0.06691
600,392.731,0.07509
615,395.249,0.08604
630,397.771,0.09149
645,400.318,0.1014
660,402.834,0.10912
675,405.376,0.1112
690,407.899,0.11044
705,410.446,0.105
720,412.985,0.10594
735,415.52,0.10426
750,418.076,0.10017
765,420.607,0.09976
780,423.163,0.10465
795,425.716,0.1024
810,428.263,0.10527
825,430.814,0.10654
840,433.365,0.10677
855,435.921,0.11219
870,438.463,0.10906
885,441.02,0.11511
900,443.578,0.11832
915,446.13,0.11361
930,448.703,0.11294
945,451.252,0.11483
960,453.824,0.11798
975,456.388,0.11704
990,458.955,0.12022
1005,461.536,0.12307
1020,464.078,0.11507
1035,466.65,0.12226
1050,469.214,0.12503
1065,471.783,0.12234
1080,474.353,0.12248
1095,476.912,0.12268
1110,479.477,0.12555
1125,482.045,0.1292
1140,484.617,0.12838
1155,487.183,0.12483
1170,489.761,0.12212
1185,492.311,0.12689
1200,494.886,0.12022
1215,497.446,0.11965
1230,500.022,0.12599
1245,502.585,0.12475
1260,505.142,0.12923
1275,507.709,0.13208
1290,510.279,0.13525
1305,512.846,0.13656
1320,515.413,0.14032
1335,517.975,0.14658
1350,520.539,0.14417
1365,523.105,0.14884
1380,525.659,0.15853
1395,528.23,0.16629
1410,530.786,0.17312
1425,533.351,0.18353
1440,535.918,0.2042
1455,538.476,0.23849
1470,541.052,0.2766
1485,543.62,0.3324
1500,546.191,0.40239
1515,548.763,0.47858
1530,551.345,0.55501
1545,553.915,0.62113
1560,556.497,0.67323
1575,559.068,0.70496
1590,561.651,0.72383
1605,564.222,0.73764
1620,566.809,0.7615
1635,569.376,0.82016
1650,571.959,0.9178
1665,574.536,1.05837
1680,577.129,1.25904
1695,579.719,1.57685
1710,582.323,2.05264
1725,584.926,2.56283
1740,587.555,2.8498
1755,590.195,3.03583
1770,592.808,3.19368
1785,595.426,3.42287
1800,598.038,3.80066
1815,600.625,4.30212
1830,603.222,4.78639
1845,605.861,5.16195
1860,608.497,5.44374
1875,611.138,5.59408
1890,613.804,5.47668
1905,616.448,5.19007
1920,619.074,5.1324
1935,621.68,5.06052
1950,624.291,4.79709
1965,626.88,4.41014
1980,629.478,3.69405
1995,632.041,3.2612
2010,634.591,2.91864
2025,637.127,2.56883
2040,639.649,2.17206
2055,642.163,1.72414
2070,644.655,1.21476
2085,647.135,0.6331
2100,649.619,0.00526
2115,652.085,-0.50827
2130,654.535,-0.83393
2145,656.96,-0.97622
2160,659.369,-0.96448
2175,661.785,-0.8809
2190,664.198,-0.77634
2205,666.624,-0.67255
2220,669.048,-0.56604
2235,671.486,-0.46715
2250,673.915,-0.37596
2265,676.354,-0.26855
2280,678.787,-0.14172
2295,681.247,-0.02766
2310,683.712,0.05335
2325,686.181,0.10606
2340,688.67,0.1398
2355,691.164,0.15958
2370,693.665,0.17586
2385,696.157,0.18912
2400,698.665,0.19234
2415,701.173,0.19319
2430,703.674,0.19152
2445,706.19,0.18855
2460,708.697,0.17968
2475,711.204,0.17297
2490,713.723,0.17096
2505,716.227,0.16553
2520,718.745,0.15704
2535,721.254,0.15418
2550,723.77,0.14294
2565,726.284,0.13
2580,728.801,0.12316
2595,731.306,0.11462
2610,733.821,0.11155
2625,736.343,0.10269
2640,738.852,0.09964
2655,741.363,0.09057
2670,743.869,0.09569
2685,746.38,0.09119
2700,748.893,0.09034
2715,751.411,0.09337
2730,753.921,0.09318
2745,756.428,0.10334
2760,758.944,0.0958
2775,761.445,0.0976
2790,763.956,0.0957
2805,766.469,0.10068
2820,768.974,0.1073
2835,771.487,0.10368
2850,773.993,0.09877
2865,776.502,0.09581
2880,779.007,0.09486
2895,781.512,0.09768
2910,784.031,0.09755
2925,786.531,0.1015
2940,789.039,0.1031
2955,791.553,0.10678
2970,794.053,0.10862
2985,796.561,0.11106
3000,799.068,0.1129
3015,801.568,0.11011
3030,804.079,0.11188
3045,806.58,0.10584
3060,809.082,0.11109
3075,811.586,0.11171
3090,814.089,0.11108
3105,816.592,0.11302
3120,819.097,0.11659
3135,821.6,0.11942
3150,824.109,0.11314
3165,826.61,0.10772
3180,829.118,0.10414
3195,831.62,0.10357
3210,834.125,0.10571
3225,836.619,0.10556
3240,839.119,0.10379
3255,841.623,0.10443
3270,844.117,0.10339
3285,846.62,0.10384
3300,849.124,0.1071
3315,851.617,0.10668
3330,854.124,0.10872
3345,856.616,0.11116
3360,859.118,0.10914
3375,861.613,0.10719
3390,864.115,0.1029
3405,866.612,0.10915
3420,869.102,0.10245
3435,871.599,0.1083
3450,874.091,0.1074
3465,876.584,0.10556
3480,879.086,0.10642
3495,881.587,0.1023
3510,884.076,0.10251
3525,886.576,0.10216
3540,889.066,0.09741
3555,891.569,0.09363
3570,894.061,0.09247
3585,896.547,0.09076
3600,899.052,0.08526
3615,901.532,0.08138
3630,904.029,0.07583
3645,906.52,0.07836
3660,909.008,0.07069
3675,911.513,0.07067
3690,914,0.07117
3705,916.498,0.07157
3720,918.991,0.07379
3735,921.481,0.07531
3750,923.967,0.07235
3765,926.455,0.06409
3780,928.941,0.04963
3795,931.434,0.05202
3810,933.934,0.04837
3825,936.417,0.04237
3840,938.898,0.03916
3855,941.388,0.04028
3870,943.872,0.03384
3885,946.365,0.03573
3900,948.857,0.03731
3915,951.341,0.03998
3930,953.826,0.03922
3945,956.309,0.03618
3960,958.794,0.03813
3975,961.277,0.04144
3990,963.755,0.04229
4005,966.255,0.04383
4020,968.737,0.04888
4035,971.21,0.03751
4050,973.692,0.02718
4065,976.17,0.03325
4080,978.644,0.02321
4095,981.13,0.0263
4110,983.602,0.03137
4125,986.078,-0.04084
4140,988.562,-0.07514
4155,991.034,-0.09918
4170,993.527,-0.11332
4185,995.999,-0.12414
4200,998.486,-0.12793
4215,1000.962,-0.14589
4230,1003.429,-0.14694
4245,1005.91,-0.15232
4260,1008.387,-0.13767
4275,1010.857,-0.14268
4290,1013.337,-0.14905
4305,1015.813,-0.14722
4320,1018.285,-0.15467
4335,1020.752,-0.16102
4350,1023.229,-0.1741