File: PMMA/Calibration_Data/TIFP/TIFP_TGA_O2-21_10K_1.csv
Time,Temperature,Mass
s,K,mg
0,297.6031,4.47709
15,298.9183,4.47327
30,301.0276,4.47212
45,303.1958,4.47074
60,305.4102,4.46883
75,307.6714,4.46637
90,309.95,4.46485
105,312.2576,4.46325
120,314.5601,4.46173
135,316.875,4.46014
150,319.2268,4.45884
165,321.5738,4.45764
180,323.9411,4.45664
195,326.3165,4.45588
210,328.6843,4.45484
225,331.0868,4.45409
240,333.4718,4.45321
255,335.8798,4.45269
270,338.2917,4.45206
285,340.7218,4.45145
300,343.1384,4.4511
315,345.5557,4.45078
330,348.0068,4.45023
345,350.4402,4.44986
360,352.8951,4.4494
375,355.3437,4.44891
390,357.803,4.4487
405,360.2714,4.44825
420,362.7423,4.44784
435,365.2177,4.44764
450,367.7069,4.44747
465,370.1871,4.44702
480,372.6759,4.44667
495,375.179,4.44625
510,377.663,4.44593
525,380.163,4.44544
540,382.681,4.44499
555,385.184,4.44441
570,387.685,4.44381
585,390.216,4.4432
600,392.731,4.44252
615,395.249,4.44171
630,397.771,4.44089
645,400.318,4.44004
660,402.834,4.43888
675,405.376,4.43754
690,407.899,4.4363
705,410.446,4.43514
720,412.985,4.43391
735,415.52,4.43199
750,418.076,4.43096
765,420.607,4.42894
780,423.163,4.42783
795,425.716,4.42583
810,428.263,4.42491
825,430.814,4.42288
840,433.365,4.42195
855,435.921,4.42023
870,438.463,4.41911
885,441.02,4.41757
900,443.578,4.41619
915,446.13,4.4153
930,448.703,4.41389
945,451.252,4.41275
960,453.824,4.41191
975,456.388,4.41068
990,458.955,4.4092
1005,461.536,4.40842
1020,464.078,4.40767
1035,466.65,4.40655
1050,469.214,4.40545
1065,471.783,4.40468
1080,474.353,4.40414
1095,476.912,4.4034
1110,479.477,4.40265
1125,482.045,4.40186
1140,484.617,4.40094
1155,487.183,4.39985
1170,489.761,4.39917
1185,492.311,4.3986
1200,494.886,4.39801
1215,497.446,4.39685
1230,500.022,4.39605
1245,502.585,4.39556
1260,505.142,4.39474
1275,507.709,4.39386
1290,510.279,4.39308
1305,512.846,4.3922
1320,515.413,4.39107
1335,517.975,4.39094
1350,520.539,4.38943
1365,523.105,4.38806
1380,525.659,4.38762
1395,528.23,4.38634
1410,530.786,4.38441
1425,533.351,4.38184
1440,535.918,4.37818
1455,538.476,4.37248
1470,541.052,4.36501
1485,543.62,4.35501
1500,546.191,4.34188
1515,548.763,4.32558
1530,551.345,4.30599
1545,553.915,4.28416
1560,556.497,4.26179
1575,559.068,4.23999
1590,561.651,4.21852
1605,564.222,4.19557
1620,566.809,4.16924
1635,569.376,4.1379
1650,571.959,4.09999
1665,574.536,4.05287
1680,577.129,3.99358
1695,579.719,3.91767
1710,582.323,3.81631
1725,584.926,3.68506
1740,587.555,3.53981
1755,590.195,3.40337
1770,592.808,3.26244
1785,595.426,3.12613
1800,598.038,2.98244
1815,600.625,2.82764
1830,603.222,2.64634
1845,605.861,2.44083
1860,608.497,2.23361
1875,611.138,2.02981
1890,613.804,1.83182
1905,616.448,1.64535
1920,619.074,1.47604
1935,621.68,1.31077
1950,624.291,1.1575
1965,626.88,1.01589
1980,629.478,0.887
1995,632.041,0.7767
2010,634.591,0.67847
2025,637.127,0.59063
2040,639.649,0.51217
2055,642.163,0.44205
2070,644.655,0.37993
2085,647.135,0.32533
2100,649.619,0.27752
2115,652.085,0.2358
2130,654.535,0.20001
2145,656.96,0.16954
2160,659.369,0.14344
2175,661.785,0.12091
2190,664.198,0.10214
2205,666.624,0.08626
2220,669.048,0.07333
2235,671.486,0.06271
2250,673.915,0.05523
2265,676.354,0.04984
2280,678.787,0.0469
2295,681.247,0.04553
2310,683.712,0.04429
2325,686.181,0.04321
2340,688.67,0.04215
2355,691.164,0.04205
2370,693.665,0.04202
2385,696.157,0.04197
2400,698.665,0.04183
2415,701.173,0.04154
2430,703.674,0.04124
2445,706.19,0.04109
2460,708.697,0.04082
2475,711.204,0.04041
2490,713.723,0.04023
2505,716.227,0.04011
2520,718.745,0.04008
2535,721.254,0.04006
2550,723.77,0.03998
2565,726.284,0.03983
2580,728.801,0.0398
2595,731.306,0.03984
2610,733.821,0.03955
2625,736.343,0.03911
2640,738.852,0.03901
2655,741.363,0.03902
2670,743.869,0.03903
2685,746.38,0.03905
2700,748.893,0.03896
2715,751.411,0.03895
2730,753.921,0.03898
2745,756.428,0.03891
2760,758.944,0.03901
2775,761.445,0.03893
2790,763.956,0.039
2805,766.469,0.03886
2820,768.974,0.03872
2835,771.487,0.03879
2850,773.993,0.03854
2865,776.502,0.03879
2880,779.007,0.03866
2895,781.512,0.03893
2910,784.031,0.03895
2925,786.531,0.03891
2940,789.039,0.0389
2955,791.553,0.03882
2970,794.053,0.03873
2985,796.561,0.03862
3000,799.068,0.03857
3015,801.568,0.03877
3030,804.079,0.0389
3045,806.58,0.03899
3060,809.082,0.03898
3075,811.586,0.03896
3090,814.089,0.03891
3105,816.592,0.03899
3120,819.097,0.0389
3135,821.6,0.03875
3150,824.109,0.03899
3165,826.61,0.03899
3180,829.118,0.03909
3195,831.62,0.0391
3210,834.125,0.03908
3225,836.619,0.039
3240,839.119,0.03905
3255,841.623,0.03912
3270,844.117,0.03989
3285,846.62,0.03957
3300,849.124,0.0392
3315,851.617,0.0393
3330,854.124,0.03998
3345,856.616,0.03991
3360,859.118,0.03971
3375,861.613,0.04005
3390,864.115,0.04002
3405,866.612,0.0404
3420,869.102,0.04069
3435,871.599,0.04011
3450,874.091,0.04018
3465,876.584,0.04083
3480,879.086,0.04062
3495,881.587,0.03994
3510,884.076,0.04061
3525,886.576,0.04078
3540,889.066,0.04031
3555,891.569,0.0403
3570,894.061,0.04048
3585,896.547,0.04052
3600,899.052,0.03999
3615,901.532,0.04014
3630,904.029,0.04086
3645,906.52,0.04048
3660,909.008,0.0405
3675,911.513,0.04089
3690,914,0.04087
3705,916.498,0.04071
3720,918.991,0.04058
3735,921.481,0.041
3750,923.967,0.04095
3765,926.455,0.04051
3780,928.941,0.04083
3795,931.434,0.04099
3810,933.934,0.04075
3825,936.417,0.04046
3840,938.898,0.041
3855,941.388,0.04089
3870,943.872,0.04034
3885,946.365,0.04098
3900,948.857,0.04098
3915,951.341,0.04062
3930,953.826,0.04093
3945,956.309,0.04099
3960,958.794,0.04076
3975,961.277,0.04087
3990,963.755,0.04099
4005,966.255,0.04119
4020,968.737,0.041
4035,971.21,0.04101
4050,973.692,0.04077
4065,976.17,0.041
4080,978.644,0.04081
4095,981.13,0.04067
4110,983.602,0.04098
4125,986.078,0.04089
4140,988.562,0.04076
4155,991.034,0.04089
4170,993.527,0.0402
4185,995.999,0.04099
4200,998.486,0.04023
4215,1000.962,0.041
4230,1003.429,0.04095
4245,1005.91,0.04087
4260,1008.387,0.04098
4275,1010.857,0.04088
4290,1013.337,0.041
4305,1015.813,0.04067
4320,1018.285,0.04099
4335,1020.752,0.04089
4350,1023.229,0.041