File: PMMA/Calibration_Data/TIFP/TIFP_Cone_25kW_2.csv
Time,Mass,HRR,Back Surface Temperature 1,Back Surface Temperature 2
[s],[g],[kW/m2],[K],[K]
0,71.72,2.91282,298.15,299.25
4,71.6008,1.69116,298.15,299.25
8,71.22134,2.17758,298.15,299.25
12,71.1708,2.00149,298.25,299.35
16,71.002,2.49806,298.45,299.45
20,70.9114,3.6664,298.75,299.75
24,70.91769,4.58993,299.45,300.25
28,70.86942,6.59469,301.55,301.15
32,70.81423,6.16915,303.35,303.35
36,70.8041,6.47773,305.55,305.05
40,70.7947,5.41251,308.95,306.95
44,70.7865,3.89915,311.85,309.25
48,70.8309,6.82055,314.95,312.55
52,70.8001,6.1382,318.25,315.15
56,70.8241,6.21945,321.65,317.95
60,70.8377,6.43961,325.25,320.85
64,70.8444,7.93399,328.95,323.85
68,70.8844,8.70918,332.55,326.85
72,70.9097,10.3472,336.35,329.85
76,70.9528,12.8319,340.15,332.95
80,70.8717,11.5571,343.85,336.05
84,70.9776,13.3196,347.65,338.75
88,71.0113,10.633,351.35,341.55
92,71.0676,23.6883,355.15,344.45
96,71.1034,64.3128,358.85,347.25
100,71.0633,158.176,362.55,350.35
104,70.77286,233.463,366.15,353.25
108,70.4395,275.503,369.65,356.15
112,70.0323,310.671,373.05,359.05
116,69.6138,330.522,376.55,361.95
120,69.1248,330.73,380.05,364.85
124,68.648,347.468,383.55,367.75
128,68.1878,348.909,388.35,370.85
132,67.6403,357.279,392.05,373.85
136,67.08743,355.159,395.65,377.05
140,66.5121,359.938,399.35,381.05
144,66.0099,355.139,403.05,384.05
148,65.7779,370.46,406.65,386.95
152,65.2251,372.981,410.45,390.05
156,64.6915,386.225,414.05,393.25
160,64.1311,384.094,417.65,396.55
164,63.5851,390.562,421.35,399.95
168,63.0366,396.413,425.05,403.25
172,62.4604,388.637,428.65,406.45
176,61.865,392.306,432.15,409.65
180,61.37302,380.075,435.75,413.25
184,60.8112,399.287,439.35,416.15
188,60.2469,415.629,442.75,419.35
192,59.6997,411.362,446.35,422.55
196,59.164,425.539,449.95,425.75
200,58.5554,399.952,453.65,429.75
204,58.0213,418.372,457.35,433.45
208,57.4237,416.051,462.05,436.75
212,56.8481,410.372,465.15,440.45
216,56.2559,421.197,468.15,443.95
220,55.6372,428.609,471.25,448.95
224,55.0351,428.188,473.75,452.85
228,54.4113,436.202,475.85,456.75
232,53.7455,442.334,478.05,460.75
236,53.1465,438.582,479.45,464.55
240,52.5228,435.116,481.45,467.95
244,51.8384,444.261,484.25,471.65
248,51.214,432.598,487.35,475.35
252,50.691,447.893,490.55,479.15
256,49.9874,460.967,493.85,482.75
260,49.281,454.507,497.35,486.35
264,48.603,467.223,500.55,490.05
268,48.0338,475.354,503.85,493.45
272,47.3308,468.055,507.25,496.25
276,46.6027,488.788,510.65,499.25
280,45.8659,486.488,514.25,502.45
284,45.9422,481.178,517.85,505.95
288,45.1594,518.697,522.65,509.35
292,44.4836,520.615,525.15,512.55
296,43.76114,511.7675,528.75,515.45
300,43.10344,495.061,533.45,518.55
304,42.4069,498.638,536.95,521.85
308,41.7186,478.688,540.75,526.25
312,41.0541,504.868,544.45,529.55
316,40.3644,507.45,548.35,533.25
320,39.7661,504.282,552.45,537.35
324,39.0878,518.739,556.55,541.65
328,38.3907,522.38,560.75,545.35
332,37.7085,501.119,565.05,549.75
336,36.989,520.71,569.35,555.05
340,36.3123,514.694,573.45,561.75
344,35.5724,530.368,577.35,567.15
348,34.8491,518.138,581.25,572.55
352,34.1258,544.571,585.25,578.05
356,33.4305,520.727,589.15,583.55
360,32.718,530.17,593.05,588.15
364,31.9929,543.089,597.15,592.45
368,31.2437,542.537,601.35,596.65
372,30.5036,545.742,607.05,600.55
376,29.7789,531.792,609.95,604.55
380,29.0313,538.97,614.35,608.45
384,28.3412,527.386,619.65,612.55
388,27.6571,522.374,623.95,617.15
392,26.8462,548.083,628.55,622.35
396,26.0516,561.808,634.75,625.45
400,25.22755,547.925,645.05,628.25
404,24.4061,548.189,,
408,23.6024,560.357,,
412,22.6801,539.278,,
416,22.6258,527.007,,
420,22.086,518.973,,
424,21.2336,520.462,,
428,20.5024,528.051,,
432,19.7453,509.198,,
436,18.9768,475.636,,
440,18.21806,439.267,,
444,17.6415,410.521,,
448,17.1732,369.391,,
452,16.5215,335.443,,
456,16.39248,295.808,,
460,15.9576,274.104,,
464,15.5434,246.309,,
468,15.0561,225.409,,
472,14.58811,218.086,,
476,14.2952,204.651,,
480,14.0585,184.928,,
484,13.6643,168.236,,
488,13.4536,153.902,,
492,13.2519,151.273,,
496,13.0587,146.297,,
500,12.8334,138.046,,
504,12.6487,132.741,,
508,12.45012,127.873,,
512,12.2549,125.015,,
516,12.0447,119.918,,
520,11.88947,119.352,,
524,11.7248,116.581,,
528,11.5351,116.663,,
532,11.3608,114.462,,
536,11.1966,115.376,,
540,11.0289,111.313,,
544,10.8547,112.719,,
548,10.743,106.508,,
552,10.5496,104.133,,
556,10.4023,103.89,,
560,10.3044,103.511,,
564,10.6154,98.0891,,
568,10.4834,98.6044,,
572,10.3252,96.6748,,
576,10.2065,97.5973,,
580,10.06771,95.2799,,
584,9.885487,93.003,,
588,9.732983,93.2912,,
592,9.615465,94.5466,,
596,9.485591,94.6151,,
600,9.355269,88.1375,,
604,9.21138,88.5038,,
608,9.09144,90.0695,,
612,8.956507,91.147,,
616,8.858645,91.0751,,
620,8.715116,88.2275,,
624,8.625428,90.3342,,
628,8.503956,85.2611,,
632,8.372558,80.0941,,
636,8.267042,81.1601,,
640,8.168164,81.0424,,
644,8.041858,79.8011,,
648,7.943219,81.3644,,
652,7.810381,80.995,,
656,7.696958,81.1803,,
660,7.602453,81.5014,,
664,7.46464,81.9889,,
668,7.342635,80.0619,,
672,7.224939,83.3552,,
676,7.120741,83.2405,,
680,6.977235,82.3618,,
684,6.918022,82.1951,,
688,6.771248,82.0075,,
692,6.700353,83.764,,
696,6.573475,79.8614,,
700,6.443556,81.5682,,
704,6.323278,80.717,,
708,6.236872,75.7905,,
712,6.065902,75.8146,,
716,5.999924,83.5156,,
720,5.872749,81.5497,,
724,5.779142,76.7046,,
728,5.675272,73.7713,,
732,5.57487,69.9236,,
736,5.516946,67.7478,,
740,5.440058,64.4502,,
744,5.334086,64.1258,,
748,5.238196,60.7806,,
752,5.155321,60.215,,
756,5.094984,57.7747,,
760,5.028604,56.4209,,
764,4.966124,53.9788,,
768,4.886547,55.3988,,
772,4.830165,50.5577,,
776,4.767396,51.47652,,
780,4.692314,51.1523,,
784,4.639605,48.5544,,
788,4.566646,47.7795,,
792,4.519159,46.1678,,
796,4.466824,44.7466,,
800,4.415239,43.9183,,
804,4.359531,43.1716,,
808,4.289876,40.391,,
812,4.227042,40.5424,,
816,4.178406,39.6447,,
820,4.126615,39.0166,,
824,4.067148,37.9335,,
828,4.01726,36.011,,
832,3.956962,36.0649,,
836,3.905546,36.2068,,
840,3.858579,36.2029,,
844,3.799002,36.1106,,
848,3.755035,35.8716,,
852,3.697734,35.0269,,
856,3.669138,35.4993,,
860,3.613066,34.8555,,
864,3.564016,33.9603,,
868,3.517,32.7326,,
872,3.487464,30.2588,,
876,3.410944,30.2103,,
880,3.393635,30.1523,,
884,3.336517,28.1702,,
888,3.321643,25.5101,,
892,3.272994,25.6441,,
896,3.263483,25.4851,,
900,3.22092,23.4292,,
904,3.191174,24.108,,
908,3.17319,22.1348,,
912,3.165412,20.9236,,
916,3.137059,21.1531,,
920,3.111815,22.2914,,
924,3.101623,21.1225,,
928,3.070216,19.5227,,
932,3.055321,18.6592,,
936,3.038899,16.8022,,
940,3.068924,17.6312,,
944,3.02685,15.9624,,
948,2.990431,15.37041,,
952,2.992824,12.6956,,
956,2.869425,12.4043,,
960,2.922656,11.0404,,
964,2.862453,10.0412,,
968,2.838022,9.16976,,
972,2.810145,9.63814,,
976,2.78783,8.02461,,
980,2.771351,9.35105,,
984,2.749886,10.2412,,
988,2.756396,9.59709,,
992,2.737417,8.53142,,
996,2.736127,8.93279,,
1000,2.748599,8.72793,,