File: PMMA/Validation_Results/NIST-StMU-FSRI/NIST-StMU-FSRI_Gasification_q50_MLR_R5.csv
Time,MLR
[s],[g/m2/s]
0,0
2,0.00017287
4.01,0.001625026
6.01,0.007987354
8.01,0.0262247
10.01,0.0666404
12.01,0.14165
14.01,0.263068
16.01,0.437981
18,0.663646
20,0.926442
22,1.20254
24,1.4617
26,1.67765
28,1.8351
30,1.93419
32,1.99092
34,2.03357
36,2.09575
38,2.20844
40,2.39369
42,2.66229
44.01,3.01662
46.01,3.4456
48.01,3.937951
50.01,4.47776
52.01,5.0478
54.01,5.63129
56.01,6.21334
58.01,6.78234
60.01,7.33006
62.01,7.851922
64.01,8.34479
66.01,8.80863
68.01,9.2438
70.01,9.65111
72.01,10.033
74,10.3898
76,10.7259
78,11.0417
80,11.3408
82,11.621
84,11.8888
86,12.1413
88,12.3814
90,12.6123
92,12.8297
94,13.0414
96,13.243
98,13.4368
100,13.6217
102,13.8066
104,13.9814
106,14.14943
108,14.31407
110,14.4785
112,14.6359
114,14.7896
116,14.9379
118,15.0845
120,15.2351
122,15.37805
124,15.51704
126,15.657
128,15.7929
130,15.9302
132,16.06878
134,16.203
136,16.3347
138,16.4641
140,16.59669
142,16.727
144,16.8616
146,16.9913
148,17.1223
150,17.251
152,17.3779
154,17.5053
156,17.6384
158,17.7703
160.01,17.89972
162.01,18.0265
164.01,18.1572
166.01,18.2847
168.01,18.4106
170.01,18.5382
172.01,18.6743
174.01,18.80331
176.01,18.93
178.01,19.055
180.01,19.1838
182.01,19.3102
184.01,19.4336
186.01,19.5636
188.01,19.69101
190.01,19.8164
192.01,19.9387
194.01,20.05826
196.01,20.1777
198.01,20.2999
200.01,20.4167
202.01,20.5398
204.01,20.6548
206.01,20.77047
208.01,20.8842
210.01,20.9933
212.01,21.1
214.01,21.20828
216.01,21.31804
218.01,21.4264
220.01,21.529
222.01,21.6279
224.01,21.7309
226.01,21.8296
228.01,21.9241
230.01,22.0199
232.01,22.1205
234.01,22.2196
236.01,22.3157
238.01,22.4096
240.01,22.502
242.01,22.6048
244.01,22.7018
246.01,22.8014
248.01,22.9103
250.01,23.0209
252.01,23.1334
254.01,23.2498
256.01,23.36822
258.01,23.4987
260.01,23.6359
262.01,23.7836
264.01,23.9368
266.01,24.0962
268.01,24.2682
270.01,24.4487
272.01,24.6327
274.01,24.8285
276.01,25.0417
278.01,25.2533
280.01,25.4702
282.01,25.6905
284.01,25.9178
286.01,26.1489
288.01,26.37817
290.01,26.6095
292.01,26.8407
294.01,27.0657
296.01,27.2864
298.01,27.5024
300.01,27.7146
302.01,27.9286
304.01,28.1276
306.01,28.3191
308.01,28.50628
310.01,28.6878
312.01,28.8576
314.01,29.0218
316.01,29.17858
318.01,29.3328
320.01,29.4764
322.01,29.6088
324.01,29.7366
326.01,29.8607
328.01,29.9766
330.01,30.0913
332.01,30.197
334.01,30.2945
336.01,30.3978
338.01,30.4879
340.01,30.5758
342.01,30.6631
344.01,30.7501
346.01,30.8317
348.01,30.9098
350.01,30.9821
352.01,31.0602
354.01,31.1331
356.01,31.2001
358.01,31.2681
360.01,31.3319
362.01,31.395
364.01,31.4497
366.01,31.5059
368.01,31.5515
370.01,31.5927
372.01,31.6142
374.01,31.62636
376.01,31.6335
378.01,31.6212
380.01,31.5832
382.01,31.5049
384.01,31.379
386.01,31.1843
388.01,30.8882
390.01,30.4438
392.01,30.0432
394.01,29.3482
396.01,28.3948
398.01,27.4029
400.01,25.6391
402.01,23.83166
404.01,20.3842
406.01,15.6313
408.01,4.221467
410.01,0.000256038
412.01,3.18276E-15
414.01,0
416.01,0
418.01,0
420.01,0
422.01,0
424.01,0
426.01,0
428.01,0
430.01,0
432.01,0
434.01,0
436.01,0
438.01,0
440.01,0
442.01,0
444.01,0
446.01,0
448.01,0
450.01,0
452.01,0
454.01,0
456.01,0
458.01,0
460.01,0
462.01,0
464.01,0
466.01,0
468.01,0
470.01,0
472.01,0
474.01,0
476.01,0
478.01,0
480.01,0
482.01,0
484.01,0
486.01,0
488.01,0
490.01,0
492.01,0
494.01,0
496.01,0
498.01,0
500,0