File: PMMA/Validation_Results/NIST-StMU-FSRI/NIST-StMU-FSRI_Gasification_q50_MLR_R3.csv
Time,MLR
[s],[g/m2/s]
0,0
2,0.000172134
4.01,0.001642953
6.01,0.008081629
8.01,0.0265157
10.01,0.0673173
12.01,0.142948
14.01,0.265205
16.01,0.441062
18,0.667552
20,0.930784
22,1.206701
24,1.46498
26,1.6795
28,1.83531
30,1.933
32,1.98903
34,2.03201
36,2.095678
38,2.21086
40,2.39928
42,2.6713
44.01,3.02894
46.01,3.46092
48.01,3.95592
50.01,4.49797
52.01,5.06979
54.01,5.65453
56.01,6.23754
58.01,6.80729
60.01,7.35583
62.01,7.87831
64.01,8.37264
66.01,8.83819
68.01,9.27524
70.01,9.6851
72.01,10.0692
74,10.42881
76,10.7697
78,11.0898
80,11.3937
82,11.6805
84,11.9544
86,12.2132
88,12.4634
90,12.7009
92,12.9294
94,13.1512
96,13.3616
98,13.568
100,13.76884
102,13.9625
104,14.1497
106,14.3353
108,14.5181
110,14.6933
112,14.86598
114,15.0368
116,15.2076
118,15.3746
120,15.53761
122,15.69787
124,15.8596
126,16.0235
128,16.1807
130,16.3376
132,16.4939
134,16.6479
136,16.8057
138,16.9639
140,17.1174
142,17.2688
144,17.422
146,17.574
148,17.7309
150,17.8828
152,18.0366
154,18.18699
156,18.3355
158,18.48391
160.01,18.6386
162.01,18.791
164.01,18.9377
166.01,19.0845
168.01,19.2316
170.01,19.3744
172.01,19.5166
174.01,19.6639
176.01,19.8084
178.01,19.9469
180.01,20.0816
182.01,20.2186
184.01,20.3519
186.01,20.4826
188.01,20.6163
190.01,20.7454
192.01,20.8732
194.01,20.9943
196.01,21.1135
198.01,21.2321
200.01,21.3492
202.01,21.4692
204.01,21.5825
206.01,21.6926
208.01,21.806
210.01,21.9122
212.01,22.0188
214.01,22.1239
216.01,22.2383
218.01,22.3491
220.01,22.4563
222.01,22.5638
224.01,22.6804
226.01,22.7942
228.01,22.9124
230.01,23.0396
232.01,23.1732
234.01,23.311
236.01,23.4514
238.01,23.60101
240.01,23.7639
242.01,23.93213
244.01,24.1164
246.01,24.3043
248.01,24.5048
250.01,24.7144
252.01,24.9267
254.01,25.15052
256.01,25.389
258.01,25.6257
260.01,25.8663
262.01,26.1062
264.01,26.3529
266.01,26.5951
268.01,26.835
270.01,27.076
272.01,27.3128
274.01,27.53882
276.01,27.7599
278.01,27.9712
280.01,28.1833
282.01,28.3854
284.01,28.5763
286.01,28.7589
288.01,28.9371
290.01,29.1022
292.01,29.261
294.01,29.40806
296.01,29.5571
298.01,29.6943
300.01,29.8218
302.01,29.9423
304.01,30.0586
306.01,30.1686
308.01,30.2751
310.01,30.37567
312.01,30.4714
314.01,30.5661
316.01,30.6548
318.01,30.7389
320.01,30.8202
322.01,30.9025
324.01,30.9832
326.01,31.0543
328.01,31.1287
330.01,31.2008
332.01,31.26681
334.01,31.3321
336.01,31.3929
338.01,31.4521
340.01,31.5031
342.01,31.5515
344.01,31.5895
346.01,31.614
348.01,31.6293
350.01,31.6278
352.01,31.6104
354.01,31.5645
356.01,31.4863
358.01,31.3519
360.01,31.15103
362.01,30.8483
364.01,30.3897
366.01,29.9589
368.01,29.2875
370.01,28.285
372.01,27.29554
374.01,25.52542
376.01,23.601
378.01,20.2229
380.01,15.2627
382.01,3.52839
384.01,8.3207E-05
386.01,3.25992E-16
388.01,0
390.01,0
392.01,0
394.01,0
396.01,0
398.01,0
400.01,0
402.01,0
404.01,0
406.01,0
408.01,0
410.01,0
412.01,0
414.01,0
416.01,0
418.01,0
420.01,0
422.01,0
424.01,0
426.01,0
428.01,0
430.01,0
432.01,0
434.01,0
436.01,0
438.01,0
440.01,0
442.01,0
444.01,0
446.01,0
448.01,0
450.01,0
452.01,0
454.01,0
456.01,0
458.01,0
460.01,0
462.01,0
464.01,0
466.01,0
468.01,0
470.01,0
472.01,0
474.01,0
476.01,0
478.01,0
480.01,0
482.01,0
484.01,0
486.01,0
488.01,0
490.01,0
492.01,0
494.01,0
496.01,0
498.01,0
500,0