File: PMMA/Validation_Results/NIST-StMU-FSRI/NIST-StMU-FSRI_Gasification_q50_MLR_R4.csv
Time,MLR
[s],[g/m2/s]
0,0
2,0.000172191
4.01,0.001644487
6.01,0.008089207
8.01,0.0265389
10.01,0.0673709
12.01,0.14305
14.01,0.2653733
16.01,0.441305
18,0.66786
20,0.931124
22,1.20703
24,1.46523
26,1.67964
28,1.83532
30,1.9329
32,1.98888
34,2.03188
36,2.095672
38,2.21105
40,2.39972
42,2.67199
44.01,3.02989
46.01,3.4621
48.01,3.95729
50.01,4.4995
52.01,5.07143
54.01,5.65623
56.01,6.23928
58.01,6.80903
60.01,7.3576
62.01,7.88008
64.01,8.37444
66.01,8.84
68.01,9.277059
70.01,9.68695
72.01,10.0712
74,10.43075
76,10.77177
78,11.0922
80,11.3962
82,11.6834
84,11.9572
86,12.2165
88,12.4667
90,12.7045
92,12.9338
94,13.1555
96,13.3663
98,13.5736
100,13.7744
102,13.9685
104,14.156
106,14.3431
108,14.5255
110,14.7012
112,14.8747
114,15.0468
116,15.2172
118,15.3852
120,15.5484
122,15.7093
124,15.8732
126,16.03655
128,16.1941
130,16.3525
132,16.5087
134,16.6634
136,16.8231
138,16.9814
140,17.135
142,17.2873
144,17.4417
146,17.5941
148,17.75192
150,17.9041
152,18.05884
154,18.2092
156,18.3587
158,18.5086
160.01,18.6647
162.01,18.8158
164.01,18.9624
166.01,19.1114
168.01,19.2574
170.01,19.401
172.01,19.5426
174.01,19.6924
176.01,19.8358
178.01,19.9737
180.01,20.1092
182.01,20.2467
184.01,20.3791
186.01,20.5101
188.01,20.6439
190.01,20.7743
192.01,20.9004
194.01,21.0205
196.01,21.1403
198.01,21.2598
200.01,21.376
202.01,21.4966
204.01,21.6084
206.01,21.7215
208.01,21.8322
210.01,21.9383
212.01,22.0452
214.01,22.1529
216.01,22.2676
218.01,22.3774
220.01,22.4841
222.01,22.5964
224.01,22.7113
226.01,22.8262
228.01,22.9463
230.01,23.0776
232.01,23.213
234.01,23.3523
236.01,23.49437
238.01,23.6497
240.01,23.8147
242.01,23.9885
244.01,24.1748
246.01,24.3671
248.01,24.5719
250.01,24.7822
252.01,24.9983
254.01,25.2271
256.01,25.4676
258.01,25.7059
260.01,25.9461
262.01,26.1888
264.01,26.4361
266.01,26.6751
268.01,26.9183
270.01,27.1586
272.01,27.3912
274.01,27.6163
276.01,27.8341
278.01,28.0446
280.01,28.255
282.01,28.4527
284.01,28.64213
286.01,28.82231
288.01,28.9963
290.01,29.1594
292.01,29.3145
294.01,29.4581
296.01,29.6094
298.01,29.73973
300.01,29.86522
302.01,29.98454
304.01,30.1
306.01,30.208
308.01,30.3132
310.01,30.4102
312.01,30.509
314.01,30.599
316.01,30.6841
318.01,30.7696
320.01,30.8508
322.01,30.9335
324.01,31.0103
326.01,31.0817
328.01,31.1548
330.01,31.225
332.01,31.29141
334.01,31.3554
336.01,31.4154
338.01,31.47165
340.01,31.5226
342.01,31.56719
344.01,31.6018
346.01,31.6204
348.01,31.6295
350.01,31.6219
352.01,31.5971
354.01,31.5396
356.01,31.444
358.01,31.2859
360.01,31.0465
362.01,30.6908
364.01,30.2535
366.01,29.6529
368.01,29.03052
370.01,27.9426
372.01,26.5014
374.01,24.91579
376.01,21.8793
378.01,18.7957
380.01,11.8626
382.01,0.374801
384.01,2.4269E-08
386.01,0
388.01,0
390.01,0
392.01,0
394.01,0
396.01,0
398.01,0
400.01,0
402.01,0
404.01,0
406.01,0
408.01,0
410.01,0
412.01,0
414.01,0
416.01,0
418.01,0
420.01,0
422.01,0
424.01,0
426.01,0
428.01,0
430.01,0
432.01,0
434.01,0
436.01,0
438.01,0
440.01,0
442.01,0
444.01,0
446.01,0
448.01,0
450.01,0
452.01,0
454.01,0
456.01,0
458.01,0
460.01,0
462.01,0
464.01,0
466.01,0
468.01,0
470.01,0
472.01,0
474.01,0
476.01,0
478.01,0
480.01,0
482.01,0
484.01,0
486.01,0
488.01,0
490.01,0
492.01,0
494.01,0
496.01,0
498.01,0
500,0