File: Wood/Calibration_Data/MFSL/MFSL_TGA_N2_10K_R2.csv
Time(s),Temperature (K),Mass (mg)
0,291.311,5.079
33,291.377,5.0801
66,291.792,5.0791
134.9502,294.948,5.063
299.9502,307.276,4.9562
464.9502,313.999,4.8505
629.9502,315.674,4.7987
794.9502,315.202,4.7782
959.9502,314.241,4.7702
1124.95,313.507,4.7656
1289.95,313.107,4.7605
1454.95,312.985,4.7619
1619.95,312.943,4.7625
1784.95,312.988,4.7626
1896.05,313.026,4.7622
1912.55,313.059,4.7611
1929.05,313.139,4.7611
1945.55,313.341,4.7625
1962.05,313.708,4.7628
1978.55,314.282,4.7616
1995.05,315.084,4.7631
2011.55,316.139,4.7619
2028.05,317.494,4.7636
2044.55,319.116,4.7627
2061.05,321.03,4.7618
2077.55,323.221,4.7624
2094.05,325.696,4.7603
2110.55,328.407,4.7581
2127.05,331.372,4.7575
2143.55,334.519,4.7552
2160.05,337.823,4.7544
2176.55,341.278,4.7543
2193.05,344.833,4.7493
2209.55,348.466,4.748
2226.05,352.127,4.7459
2242.55,355.848,4.7432
2259.05,359.592,4.7408
2275.55,363.344,4.7387
2292.05,367.078,4.7351
2308.55,370.8,4.7341
2325.05,374.481,4.7323
2341.55,378.165,4.7318
2358.05,381.754,4.7309
2374.55,385.295,4.7282
2391.05,388.787,4.7265
2407.55,392.23,4.7265
2424.05,395.656,4.7264
2440.55,399.019,4.7286
2457.05,402.346,4.729
2473.55,405.664,4.7294
2490.05,408.916,4.7295
2506.55,412.169,4.7295
2523.05,415.392,4.7295
2539.55,418.584,4.7295
2556.05,421.74,4.7283
2572.55,424.845,4.7271
2589.05,427.935,4.7268
2605.55,430.99,4.7253
2622.05,434.008,4.723
2638.55,436.997,4.7201
2655.05,439.965,4.7177
2671.55,442.872,4.7169
2688.05,445.792,4.7132
2704.55,448.684,4.71
2721.05,451.54,4.7044
2737.55,454.403,4.6977
2754.05,457.242,4.6923
2770.55,460.059,4.6881
2787.05,462.87,4.6808
2803.55,465.671,4.6743
2820.05,468.455,4.6667
2836.55,471.249,4.6593
2853.05,474.019,4.6509
2869.55,476.787,4.6411
2886.05,479.529,4.6332
2902.55,482.281,4.6239
2919.05,485.018,4.6154
2935.55,487.764,4.6055
2952.05,490.492,4.5966
2968.55,493.213,4.5859
2985.05,495.945,4.5759
3001.55,498.671,4.5646
3018.05,501.38,4.5524
3034.55,504.097,4.5369
3051.05,506.824,4.5229
3067.55,509.545,4.5065
3084.05,512.261,4.489
3100.55,514.973,4.4715
3117.05,517.692,4.4515
3133.55,520.404,4.4301
3150.05,523.117,4.4076
3166.55,525.829,4.3829
3183.05,528.55,4.3583
3199.55,531.258,4.3276
3216.05,533.955,4.2957
3232.55,536.679,4.2625
3249.05,539.383,4.23
3265.55,542.089,4.1959
3282.05,544.806,4.1587
3298.55,547.5,4.1219
3315.05,550.216,4.0852
3331.55,552.916,4.0456
3348.05,555.623,3.9995
3364.55,558.348,3.9614
3381.05,561.067,3.913
3397.55,563.767,3.8696
3414.05,566.493,3.8217
3430.55,569.193,3.7745
3447.05,571.9,3.7266
3463.55,574.61,3.6761
3480.05,577.334,3.6213
3496.55,580.041,3.5654
3513.05,582.767,3.5045
3529.55,585.478,3.4407
3546.05,588.192,3.3745
3562.55,590.9,3.3027
3579.05,593.608,3.2296
3595.55,596.332,3.146
3612.05,599.054,3.0735
3628.55,601.767,2.9863
3645.05,604.475,2.8979
3661.55,607.198,2.8133
3678.05,609.922,2.729
3694.55,612.638,2.6435
3711.05,615.354,2.5515
3727.55,618.068,2.4546
3744.05,620.788,2.3583
3760.55,623.511,2.258
3777.05,626.217,2.1528
3793.55,628.94,2.0432
3810.05,631.668,1.9286
3826.55,634.382,1.8152
3843.05,637.105,1.702
3859.55,639.817,1.5927
3876.05,642.533,1.4946
3892.55,645.262,1.418
3909.05,647.991,1.3585
3925.55,650.716,1.3169
3942.05,653.454,1.288
3958.55,656.194,1.2719
3975.05,658.92,1.2597
3991.55,661.652,1.2493
4008.05,664.383,1.2387
4024.55,667.111,1.2299
4041.05,669.842,1.22
4057.55,672.565,1.2114
4074.05,675.306,1.2025
4090.55,678.04,1.1942
4107.05,680.766,1.1845
4123.55,683.504,1.1761
4140.05,686.219,1.1679
4156.55,688.961,1.159
4173.05,691.688,1.1519
4189.55,694.424,1.1436
4206.05,697.143,1.136
4222.55,699.866,1.1296
4239.05,702.599,1.1217
4255.55,705.311,1.1128
4272.05,708.043,1.1032
4288.55,710.779,1.0942
4305.05,713.521,1.0857
4321.55,716.251,1.0776
4338.05,718.997,1.0695
4354.55,721.741,1.0612
4371.05,724.478,1.0529
4387.55,727.209,1.045
4404.05,729.951,1.0374
4420.55,732.688,1.0275
4437.05,735.431,1.0188
4453.55,738.157,1.0092
4470.05,740.893,1.0016
4486.55,743.635,0.9939
4503.05,746.375,0.985
4519.55,749.107,0.9748
4536.05,751.837,0.9669
4552.55,754.567,0.9581
4569.05,757.313,0.95
4585.55,760.039,0.9423
4602.05,762.762,0.9349
4618.55,765.499,0.9272
4635.05,768.236,0.9174
4651.55,770.977,0.9073
4668.05,773.724,0.8976
4684.55,776.47,0.8905
4701.05,779.207,0.8812
4717.55,781.956,0.8697
4734.05,784.693,0.86
4750.55,787.443,0.8486
4767.05,790.188,0.8391
4783.55,792.93,0.8297
4800.05,795.668,0.8186
4816.55,798.419,0.8107
4833.05,801.149,0.8046
4849.55,803.882,0.7996
4866.05,806.612,0.7909
4882.55,809.357,0.7806
4899.05,812.094,0.7701
4915.55,814.836,0.7593
4932.05,817.587,0.7489
4948.55,820.328,0.738
4965.05,823.083,0.726
4981.55,825.836,0.7144
4998.05,828.573,0.7066
5014.55,831.316,0.6981
5031.05,834.062,0.6881
5047.55,836.796,0.678
5064.05,839.55,0.6698
5080.55,842.298,0.6609
5097.05,845.049,0.6508
5113.55,847.802,0.641
5130.05,850.553,0.6307
5146.55,853.303,0.6199
5163.05,856.062,0.6099
5179.55,858.801,0.6013
5196.05,861.558,0.5924
5212.55,864.294,0.5824
5229.05,867.035,0.5728
5245.55,869.779,0.5639
5262.05,872.52,0.5545
5278.55,875.276,0.5439
5295.05,878.027,0.5347
5311.55,880.789,0.5249
5328.05,883.535,0.5132
5344.55,886.293,0.5051
5361.05,889.07,0.4978
5377.55,891.808,0.4888
5394.05,894.566,0.4806
5410.55,897.308,0.4715
5427.05,900.073,0.4615
5443.55,902.818,0.4524
5460.05,905.581,0.4438
5476.55,908.328,0.4359
5493.05,911.096,0.4276
5509.55,913.833,0.4173
5526.05,916.587,0.4083
5542.55,919.356,0.3995
5559.05,922.107,0.3896
5575.55,924.868,0.3817
5592.05,927.625,0.3746
5608.55,930.385,0.3662
5625.05,933.135,0.3579
5641.55,935.887,0.3486
5658.05,938.658,0.3393
5674.55,941.415,0.3306
5691.05,944.177,0.3229
5707.55,946.918,0.3162
5724.05,949.665,0.3097
5740.55,952.422,0.302
5757.05,955.169,0.2945
5773.55,957.93,0.288
5790.05,960.672,0.2797
5806.55,963.42,0.2719
5823.05,966.178,0.266
5839.55,968.937,0.2586
5856.05,971.704,0.2514
5872.55,974.456,0.2435
5889.05,977.214,0.2361
5905.55,979.979,0.2281
5922.05,982.738,0.2175
5938.55,985.495,0.2096
5955.05,988.248,0.2027
5971.55,991.018,0.1952
5988.05,993.765,0.1897
6004.55,996.525,0.1857
6021.05,999.28,0.1809
6037.55,1002.03,0.1759
6054.05,1004.79,0.1721
6070.55,1007.538,0.1691
6087.05,1010.29,0.1658
6103.55,1013.05,0.1606
6120.05,1015.82,0.1577
6136.55,1018.57,0.1522
6153.05,1021.33,0.1469
6169.55,1024.1,0.1403
6186.05,1026.85,0.1331
6202.55,1029.6,0.1283
6219.05,1032.36,0.1219
6235.55,1035.12,0.117
6252.05,1037.87,0.1139
6268.55,1040.63,0.1069
6285.05,1043.39,0.1006
6301.55,1046.16,0.0952998
6318.05,1048.921,0.0898998
6334.55,1051.67,0.08739994
6351.05,1054.43,0.0862998
6367.55,1057.17,0.0850001
6384.05,1059.93,0.0823001
6400.55,1062.689,0.0788002
6417.05,1065.44,0.0743002
6433.55,1068.21,0.0712
6450.1,1070.97,0.06690008
6615.1,1073.62,0.0461001
6780.1,1073.48,0.0466999
6945.1,1073.3,0.0410002
7110.1,1073.2,0.0407001
7275.1,1073.163,0.04440011
7347.1,1073.14,0.0448999