File: Wood/Calibration_Data/MFSL/MFSL_TGA_N2_10K_R3.csv
Time (s),Temperature (K),Mass (mg)
0,293.644,4.8355
33,293.722,4.8414
66,294.124,4.8374
134.85,297.187,4.8106
299.85,308.827,4.7066
464.85,314.801,4.6243
629.85,315.96,4.5847
794.85,315.267,4.5682
959.85,314.204,4.561
1124.85,313.457,4.5631
1289.85,313.088,4.559
1454.85,312.941,4.5625
1619.85,312.962,4.565
1784.85,313.026,4.5665
1895.95,313.057,4.5702
1912.45,313.072,4.571
1928.95,313.143,4.5705
1945.45,313.363,4.5718
1961.95,313.73,4.5714
1978.45,314.295,4.5717
1994.95,315.076,4.5722
2011.45,316.158,4.5721
2027.95,317.477,4.5743
2044.45,319.105,4.5716
2060.95,321.021,4.571
2077.45,323.191,4.5696
2093.95,325.685,4.57
2110.45,328.385,4.5683
2126.95,331.338,4.5683
2143.45,334.475,4.5673
2159.95,337.797,4.5656
2176.45,341.261,4.5654
2192.95,344.815,4.5617
2209.45,348.446,4.5606
2225.95,352.125,4.5577
2242.45,355.823,4.5554
2258.95,359.557,4.5538
2275.45,363.291,4.5517
2291.95,367.036,4.5501
2308.45,370.748,4.5501
2324.95,374.439,4.55
2341.45,378.09,4.5503
2357.95,381.696,4.5498
2374.45,385.25,4.5495
2390.95,388.748,4.5495
2407.45,392.183,4.5495
2423.95,395.626,4.5494
2440.45,398.988,4.5491
2456.95,402.344,4.5489
2473.45,405.656,4.5487
2489.95,408.942,4.5485
2506.45,412.195,4.5485
2522.95,415.416,4.5469
2539.45,418.613,4.5459
2555.95,421.766,4.5451
2572.45,424.894,4.5441
2588.95,427.975,4.5434
2605.45,431.035,4.5416
2621.95,434.069,4.5395
2638.45,437.071,4.538
2654.95,440.025,4.5364
2671.45,442.965,4.5333
2687.95,445.875,4.5306
2704.45,448.758,4.5286
2720.95,451.62,4.5237
2737.45,454.453,4.5171
2753.95,457.295,4.5124
2770.45,460.128,4.5069
2786.95,462.93,4.5018
2803.45,465.719,4.4948
2819.95,468.509,4.487
2836.45,471.297,4.4784
2852.95,474.063,4.469
2869.45,476.83,4.4582
2885.95,479.582,4.4504
2902.45,482.327,4.4445
2918.95,485.07,4.4368
2935.45,487.802,4.4304
2951.95,490.533,4.4214
2968.45,493.268,4.4111
2984.95,495.997,4.4004
3001.45,498.705,4.3898
3017.95,501.434,4.378
3034.45,504.158,4.364
3050.95,506.884,4.349
3067.45,509.586,4.3325
3083.95,512.305,4.3156
3100.45,515.036,4.2971
3116.95,517.749,4.2773
3133.45,520.467,4.2558
3149.95,523.179,4.2339
3166.45,525.895,4.2103
3182.95,528.607,4.1837
3199.45,531.317,4.1543
3215.95,534.022,4.1255
3232.45,536.734,4.0948
3248.95,539.449,4.0623
3265.45,542.15,4.0285
3281.95,544.858,3.9927
3298.45,547.575,3.9582
3314.95,550.283,3.9226
3331.45,552.99,3.883
3347.95,555.701,3.842
3364.45,558.406,3.7996
3380.95,561.137,3.7599
3397.45,563.837,3.7207
3413.95,566.546,3.6739
3430.45,569.273,3.6281
3446.95,571.98,3.5803
3463.45,574.683,3.532
3479.95,577.397,3.4812
3496.45,580.114,3.4258
3512.95,582.834,3.3672
3529.45,585.542,3.3062
3545.95,588.259,3.2404
3562.45,590.973,3.1737
3578.95,593.684,3.1071
3595.45,596.405,3.0366
3611.95,599.125,2.9545
3628.45,601.819,2.8819
3644.95,604.53,2.7979
3661.45,607.243,2.7134
3677.95,609.956,2.637
3694.45,612.673,2.5505
3710.95,615.377,2.4604
3727.45,618.095,2.371
3743.95,620.808,2.2791
3760.45,623.526,2.1857
3776.95,626.254,2.0866
3793.45,628.971,1.9842
3809.95,631.7,1.8812
3826.45,634.404,1.7731
3842.95,637.12,1.6656
3859.45,639.845,1.5626
3875.95,642.562,1.468
3892.45,645.281,1.386
3908.95,648.004,1.3236
3925.45,650.719,1.2767
3941.95,653.455,1.2429
3958.45,656.177,1.223
3974.95,658.923,1.2106
3991.45,661.661,1.2005
4007.95,664.386,1.1899
4024.45,667.109,1.1816
4040.95,669.84,1.1763
4057.45,672.565,1.1685
4073.95,675.282,1.1629
4090.45,678.01,1.1549
4106.95,680.739,1.1472
4123.45,683.471,1.1396
4139.95,686.195,1.1318
4156.45,688.924,1.1244
4172.95,691.66,1.116
4189.45,694.392,1.1085
4205.95,697.129,1.1024
4222.45,699.851,1.0949
4238.95,702.581,1.0895
4255.45,705.315,1.0816
4271.95,708.045,1.0747
4288.45,710.781,1.0673
4304.95,713.517,1.0607
4321.45,716.259,1.0554
4337.95,718.984,1.0486
4354.45,721.718,1.0411
4370.95,724.453,1.0335
4387.45,727.203,1.0262
4403.95,729.951,1.0204
4420.45,732.674,1.0133
4436.95,735.414,1.0053
4453.45,738.144,0.9981
4469.95,740.894,0.9918
4486.45,743.614,0.9872
4502.95,746.336,0.9791
4519.45,749.094,0.9701
4535.95,751.822,0.9618
4552.45,754.565,0.9556
4568.95,757.305,0.9537
4585.45,760.031,0.9468
4601.95,762.774,0.936
4618.45,765.5,0.9294
4634.95,768.238,0.9231
4651.45,770.978,0.9173
4667.95,773.7,0.9132
4684.45,776.44,0.9074
4700.95,779.184,0.8982
4717.45,781.919,0.8915
4733.95,784.664,0.8851
4750.45,787.388,0.8762
4766.95,790.143,0.87
4783.45,792.884,0.8656
4799.95,795.627,0.8554
4816.45,798.368,0.8504
4832.95,801.107,0.8407
4849.45,803.846,0.8358
4865.95,806.584,0.827
4882.45,809.333,0.8181
4898.95,812.069,0.8132
4915.45,814.804,0.8054
4931.95,817.552,0.7973
4948.45,820.305,0.7893
4964.95,823.033,0.7813
4981.45,825.795,0.7739
4997.95,828.521,0.7709
5014.45,831.263,0.764
5030.95,834.026,0.755
5047.45,836.761,0.7489
5063.95,839.496,0.7392
5080.45,842.242,0.7307
5096.95,844.998,0.723
5113.45,847.737,0.7154
5129.95,850.496,0.7093
5146.45,853.243,0.7031
5162.95,855.99,0.6967
5179.45,858.742,0.6911
5195.95,861.488,0.6861
5212.45,864.242,0.679
5228.95,866.982,0.6713
5245.45,869.744,0.6615
5261.95,872.489,0.6555
5278.45,875.239,0.646
5294.95,877.99,0.6393
5311.45,880.738,0.6314
5327.95,883.487,0.6238
5344.45,886.249,0.6189
5360.95,889.016,0.6117
5377.45,891.759,0.606
5393.95,894.522,0.601
5410.45,897.266,0.5968
5426.95,900.017,0.5935
5443.45,902.773,0.587
5459.95,905.522,0.5793
5476.45,908.278,0.5702
5492.95,911.048,0.5616999
5509.45,913.801,0.5549
5525.95,916.552,0.5474
5542.45,919.309,0.5423
5558.95,922.073,0.5378
5575.45,924.824,0.5334
5591.95,927.588,0.5271
5608.45,930.346,0.5225
5624.95,933.087,0.5171
5641.45,935.836,0.5114
5657.95,938.603,0.5052
5674.45,941.353,0.4982
5690.95,944.109,0.4897
5707.45,946.866,0.482
5723.95,949.633,0.4756
5740.45,952.383,0.4709
5756.95,955.139,0.4646
5773.45,957.886,0.4585
5789.95,960.647,0.4535
5806.45,963.412,0.4486
5822.95,966.176,0.4418
5839.45,968.937,0.4367
5855.95,971.689,0.4307
5872.45,974.438,0.4256
5888.95,977.211,0.4198
5905.45,979.959,0.4155
5921.95,982.711,0.4091
5938.45,985.456,0.4051
5954.95,988.217,0.3994
5971.45,991,0.3937
5987.95,993.763,0.3862
6004.45,996.511,0.3828
6020.95,999.259,0.3803
6037.45,1002.01,0.3776
6053.95,1004.77,0.3718
6070.45,1007.53,0.3677
6086.95,1010.3,0.3638
6103.45,1013.04,0.3579
6119.95,1015.8,0.3538
6136.45,1018.56,0.3508
6152.95,1021.32,0.3455
6169.45,1024.08,0.3398
6185.95,1026.835,0.3342
6202.45,1029.61,0.3303
6218.95,1032.36,0.3247
6235.45,1035.13,0.3197
6251.95,1037.87,0.3185
6268.45,1040.62,0.3149
6284.95,1043.38,0.3109
6301.45,1046.13,0.3053
6317.95,1048.9,0.2992
6334.45,1051.64,0.2964
6350.95,1054.42,0.2915
6367.45,1057.18,0.2883
6383.95,1059.926,0.2827
6400.45,1062.684,0.2771
6416.95,1065.44,0.2724
6433.45,1068.21,0.2697
6450,1070.96,0.2675
6615,1073.61,0.2254
6780,1073.46,0.1838
6945,1073.29,0.1535
7110,1073.2,0.1218
7275,1073.16,0.0954997
7347,1073.14,0.0928996