File: Wood/Calibration_Data/MFSL/MFSL_TGA_N2_10K_R1.csv
Time (s),Temperature (K),Mass (mg)
0.0,293.3,4.944
33.0,293.4,4.943
66.6,293.8,4.938
140.9,297.2,4.904
308.9,309.1,4.785
476.9,314.9,4.701
644.9,315.9,4.662
812.9,315.1,4.649
980.9,314.1,4.644
1148.9,313.4,4.645
1316.9,313.1,4.636
1484.9,313.0,4.638
1652.9,313.0,4.641
1820.9,313.0,4.641
1899.9,313.0,4.645
1916.7,313.1,4.645
1933.5,313.2,4.644
1950.3,313.4,4.643
1967.1,313.9,4.644
1983.9,314.5,4.644
2000.7,315.4,4.645
2017.5,316.6,4.644
2034.3,318.1,4.644
2051.1,319.8,4.644
2067.9,321.9,4.645
2084.7,324.2,4.643
2101.5,326.9,4.642
2118.3,329.8,4.641
2135.1,332.9,4.640
2151.9,336.2,4.639
2168.7,339.6,4.639
2185.5,343.2,4.637
2202.3,346.9,4.635
2219.1,350.6,4.633
2235.9,354.3,4.630
2252.7,358.1,4.627
2269.5,361.9,4.624
2286.3,365.8,4.623
2303.1,369.6,4.621
2319.9,373.3,4.619
2336.7,377.1,4.619
2353.5,380.7,4.618
2370.3,384.4,4.618
2387.1,387.9,4.617
2403.9,391.5,4.617
2420.7,394.9,4.617
2437.5,398.4,4.617
2454.3,401.8,4.617
2471.1,405.2,4.616
2487.9,408.5,4.616
2504.7,411.8,4.616
2521.5,415.1,4.618
2538.3,418.4,4.618
2555.1,421.6,4.618
2571.9,424.8,4.615
2588.7,427.9,4.614
2605.5,431.0,4.612
2622.3,434.1,4.609
2639.1,437.2,4.607
2655.9,440.2,4.606
2672.7,443.2,4.603
2689.5,446.1,4.601
2706.3,449.1,4.597
2723.1,452.0,4.592
2739.9,454.9,4.585
2756.7,457.8,4.580
2773.5,460.6,4.574
2790.3,463.5,4.568
2807.1,466.4,4.561
2823.9,469.2,4.554
2840.7,472.0,4.545
2857.5,474.8,4.538
2874.3,477.7,4.530
2891.1,480.5,4.523
2907.9,483.3,4.514
2924.7,486.1,4.505
2941.5,488.8,4.496
2958.3,491.6,4.485
2975.1,494.4,4.475
2991.9,497.2,4.463
3008.7,500.0,4.452
3025.5,502.7,4.440
3042.3,505.5,4.425
3059.1,508.3,4.408
3075.9,511.0,4.392
3092.7,513.8,4.373
3109.5,516.6,4.354
3126.3,519.3,4.333
3143.1,522.1,4.309
3159.9,524.8,4.286
3176.7,527.6,4.262
3193.5,530.4,4.232
3210.3,533.1,4.202
3227.1,535.9,4.168
3243.9,538.6,4.135
3260.7,541.4,4.103
3277.5,544.2,4.069
3294.3,546.9,4.032
3311.1,549.7,3.993
3327.9,552.5,3.952
3344.7,555.2,3.915
3361.5,558.0,3.873
3378.3,560.7,3.831
3395.1,563.5,3.785
3411.9,566.2,3.743
3428.7,569.0,3.693
3445.5,571.8,3.642
3462.3,574.5,3.592
3479.1,577.3,3.538
3495.9,580.0,3.479
3512.7,582.8,3.418
3529.5,585.6,3.356
3546.3,588.3,3.287
3563.1,591.1,3.219
3579.9,593.9,3.138
3596.7,596.6,3.066
3613.5,599.4,2.981
3630.3,602.2,2.901
3647.1,604.9,2.824
3663.9,607.7,2.733
3680.7,610.5,2.642
3697.5,613.2,2.555
3714.3,616.0,2.465
3731.1,618.7,2.369
3747.9,621.5,2.270
3764.7,624.3,2.168
3781.5,627.0,2.061
3798.3,629.8,1.949
3815.1,632.6,1.835
3831.9,635.3,1.719
3848.7,638.1,1.608
3865.5,640.9,1.507
3882.3,643.6,1.428
3899.1,646.4,1.364
3915.9,649.2,1.315
3932.7,652.0,1.289
3949.5,654.8,1.270
3966.3,657.5,1.255
3983.1,660.3,1.246
3999.9,663.1,1.236
4016.7,665.9,1.225
4033.5,668.6,1.216
4050.3,671.4,1.209
4067.1,674.2,1.200
4083.9,677.0,1.192
4100.7,679.7,1.183
4117.5,682.5,1.175
4134.3,685.3,1.167
4151.1,688.1,1.158
4167.9,690.8,1.148
4184.7,693.6,1.139
4201.5,696.4,1.130
4218.3,699.2,1.121
4235.1,702.0,1.112
4251.9,704.7,1.103
4268.7,707.5,1.093
4285.5,710.3,1.084
4302.3,713.1,1.074
4319.1,715.9,1.065
4335.9,718.6,1.056
4352.7,721.4,1.047
4369.5,724.2,1.038
4386.3,727.0,1.028
4403.1,729.8,1.018
4419.9,732.6,1.008
4436.7,735.4,0.998
4453.5,738.2,0.990
4470.3,741.0,0.980
4487.1,743.7,0.970
4503.9,746.5,0.960
4520.7,749.3,0.951
4537.5,752.1,0.943
4554.3,754.9,0.933
4571.1,757.7,0.923
4587.9,760.5,0.912
4604.7,763.3,0.900
4621.5,766.0,0.890
4638.3,768.8,0.880
4655.1,771.6,0.868
4671.9,774.4,0.857
4688.7,777.2,0.848
4705.5,780.0,0.837
4722.3,782.8,0.825
4739.1,785.5,0.815
4755.9,788.3,0.804
4772.7,791.1,0.795
4789.5,793.9,0.783
4806.3,796.7,0.770
4823.1,799.5,0.758
4839.9,802.3,0.748
4856.7,805.1,0.737
4873.5,807.9,0.725
4890.3,810.6,0.715
4907.1,813.4,0.706
4923.9,816.2,0.695
4940.7,819.0,0.682
4957.5,821.8,0.671
4974.3,824.6,0.658
4991.1,827.4,0.648
5007.9,830.2,0.635
5024.7,833.0,0.624
5041.5,835.8,0.611
5058.3,838.6,0.599
5075.1,841.4,0.587
5091.9,844.2,0.576
5108.7,847.0,0.565
5125.5,849.8,0.553
5142.3,852.6,0.541
5159.1,855.4,0.531
5175.9,858.2,0.521
5192.7,861.0,0.509
5209.5,863.8,0.498
5226.3,866.6,0.486
5243.1,869.3,0.475
5259.9,872.2,0.462
5276.7,874.9,0.448
5293.5,877.7,0.437
5310.3,880.5,0.426
5327.1,883.3,0.415
5343.9,886.1,0.406
5360.7,888.9,0.396
5377.5,891.7,0.385
5394.3,894.6,0.375
5411.1,897.4,0.364
5427.9,900.2,0.353
5444.7,903.0,0.341
5461.5,905.8,0.332
5478.3,908.6,0.319
5495.1,911.4,0.308
5511.9,914.2,0.299
5528.7,917.0,0.289
5545.5,919.8,0.279
5562.3,922.6,0.271
5579.1,925.4,0.264
5595.9,928.2,0.255
5612.7,931.0,0.246
5629.5,933.8,0.235
5646.3,936.6,0.226
5663.1,939.4,0.216
5679.9,942.2,0.207
5696.7,945.0,0.197
5713.5,947.8,0.188
5730.3,950.6,0.180
5747.1,953.4,0.171
5763.9,956.3,0.164
5780.7,959.1,0.158
5797.5,961.9,0.150
5814.3,964.7,0.143
5831.1,967.5,0.137
5847.9,970.3,0.130
5864.7,973.1,0.123
5881.5,975.9,0.117
5898.3,978.7,0.111
5915.1,981.5,0.104
5931.9,984.3,0.099
5948.7,987.2,0.093
5965.5,989.9,0.088
5982.3,992.7,0.085
5999.1,995.6,0.083
6015.9,998.3,0.084
6032.7,1001.1,0.084
6049.5,1004.0,0.084
6066.3,1006.8,0.085
6083.1,1009.6,0.085
6099.9,1012.4,0.085
6116.7,1015.2,0.086
6133.5,1018.0,0.086
6150.3,1020.8,0.085
6167.1,1023.6,0.084
6183.9,1026.5,0.084
6200.7,1029.3,0.084
6217.5,1032.1,0.084
6234.3,1034.9,0.083
6251.1,1037.7,0.085
6267.9,1040.5,0.085
6284.7,1043.3,0.085
6301.5,1046.1,0.085
6318.3,1048.9,0.085
6335.1,1051.7,0.086
6351.9,1054.5,0.086
6368.7,1057.4,0.086
6385.5,1060.2,0.085
6402.3,1063.0,0.085
6419.1,1065.8,0.085
6435.9,1068.6,0.087
6477.0,1073.5,0.085
6645.0,1073.6,0.084
6813.0,1073.4,0.082
6981.0,1073.3,0.083
7149.0,1073.2,0.084
7317.0,1073.2,0.084
7341.0,1073.1,0.084