File: PMMA/Calibration_Data/GIDAZE+/GIDAZE+_TGA_O2-21_10K_4.csv
Time,Temperature,Mass
[s],[K],[mg]
0.00E+00,298.749,6.019
6.13E+01,303.749,6.02489
8.38E+01,308.749,6.02104
1.04E+02,313.749,6.02431
1.24E+02,318.749,6.02444
1.44E+02,323.749,6.02395
1.66E+02,328.749,6.02511
1.89E+02,333.749,6.024
2.15E+02,338.749,6.02571
2.43E+02,343.749,6.02706
2.72E+02,348.749,6.02439
3.03E+02,353.749,6.02297
3.34E+02,358.749,6.02306
3.64E+02,363.749,6.02508
3.95E+02,368.749,6.0251
4.25E+02,373.749,6.02255
4.55E+02,378.749,6.02298
4.86E+02,383.749,6.02088
5.16E+02,388.749,6.01899
5.46E+02,393.749,6.0201
5.76E+02,398.749,6.01802
6.06E+02,403.749,6.01392
6.35E+02,408.749,6.01304
6.65E+02,413.749,6.01282
6.95E+02,418.749,6.00607
7.25E+02,423.749,6.00384
7.55E+02,428.749,6.00285
7.85E+02,433.749,6.00169
8.15E+02,438.749,6.00113
8.45E+02,443.749,5.99595
8.75E+02,448.749,5.99273
9.05E+02,453.749,5.99307
9.35E+02,458.749,5.98905
9.65E+02,463.749,5.98621
9.95E+02,468.749,5.98358
1.03E+03,473.749,5.9828
1.06E+03,478.749,5.98008
1.09E+03,483.749,5.97794
1.12E+03,488.749,5.97707
1.15E+03,493.749,5.97688
1.18E+03,498.749,5.97495
1.21E+03,503.749,5.97252
1.24E+03,508.749,5.97097
1.27E+03,513.749,5.97012
1.30E+03,518.749,5.96987
1.33E+03,523.749,5.96878
1.36E+03,528.749,5.96721
1.39E+03,533.749,5.95961
1.42E+03,538.749,5.94631
1.45E+03,543.749,5.92428
1.48E+03,548.749,5.88587
1.51E+03,553.749,5.8235
1.54E+03,558.749,5.75144
1.57E+03,563.749,5.68045
1.60E+03,568.749,5.60221
1.63E+03,573.749,5.49235
1.66E+03,578.749,5.31313
1.69E+03,583.749,5.05104
1.72E+03,588.749,4.69766
1.75E+03,593.749,4.36807
1.78E+03,598.749,4.02205
1.81E+03,603.749,3.6194
1.83E+03,608.749,3.11609
1.87E+03,613.749,2.56268
1.89E+03,618.749,2.05536
1.93E+03,623.749,1.59502
1.96E+03,628.749,1.20691
1.99E+03,633.749,0.911943
2.02E+03,638.749,0.6941
2.05E+03,643.749,0.532213
2.08E+03,648.749,0.403579
2.11E+03,653.749,0.30481
2.14E+03,658.749,0.232628
2.17E+03,663.749,0.178959
2.20E+03,668.749,0.137805
2.23E+03,673.749,0.113579
2.26E+03,678.749,0.0873658
2.29E+03,683.749,0.0751418
2.32E+03,688.749,0.0690102
2.35E+03,693.749,0.0669999
2.38E+03,698.749,0.0669999
2.41E+03,703.749,0.0669999
2.44E+03,708.749,0.0649179
2.47E+03,713.749,0.0650004
2.50E+03,718.749,0.0668145
2.53E+03,723.749,0.0649101
2.56E+03,728.749,0.0649998
2.59E+03,733.749,0.0670444
2.62E+03,738.749,0.0679966
2.65E+03,743.749,0.0669903
2.68E+03,748.749,0.0669999
2.71E+03,753.749,0.0669999
2.74E+03,758.749,0.0653134
2.77E+03,763.749,0.0649998
2.80E+03,768.749,0.06195778
2.83E+03,773.749,0.063037
2.86E+03,778.749,0.0640367
2.89E+03,783.749,0.0640843
2.92E+03,788.749,0.0630418
2.95E+03,793.749,0.0630003
2.98E+03,798.749,0.0630003
3.01E+03,803.749,0.0639994
3.04E+03,808.749,0.06488783
3.07E+03,813.749,0.0660001
3.10E+03,818.749,0.0659947
3.13E+03,823.749,0.0670059
3.16E+03,828.749,0.0649962
3.19E+03,833.749,0.064
3.22E+03,838.749,0.064
3.25E+03,843.749,0.0631074
3.28E+03,848.749,0.06201797
3.31E+03,853.749,0.0620059
3.34E+03,858.749,0.0610008
3.37E+03,863.749,0.0599998
3.40E+03,868.749,0.0599998
3.43E+03,873.749,0.059124
3.46E+03,878.749,0.059
3.49E+03,883.749,0.059
3.52E+03,888.749,0.0590012
3.55E+03,893.749,0.0599998
3.58E+03,898.749,0.0599998
3.61E+03,903.749,0.05812127
3.64E+03,908.749,0.0599998
3.67E+03,913.749,0.0620884