File: PMMA/Calibration_Data/GIDAZE+/GIDAZE+_Cone_65kW_2.csv
Time,Mass,HRR,Temperature 1 Sample Front,Temperature 3 Inside,Temperature 4 Sample Back
[s],[g],[kW/m2],[K],[K],[K]
0,70.5,-0.395694,340.483,305.535,304.682
2,70.5143,-0.42921,366.451,305.774,304.722
4,70.4852,-0.292403,405.348,306.113,304.759
6,70.3159,-0.27211,440.761,306.595,304.81
8,70.4869,-0.363543,475.875,307.483,304.866
10,70.5933,-0.363992,503.947,308.883,304.897
12,70.5154,-0.239913,532.512,310.889,304.964
14,70.41783,-0.271062,556.902,313.447,305.026
16,70.487,-0.280113,578.843,316.397,305.07
18,70.591,-0.272577,617.296,319.717,305.143
20,70.6059,41.1501,700.77,323.206,305.253
22,70.1174,125.268,723.063,327.178,305.375
24,69.7442,259.674,725.266,331.093,305.513
26,69.5896,382.847,722.626,335.19,305.646
28,69.3164,459.369,720.404,339.359,305.858
30,68.8152,531.897,719.374,343.611,306.07
32,67.8915,561.83,718.333,347.886,306.33
34,67.2302,586.407,717.963,352.171,306.584
36,66.9728,593.462,717.278,356.414,306.925
38,66.7127,676.299,717.065,360.64,307.277
40,66.3412,657.37,716.951,364.86,307.643
42,65.0242,663.392,716.55,369.057,308.06
44,64.8122,675.106,716.729,373.278,308.531
46,64.3933,657.369,717.177,377.629,309.118
48,64.0979,672.831,717.48,382.287,309.742
50,63.0437,681.832,717.948,387.151,310.423
52,62.7961,688.379,718.457,391.912,311.076
54,61.8436,675.565,717.967,396.468,311.461
56,61.6772,681.481,718.169,400.834,311.931
58,61.2085,691.973,718.433,405.153,312.508
60,60.9219,693.96,718.451,409.282,313.138
62,59.7764,673.743,718.686,413.414,313.791
64,58.8271,730.365,718.218,417.6,314.48
66,58.6432,695.403,718.114,421.712,315.232
68,58.3989,673.633,718.038,425.858,315.991
70,58.0789,710.465,717.719,429.891,316.756
72,56.46965,700.163,717.609,433.954,317.52
74,56.1941,717.186,717.024,437.89,318.308
76,55.88982,691.939,716.209,441.889,319.16
78,55.5942,710.276,715.869,445.929,319.969
80,55.09263,714.671,715.493,450.066,320.896
82,53.9521,727.198,715.223,454.283,321.942
84,53.2671,727.171,715.449,458.521,323.334
86,52.762,703.62,716.199,462.79,325.114
88,52.5596,685.957,718.059,467.176,327.67
90,51.9158,683.439,718.246,471.679,330.934
92,51.3273,757.164,718.011,476.377,333.45
94,50.5155,675.053,717.387,481.117,334.667
96,49.2506,718.465,716.326,485.947,334.806
98,49.4998,702.857,714.804,491.087,332.507
100,49.1674,759.819,712.355,496.366,330.402
102,48.783,710.248,710.238,501.51,328.639
104,47.2557,725.915,708.198,506.522,327.27
106,46.6491,749.204,707.32,511.68,326.351
108,46.4384,727.019,706.578,523.483,325.806
110,45.9101,751.394,706.791,523.704,325.561
112,44.9721,705.16,706.137,529.3,325.54
114,44.607,782.157,705.563,534.618,325.699
116,43.9313,728.347,705.98,540.831,325.968
118,43.3507,736.965,705.635,549.707,326.342
120,43.049,783.459,705.707,558.009,326.793
122,42.1709,788.995,705.747,563.566,327.338
124,41.14325,762.921,705.791,569.759,327.858
126,40.7903,793.361,705.819,578.423,328.479
128,40.03105,834.939,705.666,584.855,329.095
130,39.717,771.272,705.742,592.19,329.761
132,39.3439,793.55,705.183,599.675,330.421
134,37.47713,841.826,705.356,607.595,331.144
136,37.3692,800.452,705.716,616.806,331.885
138,36.4261,778.459,705.411,627.702,332.598
140,36.1199,792.104,706.166,640.114,333.343
142,35.7522,829.517,705.846,656.235,334.062
144,35.5181,828.764,704.848,675.521,334.798
146,32.972,864.071,704.627,695.98,335.56
148,33.1369,842.465,704.48,708.784,336.303
150,32.1667,889.952,704.166,719.896,337.05
152,31.8288,896.805,704.003,728.504,337.783
154,31.49963,952.424,704.951,733.749,338.53
156,30.927,939.647,704.501,734.02,339.296
158,28.9498,880.633,703.55,742.156,340.012
160,28.421,940.368,703.219,747.421,340.719
162,27.7352,1034.2,704.106,752.418,341.441
164,27.16,946.569,703.672,754.506,342.152
166,26.6511,927.246,702.37,759.419,342.853
168,25.3963,942.287,702.271,758.416,343.542
170,24.8062,1014.98,703.674,763.083,344.234
172,23.34986,1071.14,702.915,766.86,344.904
174,22.91,1073.6,701.671,768.711,345.856
176,22.2465,1016.74,700.219,771.784,347.587
178,21.8866,1034.66,700.865,771.94,349.588
180,20.4246,970.567,701.859,774.499,352.012
182,19.2424,1033.67,702.825,773.239,354.722
184,18.7414,990.416,704.72,773.272,359.805
186,17.848,1217.85,704.513,769.971,363.12
188,17.5783,1126.31,704.586,769.578,364.233
190,16.5977,1135.8,702.993,770.953,362.599
192,15.2152,1058.17,702.236,770.08,362.463
194,14.2431,1167.72,699.352,770.914,362.759
196,13.5726,1076.72,698.123,769.237,363.319
198,12.5497,1071.33,697.435,769.621,364.297
200,11.5643,1072.93,701.499,770.849,369.149
202,10.7767,1011.03,704.886,772.415,378.196
204,9.934716,1009.65,707.385,779.118,383.86
206,9.290323,1054.75,709.477,783.727,388.531
208,8.562701,927.243,709.994,788.992,392.407
210,7.044847,965.661,709.674,792.348,395.903
212,7.198521,848.19,708.36,793.871,399.081
214,6.843055,727.452,707.662,795.64,401.948
216,6.292735,699.763,707.486,794.329,404.686
218,5.937792,638.371,707.567,797.15,407.499
220,4.962205,555.831,710.418,796.895,409.601
222,4.931167,515.481,714.576,796.35,410.89
224,4.634714,496.731,718.423,793.874,411.541
226,4.464146,477.214,719.72,789.622,413.598
228,4.242318,456.948,722.538,786.108,416.889
230,3.270879,454.458,728.373,785.989,421.933
232,2.95342,416.976,731.758,788.267,427.428
234,2.841054,381.43,740.725,790.842,432.316
236,2.739056,354.242,750.988,795.481,434.349
238,2.641856,335.277,762.989,802.571,440.504
240,1.534631,311.747,787.777,813.39,452.165
242,1.562385,279.804,822.508,867.339,473.111
244,1.607711,246.858,840.539,941.383,512.625
246,1.622751,216.189,859.344,953.107,526.373
248,1.448918,201.088,881.376,954.216,536.181
250,1.237695,173.251,915.629,961.603,548.104
252,0.947361,159.549,977.878,971.426,572.83
254,1.09502,141.3,1020.509,978.313,599.933
256,1.024283,114.723,1074.41,987.547,614.996
258,0.934651,110.846,1068.796,991.561,622.102
260,0.719029,94.6615,1020.648,1071.797,622.331
262,0.616075,82.5248,929.489,1188.397,616.123
264,0.702277,74.7824,876.362,993.171,609.269
266,0.807219,65.3102,852.148,916.869,603.37
268,0.7204,53.487,822.802,851.896,597.773
270,0.631924,44.7812,810.792,824.879,593.102
272,0.429491,41.2024,806.355,777.104,589.743
274,0.49194,32.876,804.22,746.213,587.065
276,0.603036,27.0255,807.186,732.703,585.469
278,0.80712,22.7595,807.853,706.108,584.481
280,0.533727,18.9391,800.456,713.516,582.823
282,0.505519,16.554,799.12,720.482,582.11
284,0.244639,15.6828,800.148,700.113,582.142
286,0.489232,15.2906,798.867,702.417,582.33
288,0.52028,11.7675,800.538,679.858,582.517
290,0.705356,10.0167,803.153,711.508,583.208
292,0.532875,8.18891,800.174,673.329,583.38
294,0.43005,7.20729,797.579,699.134,583.476
296,0.400986,5.47639,797.89,675.817,584.214
298,0.490982,4.96095,794.419,662.695,584.638
300,0.533097,2.61551,798.215,671.07,585.375
302,0.630281,2.07862,803.241,678.27,586.064
304,0.414874,-0.098031,806.251,630.812,587.75
306,0.332343,-0.0312931,807.439,656.518,588.819
308,0.30369,-0.152723,804.918,658.864,590.126
310,0.414608,-0.011514,800.375,675.362,590.692
312,0.587375,-1.21483,795.676,674.179,591.34
314,0.445517,-1.79204,801.921,695.698,592.19
316,0.401207,-2.19841,807.739,687.494,593.12
318,0.230433,-2.90793,811.374,703.979,593.904
320,0.401728,-2.93714,813.818,696.52,594.844
322,0.519428,-3.49415,811.432,657.329,596.114
324,0.519174,-3.60165,810.045,654.374,596.699
326,0.61533,-3.54372,812.727,648.352,598.242
328,0.190396,-2.63516,814.294,627.897,599.581
330,0.215545,-2.62146,814.541,676.312,600.478
332,0.215492,-2.17886,811.745,700.079,600.639
334,0.215227,-3.1389,810.27,673.76,601.843
336,0.415036,-3.14936,812.646,654.589,603.22
338,0.428875,-3.15457,809.724,698.196,603.466
340,0.587924,-3.1472,811.438,695.082,604.153
342,0.443987,-2.90504,802.024,739.022,604.668
344,0.332918,-3.14781,798.013,708.861,604.974
346,0.230605,-3.47742,798.714,684.464,605.965
348,0.215508,-4.19654,800.112,690.991,607.16
350,0.415619,-3.73057,796.626,708.591,607.948
352,0.520168,-3.68057,799.363,693.715,608.591
354,0.60418,-3.9408,803.136,655.628,609.761
356,0.532995,-3.96817,800.667,634.552,610.22
358,0.318214,-3.84638,806.136,647.356,611.67
360,0.31905,-3.9014,803.603,620.437,612.451
362,0.305054,-3.78104,808.357,622.315,613.6
364,0.415634,-3.7512,813.018,674.39,614.615
366,0.520404,-3.96721,810.808,676.096,613.414
368,0.333559,-4.0527,804.408,668.788,611.115
370,0.216962,-4.01129,800.013,649.185,609.22
372,0.216395,-3.68294,798.383,659.917,608.647
374,0.415224,-3.6612,795.33,657.817,608.265
376,0.602545,-3.94429,797.076,687.659,608.172
378,0.263744,-3.96258,797.104,700.902,608.558
380,0.230844,-3.95385,794.336,705.705,609.168
382,0.215558,-3.95765,795.244,666.988,610.043
384,0.399658,-3.95503,787.397,678.086,610.946
386,0.488934,-3.97796,787.744,676.904,611.694
388,0.346878,-3.96045,784.584,649.082,612.8
390,0.319008,-3.86003,788.747,674.947,613.586
392,0.216265,-3.92901,796.507,713.26,614.809
394,0.305766,-3.82654,795.327,691.935,615.975
396,0.50642,-3.77434,793.749,657.372,617.174
398,0.429966,-3.84379,796.699,660.174,617.843
400,0.319901,-3.68732,788.718,628.967,618.912
402,0.216973,-3.63385,786.748,633.305,619.742
404,0.49229,-3.72767,782.656,607.634,620.556
406,0.505628,-3.79786,781.61,629.932,621.193
408,0.521083,-3.35105,783.993,650.467,622.189