File: PMMA/Calibration_Data/GIDAZE+/GIDAZE+_TGA_O2-21_10K_1.csv
Time,Temperature,Mass
[s],[K],[mg]
0.00E+00,298.308,2.04
6.09E+01,303.308,2.03513
8.29E+01,308.308,2.04038
1.03E+02,313.308,2.0416
1.22E+02,318.308,2.04487
1.42E+02,323.308,2.04144
1.64E+02,328.308,2.04301
1.87E+02,333.308,2.04376
2.12E+02,338.308,2.04683
2.40E+02,343.308,2.05099
2.69E+02,348.308,2.05276
3.00E+02,353.308,2.05295
3.31E+02,358.308,2.05779
3.62E+02,363.308,2.0585
3.92E+02,368.308,2.05691
4.22E+02,373.308,2.05704
4.53E+02,378.308,2.05712
4.83E+02,383.308,2.05199
5.13E+02,388.308,2.059
5.43E+02,393.308,2.06201
5.73E+02,398.308,2.059
6.03E+02,403.308,2.062
6.33E+02,408.308,2.06092
6.63E+02,413.308,2.06197
6.93E+02,418.308,2.06099
7.22E+02,423.308,2.06001
7.52E+02,428.308,2.06303
7.82E+02,433.308,2.06201
8.13E+02,438.308,2.06085
8.42E+02,443.308,2.05803
8.73E+02,448.308,2.06122
9.03E+02,453.308,2.0579
9.33E+02,458.308,2.05617
9.62E+02,463.308,2.05512
9.92E+02,468.308,2.05683
1.02E+03,473.308,2.05596
1.05E+03,478.308,2.05607
1.08E+03,483.308,2.05787
1.11E+03,488.308,2.05787
1.14E+03,493.308,2.05486
1.17E+03,498.308,2.05596
1.20E+03,503.308,2.05601
1.23E+03,508.308,2.05599
1.26E+03,513.308,2.05599
1.29E+03,518.308,2.05509
1.32E+03,523.308,2.05393
1.35E+03,528.308,2.05101
1.38E+03,533.308,2.04801
1.41E+03,538.308,2.04711
1.44E+03,543.308,2.04013
1.47E+03,548.308,2.02515
1.50E+03,553.308,2.00559
1.53E+03,558.308,1.97751
1.56E+03,563.308,1.94451
1.59E+03,568.308,1.91632
1.62E+03,573.308,1.86806
1.65E+03,578.308,1.76718
1.68E+03,583.308,1.62423
1.71E+03,588.308,1.5025
1.74E+03,593.308,1.39262
1.77E+03,598.308,1.26645
1.80E+03,603.308,1.11651
1.83E+03,608.308,0.951951
1.86E+03,613.308,0.7837578
1.89E+03,618.308,0.6284985
1.92E+03,623.308,0.499305
1.95E+03,628.308,0.391287
1.98E+03,633.308,0.310712
2.01E+03,638.308,0.255562
2.04E+03,643.308,0.21537
2.07E+03,648.308,0.176259
2.10E+03,653.308,0.150181
2.13E+03,658.308,0.127173
2.16E+03,663.308,0.108213
2.19E+03,668.308,0.0960563
2.22E+03,673.308,0.0800394
2.25E+03,678.308,0.0740971
2.28E+03,683.308,0.0660301
2.31E+03,688.308,0.0639999
2.34E+03,693.308,0.06215574
2.37E+03,698.308,0.0618442
2.40E+03,703.308,0.0650101
2.43E+03,708.308,0.0628842
2.46E+03,713.308,0.0629438
2.49E+03,718.308,0.06302478
2.52E+03,723.308,0.0619515
2.55E+03,728.308,0.06585324
2.58E+03,733.308,0.0659479
2.61E+03,738.308,0.0670379
2.64E+03,743.308,0.0650024
2.67E+03,748.308,0.0629981
2.70E+03,753.308,0.0649999
2.73E+03,758.308,0.0650032
2.76E+03,763.308,0.0649993
2.79E+03,768.308,0.0610007
2.82E+03,773.308,0.06100008
2.85E+03,778.308,0.0629658
2.88E+03,783.308,0.0590046
2.91E+03,788.308,0.0569807
2.94E+03,793.308,0.0569827
2.97E+03,798.308,0.0580001
3.00E+03,803.308,0.0580001
3.03E+03,808.308,0.0599523
3.06E+03,813.308,0.0601037
3.09E+03,818.308,0.0580001
3.12E+03,823.308,0.0579999
3.15E+03,828.308,0.05900088
3.18E+03,833.308,0.0550002
3.21E+03,838.308,0.0559639
3.24E+03,843.308,0.0559615
3.27E+03,848.308,0.0580174
3.30E+03,853.308,0.06200886
3.33E+03,858.308,0.0540443
3.36E+03,863.308,0.0569964
3.39E+03,868.308,0.0560555
3.42E+03,873.308,0.0549672
3.45E+03,878.308,0.0579258
3.48E+03,883.308,0.0580784
3.51E+03,888.308,0.060027
3.54E+03,893.308,0.0550186
3.57E+03,898.308,0.057996
3.60E+03,903.308,0.0590343
3.63E+03,908.308,0.0561157
3.66E+03,913.308,0.05502288