File: PMMA/Calibration_Data/GIDAZE+/GIDAZE+_Cone_25kW_1.csv
Time,Mass,HRR,Temperature 1 Sample Front,Temperature 3 Inside,Temperature 4 Sample Back
[s],[g],[kW/m2],[K],[K],[K]
0,74.4,-0.372436,312.402,299.447,297.658
4,74.3613,-0.408085,324.803,299.695,297.473
8,74.31637,-0.372879,352.026,300.088,297.283
12,74.3629,-0.449731,375.931,301.202,297.181
16,74.3152,-0.0761478,397.232,303.453,297.148
20,74.3807,-0.248454,414.601,306.602,297.177
24,74.3327,-0.586352,428.777,310.339,297.221
28,74.2748,-0.327157,441.209,314.404,297.313
32,74.3333,0.568642,450.315,318.744,297.425
36,74.2773,0.846479,458.268,323.152,297.61
40,74.4782,1.71468,467.293,327.606,297.756
44,74.2955,1.574,477.332,332.078,297.971
48,74.4014,2.73688,481.188,336.565,298.243
52,74.2189,2.25542,485.146,341.007,298.552
56,74.3827,3.14523,487.453,345.375,298.88
60,74.181,3.15809,487.455,349.715,299.222
64,74.4022,3.14421,495.138,353.921,299.569
68,74.2591,3.24294,501.868,358.08,300.02
72,74.3165,2.95155,507.384,362.152,300.553
76,74.298,3.35737,514.82,366.146,301.256
80,74.2193,3.23783,514.245,370.05,301.82
84,74.3834,3.29713,511.282,373.94,302.304
88,74.2189,3.22955,513.719,377.771,302.918
92,74.3774,3.29191,519.459,381.603,303.715
96,74.3168,4.18846,527.798,385.42,305.019
100,74.4019,4.0106,531.49,389.18,306.167
104,74.2189,4.29638,531.965,392.858,307.522
108,74.3833,4.30756,533.904,396.397,308.756
112,74.1164,4.20413,536.923,399.815,310.005
116,74.2795,5.04839,533.383,403.043,311.358
120,74.0977,4.91703,539.807,406.138,312.805
124,74.263,5.24549,538.224,409.159,314.525
128,74.0408,4.77138,536.405,412.131,316.286
132,74.0986,51.5629,536.476,415.021,318.404
136,73.6526,163.04,681.769,417.963,321.925
140,73.3976,268.1,719.2,420.453,328.379
144,72.5305,334.779,704.74,423.007,335.02
148,72.2945,352.784,700.946,425.662,337.754
152,70.7254,369.716,695.959,428.412,339.655
156,71.1155,359.367,693.064,431.286,341.043
160,69.4403,383.554,690.883,434.207,342.049
164,69.7861,370.763,689.222,437.163,338.067
168,69.1233,367.455,688.429,440.205,332.767
172,68.6827,389.855,686.892,443.255,329.284
176,67.835,377.125,685.004,446.566,326.94
180,67.4961,373.691,683.322,450.168,325.278
184,66.5077,372.501,681.563,453.687,323.966
188,66.1856,376.667,681.277,456.91,323.204
192,65.2053,377.876,680.248,460.182,322.77
196,64.78645,387.454,678.734,463.738,322.589
200,64.1836,399.916,679.658,467.417,322.659
204,63.5864,385.97,679.597,471.224,322.996
208,63.0066,400.203,677.779,475.062,323.464
212,62.1057,397.764,676.765,478.822,324.064
216,61.7827,393.244,676.414,482.601,324.775
220,60.7013,393.347,675.98,486.593,325.602
224,60.2638,388.158,675.695,490.446,326.515
228,59.9799,377.514,674.879,494.358,327.375
232,58.7534,391.573,672.859,498.164,328.22
236,58.5325,401.046,673.186,501.975,329.095
240,57.4079,400.729,672.718,505.757,330.021
244,56.929,416.209,671.375,509.632,330.902
248,56.5854,397.721,671.956,513.637,331.752
252,55.0169,409.37,670.674,517.48,332.614
256,55.1788,410.67,669.696,521.224,333.51
260,54.3777,389.248,669.437,524.984,334.284
264,53.9403,387.385,667.981,528.712,335.085
268,52.513,406.921,668.721,532.406,335.811
272,52.2446,401.406,666.903,536.224,336.536
276,51.9462,396.367,667.208,582.166,337.39
280,51.0149,406.705,669.661,580.594,338.089
284,50.5413,410.083,667.353,576.029,338.761
288,49.4926,418.872,665.898,574.297,339.279
292,48.9244,425.489,664.715,555.422,340.013
296,48.7434,418.512,662.855,570.758,340.833
300,47.541,435.098,662.846,564.361,341.561
304,46.92494,440.967,662.076,572.648,342.279
308,46.5624,442.769,661.285,575.351,343.025
312,45.0587,434.436,659.994,596.959,343.702
316,45.0413,431.329,658.852,598.407,344.464
320,43.9172,457.148,659.419,603.793,345.166
324,43.2011,461.194,658.467,606.362,345.911
328,42.5131,468.196,658.752,609.612,346.684
332,41.41336,480.631,657.667,613.478,347.464
336,40.59452,454.475,655.691,614.888,348.218
340,40.4329,457.231,654.754,617.618,348.998
344,39.3671,473.294,654.934,619.48,349.845
348,38.5325,457.854,655.108,619.484,350.706
352,38.3031,490.901,655.499,620.307,351.55
356,37.0356,489.533,656.247,620.208,352.442
360,36.45228,512.407,656.434,621.977,353.374
364,35.745,495.441,657.262,623.675,354.415
368,34.6223,504.595,658.491,625.226,355.737
372,34.2006,498.853,658.815,626.632,357.647
376,33.0774,486.221,659.476,628.416,360.258
380,32.2822,487.639,660.622,630.794,363.588
384,31.8002,488.085,660.967,631.462,365.963
388,30.4624,511.657,660.993,629.904,368.103
392,30.1974,526.209,661.582,629.88,370
396,28.4989,512.209,667.637,630.029,371.907
400,28.3947,507.18,670.976,632.413,377.246
404,27.017,504.176,675.559,632.129,385.238
408,26.3694,522.223,679.145,636.94,391.283
412,25.8883,524.133,681.751,637.161,395.417
416,24.72918,523.249,682.727,638.808,397.279
420,23.8817,553.417,680.964,643.528,397.874
424,23.3201,522.907,679.179,651.501,398.974
428,21.8521,512.149,677.795,649.1,400.854
432,21.5884,457.683,677.501,649.128,402.959
436,20.704,433.471,678.694,650.442,404.45
440,19.7258,407.755,679.105,650.427,405.971
444,19.5657,415.386,679.78,651.592,407.228
448,18.3881,389.945,682.197,656.408,408.759
452,18.1493,379.646,685.663,659.532,410.264
456,17.59902,375.932,697.402,661.432,412.109
460,16.67845,365.951,709.86,659.928,414.77
464,16.2638,363.204,718.652,660.326,417.154
468,15.8631,388.217,724.467,661.113,420.05
472,14.5005,400.092,724.878,663.345,423.167
476,14.2603,357.579,719.533,666.107,425.926
480,13.6336,361.858,708.864,669.134,428.082
484,12.9576,352.411,707.909,670.494,430.461
488,12.7571,363.474,709.43,671.93,432.677
492,11.4214,389.984,710.396,672.44,434.219
496,11.2517,373.982,709.539,674.096,434.186
500,10.3824,397.276,711.685,676.395,433.749
504,9.862298,409.594,714.529,678.336,434.031
508,9.50969,387.773,719.293,679.36,434.283
512,8.268278,393.714,724.174,679.1,434.328
516,7.904021,398.234,724.353,679.314,435.349
520,7.625096,396.907,730.49,694.386,437.596
524,6.640992,393.623,741.901,685.059,441.247
528,6.118111,354.021,781.768,681.444,447.464
532,5.754616,337.139,818.376,680.024,463.6
536,5.013964,320.486,936.654,683.408,482.468
540,4.519988,284.108,939.055,685.531,491.934
544,4.510952,274.636,944.186,685.297,496.263
548,3.510957,249.371,939.913,687.986,497.627
552,3.389702,237.39,932.324,698.884,497.687
556,3.207492,224.306,906.734,712.7,495.08
560,2.524112,202.701,870.183,713.361,491.358
564,2.301996,183.255,836.87,721.342,487.876
568,2.304578,165.7,807.879,735.048,485.045
572,1.800103,154.021,773.88,755.058,481.154
576,1.498913,140.136,758.591,742.041,478.568
580,1.51361,126.666,743.275,787.771,477.406
584,1.118275,108.148,728.115,802.888,476.6
588,1.098252,92.4374,716.484,851.829,476.222
592,0.917639,79.5192,705.001,850.235,475.615
596,0.881138,69.4282,695.132,798.934,475.235
600,0.819852,61.242,686.61,674.544,474.988
604,0.504589,49.7186,683.156,793.058,475.218
608,0.680024,43.6914,678.807,749.166,476.168
612,0.595957,35.6198,672.396,621.505,477.065
616,0.479969,30.4792,665.855,614.4,477.729
620,0.595462,24.8042,661.998,640.5,478.527
624,0.214063,20.9008,661.455,649.712,479.721
628,0.395041,13.9645,658.585,640.181,480.887
632,0.100401,9.78182,658.961,658.985,482.246
636,0.177321,6.68916,654.496,622.849,483.517
640,0.335095,6.17047,650.278,573.875,484.6
644,0.117971,6.07861,646.198,575.584,485.676
648,0.298273,3.71405,644.959,592.221,486.842
652,0.251763,3.98194,640.673,595.727,487.833
656,-0.004806,1.23098,641.408,565.062,489.295
660,0.395348,-0.36305,641.619,580.13,490.575
664,0.118544,-1.73125,642.721,582.634,491.993
668,0.080702,-2.97098,641.903,571.387,493.322
672,0.278779,-2.87493,641.332,585.06,494.594
676,0.136675,-3.09857,640.723,554.861,495.989
680,0.013705,-2.91665,640.271,502.301,497.452
684,0.258953,-4.10379,640.482,522.962,498.806
688,0.480977,-3.9962,640.9,563.734,500.009
692,0.015599,-5.03337,639.266,551.851,501.159
696,-0.022277,-4.84168,640.944,532.473,502.492
700,0.276676,-4.96822,639.937,522.86,503.664
704,0.394827,-4.59986,640.523,517.155,504.774
708,-0.004453,-4.59824,641.279,503.315,505.942
712,-0.101841,-4.32036,644.82,508.878,507.342
716,0.194916,-4.30016,645.096,554.411,508.513
720,0.298089,-3.957,643.609,509.985,509.456
724,0.099626,-3.92413,644.223,510.099,510.693
728,0.118128,-3.64082,644.69,560.761,511.692
732,0.277496,-3.35619,646.585,534.62,512.912
736,0.234378,-3.34192,647.687,560.094,514.036
740,0.099838,-3.0402,647.514,502.925,515.17
744,0.157339,-2.90069,646.442,525.103,516.15
748,0.277733,-3.43196,645.959,532.621,517.046
752,0.139553,-3.5352,646.64,548.598,517.983
756,-0.004888,-3.65984,647.783,544.595,519.118
760,0.195022,-3.57405,648.998,516.898,520.201
764,0.298144,-3.73405,647.779,535.374,521.267
768,0.013387,-3.97216,646.837,558.952,522.129
772,-0.022374,-4.39388,646.835,517.186,523.072
776,0.279164,-3.94568,646.596,521.651,524.107
780,0.033318,-5.08829,645.369,576.75,524.932
784,-0.005743,-4.8041,639.01,581.774,525.539
788,0.100159,-4.85382,643.579,531.066,526.78
792,0.119258,-5.56435,646.124,553.24,527.852
796,-0.170255,-5.56871,646.048,549.327,528.902
800,0.078179,-5.83223,647.009,585.472,529.836
804,0.194648,-5.52514,647.969,593.517,530.9
808,-0.082601,-6.83448,647.863,575.368,531.813
812,-0.084677,-6.58555,648.035,571.54,532.771
816,0.099843,-6.95164,648.963,617.591,533.575
817,0.178323,-6.82171,647.918,604.433,533.785