File: PMMA/Calibration_Data/GIDAZE+/GIDAZE+_FPA_25kW_Temp_1.csv
Time,Mass,Back Surface Temperature 1
[s],[g],[K]
1,0,296.865
3,0,296.786
5,0,296.736
7,0,296.689
9,0,296.662
11,0,296.647
13,0,296.647
15,0,296.661
17,0,296.728
19,0,296.842
21,0,297.013
23,0,297.393
25,0,297.717
27,0,298
29,0,298.292
31,0,298.609
33,0,298.959
35,0,299.311
37,0,299.707
39,0,300.11
41,0,300.491
43,0,300.935
45,0,301.374
47,0,301.828
49,0,302.311
51,0,302.793
53,0,303.311
55,0,303.827
57,0,304.372
59,0,304.907
61,0,305.483
63,0,306.045
65,0,306.631
67,0,307.232
69,0,307.842
71,0,308.528
73,0,309.217
75,0,309.972
77,0,310.77
79,0,311.628
81,0,312.513
83,0,313.486
85,0,314.512
87,0,315.61
89,0,316.73
91,0,317.984
93,0,319.326
95,0,320.696
97,0,322.202
99,0,323.799
101,0,325.489
103,0,327.281
105,0,329.079
107,0,330.831
109,0,332.389
111,0,334.364
113,0,335.938
115,0,337.91
117,0,340.121
119,0,342.708
121,0,345.401
123,0,345.82
125,0,348.597
127,0,351.037
129,0,353.804
131,0,357.74
133,0,359.54
135,0,360.787
137,0,362.049
139,0,363.096
141,0,364.192
143,0,365.183
145,0,365.753
147,0,366.229
149,0,363.389
151,0,358.765
153,0,354.068
155,0,349.59
157,0,345.439
159,0,341.943
161,0,339.226
163,0,337.32
165,0,336.01
167,0,335.091
169,0,334.434
171,0,333.994
173,0,333.664
175,0,333.419
177,0,333.163
179,0,332.789
181,0,332.595
183,0,332.429
185,0,332.329
187,0,332.288
189,0,332.291
191,0,332.327
193,0,332.393
195,0,332.495
197,0,332.618
199,0,332.786
201,0,333.044
203,0,333.248
205,0,333.489
207,0,333.783
209,0,334.064
211,0,334.368
213,0,334.633
215,0,334.892
217,0,335.173
219,0,335.181
221,0,335.415
223,0,335.698
225,0,336.11
227,0,336.489
229,0,336.958
231,0,337.527
233,0,338.084
235,0,338.803
237,0,339.52
239,0,340.255
241,0,340.713
243,0,341.151
245,0,341.639
247,0,341.886
249,0,342.356
251,0,342.641
253,0,342.911
255,0,343.228
257,0,343.57
259,0,343.956
261,0,344.333
263,0,344.799
265,0,345.193
267,0,345.681
269,0,346.506
271,0,347.629
273,0,349.587
275,0,352.79
277,0,355.541
279,0,358.423
281,0,362.766
283,0,376.336
285,0,379.799
287,0,380.711
289,0,380.221
291,0,380.838
293,0,382.187
295,0,383.478
297,0,385.558
299,0,387.409
301,0,388.853
303,0,389.154
305,0,390.762
307,0,391.607
309,0,392.859
311,0,394.019
313,0,395.697
315,0,395.852
317,0,397.8
319,0,400.327
321,0,402.01
323,0,403.639
325,0,406.475
327,0,410.492
329,0,419.932
331,0,434.744
333,0,443.206
335,0,459.805
337,0,470.416
339,0,480.714
341,0,487.294
343,0,491.34
345,0,495.724
347,0,501.013
349,0,507.212
351,0,519.698
353,0,525.293
355,0,530.525
357,0,535.319
359,0,537.911
361,0,538.486
363,0,538.956
365,0,543.158
367,0,547.322
369,0,546.526
371,0,549.149
373,0,555.857
375,0,560.574
377,0,564.075
379,0,568.683
381,0,570.934
383,0,575.352
385,0,578.937
387,0,579.762
389,0,576.088
391,0,553.373
393,0,542.434
395,0,543.772
397,0,553.93
399,0,558.815
401,0,554.985
403,0,548.1
405,0,543.242
407,0,541.036
409,0,539.385
411,0,539.315
413,0,539.338
415,0,539.686
417,0,540.144
419,0,540.275
421,0,540.257
423,0,541.997
425,0,541.28
427,0,541.893
429,0,543.542
431,0,544.389
433,0,543.835
435,0,545.498
437,0,546.876
439,0,547.434
441,0,548.361
443,0,549.001
445,0,548.861
447,0,550.023
449,0,550.245
451,0,550.595
453,0,552.103
455,0,554.054
457,0,554.895
459,0,555.352
461,0,555.227
463,0,556.033
465,0,557.783
467,0,558.014
469,0,558.553
471,0,559.412
473,0,559.205
475,0,560.913
477,0,560.976
479,0,560.882
481,0,562.936
483,0,562.967
485,0,563.676
487,0,565.016
489,0,565.437
491,0,566.121
493,0,566.645
495,0,567.505
497,0,568.408
499,0,570.074
501,0,569.372
503,0,570.398
505,0,571.693
507,0,572.291
509,0,572.003
511,0,573.253
513,0,572.602
515,0,573.044
517,0,573.554
519,0,574.062
521,0,574.977
523,0,575.235
525,0,576.335
527,0,576.849
529,0,577.196
531,0,578.167
533,0,578.047