File: PMMA/Calibration_Data/GIDAZE+/GIDAZE+_TGA_O2-10_10K_1.csv
Time,Temperature,Mass
[s],[K],[mg]
0,299.132,1.976
61.5,304.132,1.97771
84.2,309.132,1.97899
105,314.132,1.97815
125,319.132,1.97919
146,324.132,1.97659
168,329.132,1.97787
191,334.132,1.97907
217,339.132,1.97965
245,344.132,1.97885
275,349.132,1.98117
305,354.132,1.98404
336,359.132,1.983
367,364.132,1.98618
397,369.132,1.98833
427,374.132,1.99094
458,379.132,1.99256
488,384.132,1.99069
518,389.132,1.989
548,394.132,1.98841
578,399.132,1.98974
608,404.132,1.99041
638,409.132,1.98914
668,414.132,1.98707
697,419.132,1.98597
727,424.132,1.98848
757,429.132,1.98569
787,434.132,1.98335
817,439.132,1.98312
847,444.132,1.98128
878,449.132,1.98096
908,454.132,1.98039
937,459.132,1.98141
967,464.132,1.98229
997,469.132,1.98353
1030,474.132,1.98332
1060,479.132,1.98223
1090,484.132,1.981
1120,489.132,1.98241
1150,494.132,1.98402
1180,499.132,1.983
1210,504.132,1.98308
1240,509.132,1.98336
1270,514.132,1.98444
1300,519.132,1.98108
1330,524.132,1.98003
1360,529.132,1.97991
1390,534.132,1.97759
1420,539.132,1.97276
1450,544.132,1.96901
1480,549.132,1.95654
1510,554.132,1.9321
1540,559.132,1.89385
1570,564.132,1.82354
1600,569.132,1.74216
1630,574.132,1.66565
1660,579.132,1.57441
1690,584.132,1.47952
1720,589.132,1.3991
1750,594.132,1.32389
1780,599.132,1.24253
1810,604.132,1.15003
1840,609.132,1.04742
1870,614.132,0.935781
1900,619.132,0.814745
1930,624.132,0.691898
1960,629.132,0.574863
1990,634.132,0.465577
2020,639.132,0.372843
2050,644.132,0.298488
2080,649.132,0.236638
2110,654.132,0.18904
2140,659.132,0.1510405
2170,664.132,0.120967
2200,669.132,0.0970194
2230,674.132,0.08124403
2260,679.132,0.0697605
2290,684.132,0.0635519
2320,689.132,0.062
2350,694.132,0.0610272
2380,699.132,0.0610037
2410,704.132,0.0629931
2440,709.132,0.0635557
2470,714.132,0.063
2500,719.132,0.0610533
2530,724.132,0.0609995
2560,729.132,0.062
2590,734.132,0.0629984
2620,739.132,0.0610248
2650,744.132,0.060996
2680,749.132,0.0590002
2710,754.132,0.0584449
2740,759.132,0.0570001
2770,764.132,0.0589526
2800,769.132,0.059
2830,774.132,0.059
2860,779.132,0.059
2890,784.132,0.0584125
2920,789.132,0.0591654
2950,794.132,0.05939283
2980,799.132,0.0579918
3010,804.132,0.0609774
3040,809.132,0.06099991
3070,814.132,0.0619766
3100,819.132,0.062
3130,824.132,0.0630842
3160,829.132,0.0652945
3190,834.132,0.066
3220,839.132,0.06500131
3250,844.132,0.0629935
3280,849.132,0.063
3310,854.132,0.063
3340,859.132,0.063
3370,864.132,0.0629712
3400,869.132,0.0610017
3430,874.132,0.06099991
3460,879.132,0.06102797
3490,884.132,0.0629921
3520,889.132,0.0671862
3550,894.132,0.067
3580,899.132,0.0663956
3610,904.132,0.0679679
3640,909.132,0.066
3670,914.132,0.066