File: PMMA/Calibration_Data/GIDAZE+/GIDAZE+_TGA_N2_10K_2.csv
Time,Temperature,Mass
[s],[K],[mg]
0,297.714,1.978
60.5,302.714,1.97659
82.1,307.714,1.97805
102,312.714,1.97891
121,317.714,1.97724
140,322.714,1.97993
162,327.714,1.98206
184,332.714,1.984
209,337.714,1.98597
236,342.714,1.99001
265,347.714,1.99413
296,352.714,1.99695
327,357.714,1.996
358,362.714,1.99566
389,367.714,1.99695
419,372.714,1.99782
449,377.714,1.99946
479,382.714,2.0009
510,387.714,2.00014
540,392.714,1.9999
569,397.714,2.00003
599,402.714,2.00004
629,407.714,1.99937
659,412.714,2.00138
689,417.714,2.00183
719,422.714,2.00142
749,427.714,2.00054
779,432.714,2.00063
809,437.714,1.99958
839,442.714,1.99736
869,447.714,1.99378
899,452.714,1.98991
929,457.714,1.98491
959,462.714,1.98394
989,467.714,1.97995
1020,472.714,1.9769
1050,477.714,1.97164
1080,482.714,1.96703
1110,487.714,1.96003
1140,492.714,1.95436
1170,497.714,1.94984
1200,502.714,1.94767
1230,507.714,1.9459
1260,512.714,1.94911
1290,517.714,1.94608
1320,522.714,1.9463
1350,527.714,1.94497
1380,532.714,1.944
1410,537.714,1.94601
1440,542.714,1.94031
1470,547.714,1.93479
1500,552.714,1.92516
1530,557.714,1.91747
1560,562.714,1.90674
1590,567.714,1.89566
1620,572.714,1.88261
1650,577.714,1.86941
1680,582.714,1.85171
1710,587.714,1.83111
1740,592.714,1.80659
1770,597.714,1.77708
1800,602.714,1.73875
1830,607.714,1.68029
1860,612.714,1.60774
1890,617.714,1.51253
1920,622.714,1.39849
1950,627.714,1.25474
1980,632.714,1.09638
2010,637.714,0.929237
2040,642.714,0.758749
2070,647.714,0.600417
2100,652.714,0.465133
2130,657.714,0.351134
2160,662.714,0.261344
2190,667.714,0.197844
2220,672.714,0.150971
2250,677.714,0.121115
2280,682.714,0.0996176
2310,687.714,0.0863984
2340,692.714,0.07813911
2370,697.714,0.0729514
2400,702.714,0.0709962
2430,707.714,0.0690002
2460,712.714,0.069
2490,717.714,0.069
2520,722.714,0.069
2550,727.714,0.0668964
2580,732.714,0.067
2610,737.714,0.067
2640,742.714,0.0670002
2670,747.714,0.0679989
2700,752.714,0.06800008
2730,757.714,0.06800008
2760,762.714,0.06800008
2790,767.714,0.06800008
2820,772.714,0.06800008
2850,777.714,0.06800008
2880,782.714,0.06800008
2910,787.714,0.06800008
2940,792.714,0.068815
2970,797.714,0.067
3000,802.714,0.0653664
3030,807.714,0.06399997
3060,812.714,0.06399997
3090,817.714,0.0650117
3120,822.714,0.0659008
3150,827.714,0.0660163
3180,832.714,0.0680483
3210,837.714,0.0669064
3240,842.714,0.0669527
3270,847.714,0.0670071
3300,852.714,0.0652224
3330,857.714,0.0660514
3360,862.714,0.0659999
3390,867.714,0.0660017
3420,872.714,0.0670087
3450,877.714,0.067
3480,882.714,0.066015
3510,887.714,0.0659732
3540,892.714,0.06667205
3570,897.714,0.0659999
3600,902.714,0.0659999
3630,907.714,0.0664863
3660,912.714,0.0680007
3690,917.714,0.0659916