File: PMMA/Calibration_Data/GIDAZE+/GIDAZE+_TGA_O2-21_10K_3.csv
Time,Temperature,Mass
[s],[K],[mg]
0.00E+00,299.206,6.044
6.17E+01,304.206,6.04478
8.45E+01,309.206,6.04393
1.05E+02,314.206,6.043
1.25E+02,319.206,6.04604
1.46E+02,324.206,6.04434
1.68E+02,329.206,6.047
1.92E+02,334.206,6.045
2.18E+02,339.206,6.04701
2.46E+02,344.206,6.04786
2.75E+02,349.206,6.0454
3.06E+02,354.206,6.04409
3.36E+02,359.206,6.04596
3.67E+02,364.206,6.04472
3.98E+02,369.206,6.0461
4.28E+02,374.206,6.0448
4.58E+02,379.206,6.0451
4.88E+02,384.206,6.04341
5.18E+02,389.206,6.04221
5.48E+02,394.206,6.04115
5.78E+02,399.206,6.04123
6.08E+02,404.206,6.04116
6.38E+02,409.206,6.03724
6.68E+02,414.206,6.0334
6.98E+02,419.206,6.03149
7.28E+02,424.206,6.02685
7.58E+02,429.206,6.02674
7.88E+02,434.206,6.02189
8.18E+02,439.206,6.02236
8.48E+02,444.206,6.01763
8.78E+02,449.206,6.01584
9.08E+02,454.206,6.01495
9.38E+02,459.206,6.01233
9.68E+02,464.206,6.00861
9.98E+02,469.206,6.00546
1.03E+03,474.206,6.00549
1.06E+03,479.206,6.00183
1.09E+03,484.206,5.99939
1.12E+03,489.206,5.99939
1.15E+03,494.206,5.99791
1.18E+03,499.206,5.99795
1.21E+03,504.206,5.99467
1.24E+03,509.206,5.99305
1.27E+03,514.206,5.99196
1.30E+03,519.206,5.99218
1.33E+03,524.206,5.99111
1.36E+03,529.206,5.988
1.39E+03,534.206,5.98125
1.42E+03,539.206,5.96902
1.45E+03,544.206,5.94622
1.48E+03,549.206,5.90749
1.51E+03,554.206,5.8458
1.54E+03,559.206,5.77173
1.57E+03,564.206,5.70151
1.60E+03,569.206,5.62012
1.63E+03,574.206,5.50956
1.66E+03,579.206,5.32899
1.69E+03,584.206,5.0616
1.72E+03,589.206,4.71106
1.75E+03,594.206,4.37501
1.78E+03,599.206,4.02444
1.81E+03,604.206,3.6107
1.84E+03,609.206,3.09402
1.87E+03,614.206,2.5344
1.90E+03,619.206,2.01115
1.93E+03,624.206,1.57103
1.96E+03,629.206,1.19556
1.99E+03,634.206,0.916131
2.02E+03,639.206,0.703325
2.05E+03,644.206,0.544372
2.08E+03,649.206,0.420968
2.11E+03,654.206,0.328877
2.14E+03,659.206,0.257186
2.17E+03,664.206,0.204089
2.20E+03,669.206,0.16297
2.23E+03,674.206,0.131997
2.26E+03,679.206,0.108745
2.29E+03,684.206,0.0960881
2.32E+03,689.206,0.0900012
2.35E+03,694.206,0.0879994
2.38E+03,699.206,0.088
2.41E+03,704.206,0.0860285
2.44E+03,709.206,0.0829732
2.47E+03,714.206,0.0829998
2.50E+03,719.206,0.082998
2.53E+03,724.206,0.0820002
2.56E+03,729.206,0.0820002
2.59E+03,734.206,0.08298412
2.62E+03,739.206,0.0829998
2.65E+03,744.206,0.084005
2.68E+03,749.206,0.0840001
2.71E+03,754.206,0.08293335
2.74E+03,759.206,0.0806699
2.77E+03,764.206,0.0829998
2.80E+03,769.206,0.0819953
2.83E+03,774.206,0.0820002
2.86E+03,779.206,0.0820002
2.89E+03,784.206,0.0820008
2.92E+03,789.206,0.0809999
2.95E+03,794.206,0.0810005
2.98E+03,799.206,0.0799942
3.01E+03,804.206,0.0800002
3.04E+03,809.206,0.0810482
3.07E+03,814.206,0.0820002
3.10E+03,819.206,0.0820002
3.13E+03,824.206,0.0839741
3.16E+03,829.206,0.0840001
3.19E+03,834.206,0.0840001
3.22E+03,839.206,0.0840001
3.25E+03,844.206,0.0837783
3.28E+03,849.206,0.0849986
3.31E+03,854.206,0.0849998
3.34E+03,859.206,0.0842552
3.37E+03,864.206,0.0829956
3.40E+03,869.206,0.0829998
3.43E+03,874.206,0.0820014
3.46E+03,879.206,0.0810156
3.49E+03,884.206,0.0802462
3.52E+03,889.206,0.0799929
3.55E+03,894.206,0.0809999
3.58E+03,899.206,0.0809999
3.61E+03,904.206,0.0825616
3.64E+03,909.206,0.0830004
3.67E+03,914.206,0.0828439