File: PMMA/Calibration_Data/GIDAZE+/GIDAZE+_TGA_O2-21_10K_2.csv
Time,Temperature,Mass
[s],[K],[mg]
0.00E+00,298.485,2.039
6.10E+01,303.485,2.03888
8.33E+01,308.485,2.03851
1.03E+02,313.485,2.04028
1.23E+02,318.485,2.04499
1.43E+02,323.485,2.04078
1.65E+02,328.485,2.04402
1.88E+02,333.485,2.04379
2.13E+02,338.485,2.04623
2.41E+02,343.485,2.05007
2.70E+02,348.485,2.05184
3.01E+02,353.485,2.05371
3.32E+02,358.485,2.05765
3.63E+02,363.485,2.06006
3.93E+02,368.485,2.05799
4.24E+02,373.485,2.05818
4.54E+02,378.485,2.06084
4.84E+02,383.485,2.05722
5.14E+02,388.485,2.06542
5.44E+02,393.485,2.06662
5.74E+02,398.485,2.06338
6.04E+02,403.485,2.06666
6.34E+02,408.485,2.06272
6.64E+02,413.485,2.06497
6.94E+02,418.485,2.06302
7.24E+02,423.485,2.0608
7.54E+02,428.485,2.06285
7.84E+02,433.485,2.06794
8.14E+02,438.485,2.06387
8.44E+02,443.485,2.06081
8.74E+02,448.485,2.06253
9.04E+02,453.485,2.05916
9.34E+02,458.485,2.06213
9.64E+02,463.485,2.06295
9.93E+02,468.485,2.0601
1.02E+03,473.485,2.06019
1.05E+03,478.485,2.05802
1.08E+03,483.485,2.056
1.11E+03,488.485,2.06006
1.14E+03,493.485,2.059
1.17E+03,498.485,2.05908
1.20E+03,503.485,2.06146
1.23E+03,508.485,2.05793
1.26E+03,513.485,2.05569
1.29E+03,518.485,2.05878
1.32E+03,523.485,2.06005
1.35E+03,528.485,2.06
1.38E+03,533.485,2.05204
1.41E+03,538.485,2.04897
1.44E+03,543.485,2.04094
1.47E+03,548.485,2.03224
1.50E+03,553.485,2.00818
1.53E+03,558.485,1.9868
1.56E+03,563.485,1.95397
1.59E+03,568.485,1.9272
1.62E+03,573.485,1.87544
1.65E+03,578.485,1.78163
1.68E+03,583.485,1.65162
1.71E+03,588.485,1.5506
1.74E+03,593.485,1.46232
1.77E+03,598.485,1.35622
1.80E+03,603.485,1.24373
1.83E+03,608.485,1.09979
1.86E+03,613.485,0.942583
1.89E+03,618.485,0.796968
1.92E+03,623.485,0.649793
1.95E+03,628.485,0.516731
1.98E+03,633.485,0.399302
2.01E+03,638.485,0.320843
2.04E+03,643.485,0.265763
2.07E+03,648.485,0.208119
2.10E+03,653.485,0.168133
2.13E+03,658.485,0.136349
2.16E+03,663.485,0.113475
2.19E+03,668.485,0.0978174
2.22E+03,673.485,0.0796521
2.25E+03,678.485,0.0718411
2.28E+03,683.485,0.0659949
2.31E+03,688.485,0.0659914
2.34E+03,693.485,0.064702
2.37E+03,698.485,0.0640001
2.40E+03,703.485,0.0638884
2.43E+03,708.485,0.0605752
2.46E+03,713.485,0.06410147
2.49E+03,718.485,0.0637006
2.52E+03,723.485,0.0601478
2.55E+03,728.485,0.0710145
2.58E+03,733.485,0.0669907
2.61E+03,738.485,0.0649943
2.64E+03,743.485,0.0629786
2.67E+03,748.485,0.0588955
2.70E+03,753.485,0.0671957
2.73E+03,758.485,0.0669071
2.76E+03,763.485,0.0650308
2.79E+03,768.485,0.0670254
2.82E+03,773.485,0.0667934
2.85E+03,778.485,0.0661058
2.88E+03,783.485,0.0649805
2.91E+03,788.485,0.0644471
2.94E+03,793.485,0.0634243
2.97E+03,798.485,0.0640001
3.00E+03,803.485,0.0640001
3.03E+03,808.485,0.0663113
3.06E+03,813.485,0.0658646
3.09E+03,818.485,0.062583
3.12E+03,823.485,0.0641388
3.15E+03,828.485,0.0599908
3.18E+03,833.485,0.0609726
3.21E+03,838.485,0.0619787
3.24E+03,843.485,0.0662316
3.27E+03,848.485,0.0619948
3.30E+03,853.485,0.0629584
3.33E+03,858.485,0.0630006
3.36E+03,863.485,0.0630006
3.39E+03,868.485,0.0608748
3.42E+03,873.485,0.0640637
3.45E+03,878.485,0.0640217
3.48E+03,883.485,0.0663623
3.51E+03,888.485,0.0646716
3.54E+03,893.485,0.0579633
3.57E+03,898.485,0.0619709
3.60E+03,903.485,0.0650641
3.63E+03,908.485,0.0626279
3.66E+03,913.485,0.0618498