File: PMMA/Calibration_Data/GIDAZE+/GIDAZE+_TGA_N2_10K_1.csv
Time,Temperature,Mass
[s],[K],[mg]
0,297.95,2.015
60,302.95,2.01687
84,307.95,2.01771
102,312.95,2.01695
120,317.95,2.01619
144,322.95,2.02209
162,327.95,2.02716
186,332.95,2.02901
210,337.95,2.031
240,342.95,2.03303
270,347.95,2.036
300,352.95,2.03875
330,357.95,2.03963
360,362.95,2.03867
390,367.95,2.042
420,372.95,2.04408
450,377.95,2.04469
480,382.95,2.04793
510,387.95,2.04847
540,392.95,2.04902
570,397.95,2.04919
600,402.95,2.04694
630,407.95,2.04781
660,412.95,2.04906
690,417.95,2.05182
720,422.95,2.05111
750,427.95,2.05011
780,432.95,2.04987
810,437.95,2.04813
840,442.95,2.04686
870,447.95,2.04201
900,452.95,2.03976
930,457.95,2.03703
960,462.95,2.03401
990,467.95,2.03193
1020,472.95,2.02903
1050,477.95,2.02289
1080,482.95,2.01905
1110,487.95,2.01205
1140,492.95,2.00793
1170,497.95,2.00403
1200,502.95,2.00089
1230,507.95,2.002
1260,512.95,2.00377
1290,517.95,1.99995
1320,522.95,2.00206
1350,527.95,2.00302
1380,532.95,2.00099
1410,537.95,2.00207
1440,542.95,1.99786
1470,547.95,1.99395
1500,552.95,1.98282
1530,557.95,1.97505
1560,562.95,1.96592
1590,567.95,1.95389
1620,572.95,1.94093
1650,577.95,1.92489
1680,582.95,1.90787
1710,587.95,1.88583
1740,592.95,1.86282
1770,597.95,1.83479
1800,602.95,1.79929
1830,607.95,1.73909
1860,612.95,1.66126
1890,617.95,1.56521
1920,622.95,1.44843
1950,627.95,1.30411
1980,632.95,1.13528
2010,637.95,0.969814
2040,642.95,0.79602
2070,647.95,0.63979
2100,652.95,0.503699
2130,657.95,0.385622
2160,662.95,0.3
2190,667.95,0.232513
2220,672.95,0.18961
2250,677.95,0.159746
2280,682.95,0.139762
2310,687.95,0.12518
2340,692.95,0.116992
2370,697.95,0.112082
2400,702.95,0.1089712
2430,707.95,0.107
2460,712.95,0.107
2490,717.95,0.107
2520,722.95,0.107
2550,727.95,0.107
2580,732.95,0.107
2610,737.95,0.107
2640,742.95,0.107
2670,747.95,0.107
2700,752.95,0.107
2730,757.95,0.104987
2760,762.95,0.105186
2790,767.95,0.106
2820,772.95,0.106
2850,777.95,0.106
2880,782.95,0.106
2910,787.95,0.106
2940,792.95,0.107084
2970,797.95,0.107
3000,802.95,0.107
3030,807.95,0.106971
3060,812.95,0.105
3090,817.95,0.10596
3120,822.95,0.10719
3150,827.95,0.106988
3180,832.95,0.106975
3210,837.95,0.107185
3240,842.95,0.108
3270,847.95,0.107821
3300,852.95,0.105994
3330,857.95,0.105887
3360,862.95,0.106
3390,867.95,0.105996
3420,872.95,0.106997
3450,877.95,0.108
3480,882.95,0.107999
3510,887.95,0.10704
3540,892.95,0.10716
3570,897.95,0.107
3600,902.95,0.105997
3630,907.95,0.104913
3660,912.95,0.107
3690,917.95,0.107