File: PMMA/Calibration_Data/GIDAZE+/GIDAZE+_TGA_O2-10_10K_2.csv
Time,Temperature,Mass
[s],[K],[mg]
0,299.402,1.993
61.8,304.402,1.9941
84.7,309.402,1.99683
105,314.402,1.994
126,319.402,1.9961
147,324.402,1.99496
169,329.402,1.99564
193,334.402,1.99744
219,339.402,1.99702
247,344.402,2.00151
277,349.402,2.00426
307,354.402,2.00643
338,359.402,2.00582
368,364.402,2.00792
399,369.402,2.00799
429,374.402,2.01098
459,379.402,2.01193
489,384.402,2.01411
520,389.402,2.0114
550,394.402,2.01092
580,399.402,2.01311
609,404.402,2.01302
639,409.402,2.01201
669,414.402,2.00899
699,419.402,2.01101
729,424.402,2.008
759,429.402,2.00501
789,434.402,2.00492
819,439.402,2.00601
849,444.402,2.00605
879,449.402,2.00593
909,454.402,2.00603
939,459.402,2.00498
969,464.402,2.00398
999,469.402,2.007
1030,474.402,2.00799
1060,479.402,2.006
1090,484.402,2.002
1120,489.402,2.004
1150,494.402,2.00197
1180,499.402,2.00201
1210,504.402,2.003
1240,509.402,2.004
1270,514.402,2.00301
1300,519.402,2.00298
1330,524.402,2.00298
1360,529.402,2.00297
1390,534.402,2.00102
1420,539.402,1.999
1450,544.402,1.99199
1480,549.402,1.97796
1510,554.402,1.95184
1540,559.402,1.91476
1570,564.402,1.83855
1600,569.402,1.75704
1630,574.402,1.67095
1660,579.402,1.57415
1690,584.402,1.47333
1720,589.402,1.38741
1750,594.402,1.31046
1780,599.402,1.22556
1810,604.402,1.13456
1840,609.402,1.03116
1870,614.402,0.918067
1900,619.402,0.80103
1930,624.402,0.681045
1960,629.402,0.563175
1990,634.402,0.457296
2020,639.402,0.365397
2050,644.402,0.291465
2080,649.402,0.23178
2110,654.402,0.181913
2140,659.402,0.144859
2170,664.402,0.112894
2200,669.402,0.0908517
2230,674.402,0.0738988
2260,679.402,0.0639787
2290,684.402,0.0579216
2320,689.402,0.055864
2350,694.402,0.0559999
2380,699.402,0.0559999
2410,704.402,0.0580637
2440,709.402,0.0590024
2470,714.402,0.0569998
2500,719.402,0.0559925
2530,724.402,0.05600051
2560,729.402,0.0569986
2590,734.402,0.059
2620,739.402,0.059
2650,744.402,0.0590038
2680,749.402,0.057
2710,754.402,0.0559323
2740,759.402,0.055
2770,764.402,0.055
2800,769.402,0.0530407
2830,774.402,0.0529998
2860,779.402,0.0529998
2890,784.402,0.0529998
2920,789.402,0.0551359
2950,794.402,0.0539266
2980,799.402,0.0540087
3010,804.402,0.0570042
3040,809.402,0.057
3070,814.402,0.0580043
3100,819.402,0.0579999
3130,824.402,0.0569839
3160,829.402,0.0579806
3190,834.402,0.0580485
3220,839.402,0.05602901
3250,844.402,0.055
3280,849.402,0.0550317
3310,854.402,0.0540001
3340,859.402,0.0529373
3370,864.402,0.053
3400,869.402,0.053
3430,874.402,0.053
3460,879.402,0.0529773
3490,884.402,0.0550066
3520,889.402,0.0588772
3550,894.402,0.0570002
3580,899.402,0.0559333
3610,904.402,0.05701
3640,909.402,0.057
3670,914.402,0.057