File: Wood/Calibration_Data/FSRI/FSRI_CAPA_N2_60kW_R1.csv
Time [s],Mass [g],Back Surface Temperature [K],Top Surface Temperature [K]
0,13.1137,296.323,396.361
3,13.0523,296.277,609.505
6,12.9379,296.236,
9,12.9528,296.406,
12,12.845,296.541,
15,12.7314,296.684,
18,12.5991,297.204,
21,12.4459,298.015,
24,12.3528,299.066,
27,12.242,300.462,
30,12.1321,302.102,
33,11.9887,304.043,
36,11.882,306.199,
39,11.807,308.29,
42,11.6851,310.647,
45,11.5813,313.231,
48,11.4921,315.623,
51,11.4224,318.071,
54,11.311,320.764,
57,11.2134,323.317,
60,11.128,325.923,
63,11.0201,328.517,
66,10.9556,331.052,
69,10.8455,333.639,
72,10.7549,336.023,
75,10.6947,338.328,
78,10.5879,340.728,
81,10.4662,342.987,
84,10.425,345.212,
87,10.3713,347.32,
90,10.2939,349.253,
93,10.1431,351.109,
96,10.1491,353.024,
99,10.0423,354.432,
102,9.92059,355.481,
105,9.88724,356.236,
108,9.8377,356.875,
111,9.74229,357.141,
114,9.69764,357.507,
117,9.56882,357.828,
120,9.50891,358.094,
123,9.42781,358.393,
126,9.35416,358.689,
129,9.28734,358.969,
132,9.22205,359.512,
135,9.14705,360.096,
138,9.08785,360.714,
141,9.0079,361.419,
144,8.92576,362.28,
147,8.87456,363.267,
150,8.78667,364.396,
153,8.76206,365.695,
156,8.7244,367.255,
159,8.60529,369.21,
162,8.5866,370.969,
165,8.53265,373.214,
168,8.42271,375.648,
171,8.35407,378.334,
174,8.34235,380.84,
177,8.24827,383.626,
180,8.17959,386.662,
183,8.11725,389.42,
186,8.08129,392.52,
189,7.99326,395.204,
192,7.96998,397.683,
195,7.8644,400.722,
198,7.81414,403.26,
201,7.73454,406.092,
204,7.67947,407.904,
207,7.67617,411.187,
210,7.56275,412.99,
213,7.50842,415.344,
216,7.48936,416.858,
219,7.35474,419.354,
222,7.31377,421.083,
225,7.24066,423.037,
228,7.18366,424.921,
231,7.1279,425.661,
234,6.96461,428.866,
237,6.98521,430.405,
240,6.89151,432.018,
243,6.83744,433.497,
246,6.77111,435.948,
249,6.68677,436.176,
252,6.6618,436.641,
255,6.58447,439.19,
258,6.52111,440.394,
261,6.4256,441.422,
264,6.34287,442.502,
267,6.29778,443.367,
270,6.2285,444.052,
273,6.18035,445.592,
276,6.08092,443.152,
279,6.05464,442.941,
282,5.99869,444.429,
285,5.92856,445.8,
288,5.88191,446.0511,
291,5.81737,446.328,
294,5.70833,448.199,
297,5.66776,449.522,
300,5.60744,447.811,
303,5.52078,447.87,
306,5.45983,448.465,
309,5.45221,449.538,
312,5.36309,453.315,
315,5.28052,453.389,
318,5.26,452.936,
321,5.20964,454.445,
324,5.14486,453.961,
327,5.0802,456.848,
330,5.0431,457.351,
333,5.01151,458.992,
336,4.94003,458.698,
339,4.88001,460.442,
342,4.80311,460.357,
345,4.76434,458.636,
348,4.72464,461.236,
351,4.72484,462.552,
354,4.65061,463.898,
357,4.56282,463.487,
360,4.57173,464.864,
363,4.50719,467.738,
366,4.43593,465.729,
369,4.43837,467.887,
372,4.40271,467.952,
375,4.3471,467.529,
378,4.31772,469.992,
381,4.28612,470.418,
384,4.19049,471.667,
387,4.14202,471.843,
390,4.15351,472.392,
393,4.10732,473.477,
396,4.0974,472.633,
399,4.01724,474.491,
402,3.98133,474.536,
405,3.9968,475.134,
408,3.94205,476.656,
411,3.8967,476.466,
414,3.85839,477.89,
417,3.83084,477.673,
420,3.77221,478.745,
423,3.79468,479.333,
426,3.70412,479.714,
429,3.72953,480.036,
432,3.71935,480.23,
435,3.65298,480.714,
438,3.60199,481.53,
441,3.632,480.495,
444,3.60393,482.182,
447,3.55402,482.87,
450,3.53014,483.068,
453,3.51883,484.159,
456,3.5191,484.014,
459,3.47441,484.444,
462,3.45141,485.319,
465,3.49989,485.639,
468,3.4703,486.815,
471,3.41903,485.769,
474,3.39963,486.947,
477,3.40045,487.126,
480,3.40187,487.393,
483,3.32709,487.746,
486,3.36235,488.167,
489,3.29812,487.745,
492,3.28858,488.705,
495,3.31467,488.023,
498,3.23625,488.668,
501,3.26355,488.357,
504,3.21255,489.897,
507,3.22149,489.966,
510,3.16614,489.749,
513,3.19923,490.172,
516,3.22292,489.874,
519,3.1931,490.322,
522,3.18466,490.56,
525,3.15242,491.114,
528,3.13828,491.025,
531,3.15741,491.788,
534,3.14662,491.726,
537,3.10721,492.059,
540,3.12584,492.454,
543,3.0863,492.995,
546,3.12315,493.867,
549,3.12617,493.684,
552,3.11411,493.311,
555,3.07385,493.747,
558,3.04614,493.392,
561,3.05433,494.012,
564,3.02864,494.019,
567,3.06998,494.427,
570,3.03228,494.994,
573,3.04891,494.642,
576,3.04792,495.069,
579,3.00826,495.337,
582,3.02947,495.198,
585,3.01946,495.463,
588,2.96836,496.02,
591,2.98347,495.657,
594,3.02682,496.031,
597,3.00877,496.205,
600,3.0315,496.324,
603,2.95893,496.425,1019.89
606,2.98707,496.023,1025.23
609,2.92966,496.203,1023.76
612,2.95091,496.289,1029.21
615,2.98539,496.604,1031.82
618,2.90267,496.435,1031.09
621,2.93191,496.157,1028.26
624,2.91882,496.184,1023.76
627,2.96441,496.669,1025.96
630,2.91682,496.4048,1028.06
633,2.91195,496.4443,1028.58
636,2.94687,496.8377,1026.49
639,2.95956,496.66,1024.08
642,2.93214,497.158,1027.74
645,2.87314,497.212,1035.38
648,2.96411,496.991,1025.12
651,2.88698,497.212,1031.72
654,2.87979,497.403,1032.35
657,2.89165,497.241,1036.22
660,2.88719,497.013,1034.65
663,2.92184,497.497,1033.08
666,2.87868,497.66,1039.15
669,2.89803,497.133,1038.42
672,2.89742,497.523,1030.78
675,2.88875,496.941,1030.15
678,2.88566,497.431,1026.28
681,2.86998,497.477,1030.78
684,2.86378,497.503,1031.72
687,2.88467,497.799,1031.09
690,2.84324,497.767,1029.63