File: Wood/Calibration_Data/FSRI/FSRI_Wood_LFA_N2_Perpendicular_R6.csv
Temperature (K),Mean Diffusivity (mm^2/s)
298.0,0.369
323.0,0.386
348.0,0.368
373.0,0.349
423.0,0.316
473.0,0.293
523.0,0.276
573.0,0.263