File: Wood/Calibration_Data/FSRI/FSRI_Wood_Perpendicular_Cone_75kW_hor_R3.csv
Time,Mass (g),HRRPUA (kW/m2)
0.0,97.21,1.3
4.0,97.17,1.5
8.0,97.22,1.7
12.0,96.85,0.8
16.0,96.14,-0.1
20.0,95.35,0.3
24.0,94.46,57.5
28.0,93.66,185.4
32.0,92.96,279.8
36.0,92.26,326.7
40.0,91.53,338.5
44.0,90.88,325.4
48.0,90.23,298.6
52.0,89.67,288.1
56.0,89.04,262.8
60.0,88.54,247.0
64.0,88.09,234.5
68.0,87.59,230.3
72.0,87.05,212.8
76.0,86.56,204.2
80.0,86.07,201.1
84.0,85.56,190.0
88.0,85.09,187.3
92.0,84.63,182.7
96.0,84.21,178.1
100.0,83.79,172.9
104.0,83.38,168.1
108.0,82.91,161.2
112.0,82.49,161.0
116.0,82.04,161.2
120.0,81.62,155.4
124.0,81.16,151.7
128.0,80.73,151.6
132.0,80.32,148.8
136.0,79.91,146.5
140.0,79.53,144.9
144.0,79.14,143.6
148.0,78.71,140.1
152.0,78.29,139.7
156.0,77.9,137.7
160.0,77.51,137.1
164.0,77.08,133.0
168.0,76.7,131.3
172.0,76.33,133.0
176.0,75.92,127.5
180.0,75.55,124.8
184.0,75.16,124.7
188.0,74.78,121.9
192.0,74.4,121.8
196.0,74.01,120.5
200.0,73.65,122.4
204.0,73.23,118.8
208.0,72.88,116.5
212.0,72.52,114.6
216.0,72.14,112.6
220.0,71.77,111.2
224.0,71.4,111.5
228.0,71.05,110.1
232.0,70.68,108.1
236.0,70.33,107.3
240.0,69.97,107.7
244.0,69.65,106.8
248.0,69.32,108.0
252.0,68.95,109.3
256.0,68.57,106.0
260.0,68.26,104.5
264.0,67.89,105.3
268.0,67.54,106.6
272.0,67.25,104.9
276.0,66.91,104.0
280.0,66.56,102.6
284.0,66.21,103.2
288.0,65.93,103.1
292.0,65.53,104.2
296.0,65.2,102.3
300.0,64.87,102.3
304.0,64.53,102.0
308.0,64.2,101.4
312.0,63.9,101.9
316.0,63.61,100.5
320.0,63.27,101.9
324.0,62.94,102.7
328.0,62.59,105.6
332.0,62.28,104.5
336.0,61.93,101.6
340.0,61.61,103.8
344.0,61.27,102.5
348.0,60.95,102.8
352.0,60.66,102.5
356.0,60.33,103.0
360.0,60.04,103.7
364.0,59.66,103.4
368.0,59.3,103.1
372.0,59.01,101.0
376.0,58.72,101.0
380.0,58.38,102.4
384.0,58.01,105.4
388.0,57.73,103.1
392.0,57.43,102.4
396.0,57.11,106.1
400.0,56.75,105.4
404.0,56.42,106.9
408.0,56.09,106.6
412.0,55.75,107.2
416.0,55.43,105.2
420.0,55.13,107.9
424.0,54.82,107.9
428.0,54.51,108.9
432.0,54.18,106.2
436.0,53.87,108.5
440.0,53.56,109.1
444.0,53.2,110.4
448.0,52.89,110.1
452.0,52.56,110.1
456.0,52.24,113.1
460.0,51.94,113.3
464.0,51.6,114.0
468.0,51.29,115.8
472.0,50.97,113.6
476.0,50.59,117.3
480.0,50.21,114.5
484.0,49.89,117.3
488.0,49.57,120.2
492.0,49.3,120.4
496.0,49.0,120.5
500.0,48.64,120.4
504.0,48.32,122.5
508.0,48.0,124.1
512.0,47.61,121.2
516.0,47.32,122.3
520.0,46.96,123.3
524.0,46.63,122.2
528.0,46.31,121.8
532.0,45.96,123.8
536.0,45.65,127.0
540.0,45.35,124.5
544.0,44.97,125.4
548.0,44.68,127.4
552.0,44.28,129.7
556.0,43.93,130.9
560.0,43.58,127.8
564.0,43.23,131.8
568.0,42.91,131.7
572.0,42.57,134.2
576.0,42.21,135.1
580.0,41.85,133.1
584.0,41.52,137.9
588.0,41.1,139.7
592.0,40.69,142.4
596.0,40.34,142.2
600.0,40.0,145.0
604.0,39.6,144.6
608.0,39.24,145.6
612.0,38.87,146.9
616.0,38.45,149.8
620.0,38.07,153.4
624.0,37.64,152.5
628.0,37.24,152.2
632.0,36.83,156.8
636.0,36.45,158.3
640.0,36.07,157.2
644.0,35.68,160.2
648.0,35.28,156.8
652.0,34.87,162.5
656.0,34.41,162.7
660.0,34.01,162.4
664.0,33.58,164.4
668.0,33.19,163.0
672.0,32.78,166.1
676.0,32.36,166.9
680.0,32.03,162.6
684.0,31.57,166.7
688.0,31.17,159.5
692.0,30.75,164.3
696.0,30.35,164.4
700.0,29.93,165.2
704.0,29.53,167.0
708.0,29.12,165.7
712.0,28.75,163.0
716.0,28.41,165.9
720.0,28.01,160.7
724.0,27.6,160.0
728.0,27.22,159.7
732.0,26.83,161.3
736.0,26.46,159.1
740.0,26.12,159.2
744.0,25.73,156.4
748.0,25.39,157.2
752.0,25.11,152.6
756.0,24.76,150.9
760.0,24.42,149.8
764.0,24.04,147.7
768.0,23.69,147.4
772.0,23.39,143.5
776.0,23.06,143.2
780.0,22.84,138.4
784.0,22.56,137.7
788.0,22.26,134.9
792.0,21.98,128.1
796.0,21.74,127.3
800.0,21.46,125.9
804.0,21.24,124.6
808.0,20.98,121.8
812.0,20.74,117.5
816.0,20.48,115.0
820.0,20.32,110.7
824.0,20.19,107.1
828.0,19.96,104.5
832.0,19.75,101.8
836.0,19.58,97.8
840.0,19.39,95.2
844.0,19.24,93.5
848.0,19.12,85.9
852.0,18.98,82.0
856.0,18.84,82.0
860.0,18.79,76.4
864.0,18.67,73.9
868.0,18.59,68.1
872.0,18.53,65.4
876.0,18.41,61.7
880.0,18.34,59.0
884.0,18.3,55.1
888.0,18.23,54.7
892.0,18.18,51.3
896.0,18.15,47.5
900.0,18.13,45.2
904.0,18.09,43.1
908.0,17.99,41.4
912.0,17.89,41.2
916.0,17.87,42.8
920.0,17.82,42.6
924.0,17.75,42.4
928.0,17.68,41.6
932.0,17.67,41.0
936.0,17.67,41.6
940.0,17.64,40.9
944.0,17.55,41.2
948.0,17.47,41.0
952.0,17.41,40.6
956.0,17.35,39.8
960.0,17.35,38.8
964.0,17.32,38.8
968.0,17.26,38.7
972.0,17.27,38.7
976.0,17.29,38.4
980.0,17.25,38.2
984.0,17.09,40.3
988.0,17.03,40.3
992.0,16.96,38.8
996.0,16.9,38.4
1000.0,16.94,38.2
1004.0,16.96,39.4
1008.0,16.95,38.8
1010.0,16.89,38.4