File: Wood/Calibration_Data/FSRI/FSRI_Wood_LFA_N2_Perpendicular_R2.csv
Temperature (K),Mean Diffusivity (mm^2/s)
298.0,0.459
323.0,0.489
348.0,0.452
373.0,0.42
423.0,0.375
473.0,0.348
523.0,0.33
573.0,0.315