File: Wood/Calibration_Data/FSRI/FSRI_TGA_N2_10K_R1.csv
Time (s),Temperature (K),Mass (mg)
0,324.5,3.96
45.67,327,3.959
71.55,329.5,3.959
93.35,332,3.958
113.28,334.5,3.96
132.12,337,3.957
150.23,339.5,3.959
167.78,342,3.959
185,344.5,3.958
201.84,347,3.957
218.42,349.5,3.957
234.7,352,3.956
250.76,354.5,3.956
266.53,357,3.955
282.19,359.5,3.955
297.7,362,3.952
312.96,364.5,3.953
328.12,367,3.952
343.1,369.5,3.952
358.01,372,3.949
372.86,374.5,3.951
387.58,377,3.947
402.26,379.5,3.951
416.86,382,3.95
431.51,384.5,3.95
446.02,387,3.949
460.56,389.5,3.947
475.07,392,3.948
489.59,394.5,3.948
504.02,397,3.948
518.47,399.5,3.948
532.88,402,3.947
547.17,404.5,3.947
561.55,407,3.948
575.86,409.5,3.947
590.15,412,3.947
604.39,414.5,3.947
618.58,417,3.946
632.82,419.5,3.945
647,422,3.944
661.2,424.5,3.944
675.39,427,3.944
689.57,429.5,3.945
703.69,432,3.944
717.82,434.5,3.945
731.94,437,3.944
746.05,439.5,3.943
760.15,442,3.942
774.33,444.5,3.943
788.43,447,3.941
802.53,449.5,3.941
816.64,452,3.939
830.76,454.5,3.938
844.89,457,3.936
858.98,459.5,3.935
873.04,462,3.933
887.12,464.5,3.931
901.25,467,3.931
915.33,469.5,3.927
929.39,472,3.924
943.51,474.5,3.922
957.59,477,3.916
971.68,479.5,3.915
985.81,482,3.911
999.92,484.5,3.907
1014.08,487,3.902
1028.23,489.5,3.896
1042.39,492,3.892
1056.5,494.5,3.886
1070.61,497,3.882
1084.77,499.5,3.876
1098.91,502,3.87
1113.06,504.5,3.864
1127.18,507,3.857
1141.35,509.5,3.852
1155.53,512,3.849
1169.66,514.5,3.838
1183.85,517,3.832
1198.03,519.5,3.825
1212.2,522,3.817
1226.36,524.5,3.807
1240.47,527,3.799
1254.64,529.5,3.787
1268.88,532,3.776
1283.05,534.5,3.765
1297.26,537,3.754
1311.5,539.5,3.74
1325.7,542,3.724
1339.87,544.5,3.709
1354.15,547,3.694
1368.37,549.5,3.674
1382.63,552,3.658
1396.89,554.5,3.64
1411.17,557,3.618
1425.47,559.5,3.597
1439.79,562,3.574
1454.05,564.5,3.549
1468.37,567,3.522
1482.66,569.5,3.494
1496.94,572,3.464
1511.27,574.5,3.433
1525.57,577,3.399
1539.9,579.5,3.362
1554.23,582,3.324
1568.57,584.5,3.283
1582.96,587,3.24
1597.35,589.5,3.193
1611.72,592,3.147
1626.13,594.5,3.095
1640.51,597,3.042
1654.94,599.5,2.986
1669.35,602,2.931
1683.79,604.5,2.87
1698.2,607,2.81
1712.65,609.5,2.748
1727.11,612,2.685
1741.55,614.5,2.62
1756,617,2.552
1770.44,619.5,2.483
1784.88,622,2.41
1799.33,624.5,2.338
1813.83,627,2.261
1828.36,629.5,2.181
1842.89,632,2.095
1857.46,634.5,2.009
1872.04,637,1.918
1886.79,639.5,1.823
1901.57,642,1.726
1916.38,644.5,1.625
1931.09,647,1.531
1945.74,649.5,1.439
1960.22,652,1.36
1974.65,654.5,1.292
1989.03,657,1.24
2003.36,659.5,1.205
2017.72,662,1.176
2032.16,664.5,1.159
2046.61,667,1.148
2061.1,669.5,1.139
2075.66,672,1.13
2090.19,674.5,1.122
2104.75,677,1.114
2119.28,679.5,1.108
2133.93,682,1.099
2148.52,684.5,1.09
2163.14,687,1.083
2177.8,689.5,1.078
2192.41,692,1.071
2207.07,694.5,1.063
2221.67,697,1.057
2236.3,699.5,1.05
2250.93,702,1.043
2265.59,704.5,1.036
2280.25,707,1.03
2294.9,709.5,1.023
2309.63,712,1.017
2324.37,714.5,1.009
2339.1,717,1.004
2353.87,719.5,0.999
2368.62,722,0.995
2383.38,724.5,0.989
2398.13,727,0.983
2412.87,729.5,0.978
2427.65,732,0.974
2442.42,734.5,0.969
2457.25,737,0.963
2472,739.5,0.958
2486.79,742,0.954
2501.54,744.5,0.949
2516.27,747,0.947
2531.04,749.5,0.944
2545.8,752,0.94
2560.6,754.5,0.937
2575.43,757,0.932
2590.25,759.5,0.929
2605.05,762,0.927
2619.9,764.5,0.924
2634.74,767,0.922
2649.6,769.5,0.919
2664.45,772,0.915
2679.33,774.5,0.912
2694.18,777,0.909
2708.98,779.5,0.906
2723.85,782,0.904
2738.69,784.5,0.902
2753.54,787,0.899
2768.4,789.5,0.896
2783.25,792,0.894
2798.18,794.5,0.892
2813.09,797,0.889
2827.98,799.5,0.886
2842.92,802,0.883
2857.85,804.5,0.882
2872.8,807,0.879
2887.75,809.5,0.875
2902.68,812,0.874
2917.64,814.5,0.872
2932.58,817,0.87
2947.5,819.5,0.868
2962.37,822,0.866
2977.25,824.5,0.864
2992.13,827,0.861
3007.02,829.5,0.862
3021.89,832,0.859
3036.83,834.5,0.858
3051.78,837,0.855
3066.76,839.5,0.853
3081.69,842,0.85
3096.66,844.5,0.85
3111.64,847,0.847
3126.66,849.5,0.847
3141.67,852,0.844
3156.66,854.5,0.842
3171.67,857,0.84
3186.69,859.5,0.838
3201.69,862,0.836
3216.7,864.5,0.835
3231.72,867,0.832
3246.74,869.5,0.832
3261.72,872,0.829
3276.71,874.5,0.829
3291.73,877,0.827
3306.76,879.5,0.823
3321.83,882,0.823
3336.87,884.5,0.822
3351.9,887,0.821
3366.97,889.5,0.819
3381.98,892,0.817
3397.06,894.5,0.814
3412.13,897,0.815
3427.18,899.5,0.813
3442.26,902,0.814
3457.33,904.5,0.81
3472.44,907,0.81
3487.55,909.5,0.808
3502.69,912,0.808
3517.82,914.5,0.806
3532.95,917,0.805
3548.02,919.5,0.805
3563.12,922,0.802
3578.21,924.5,0.801
3593.31,927,0.801
3608.45,929.5,0.8
3623.6,932,0.798
3638.72,934.5,0.798
3653.87,937,0.796
3669.02,939.5,0.796
3684.18,942,0.795
3699.36,944.5,0.793
3714.59,947,0.794
3729.87,949.5,0.793
3745.08,952,0.793
3760.28,954.5,0.792
3775.45,957,0.79
3790.66,959.5,0.787
3805.82,962,0.788
3821.01,964.5,0.787
3836.2,967,0.786
3851.35,969.5,0.786
3866.55,972,0.783
3881.8,974.5,0.783
3897.05,977,0.783
3912.3,979.5,0.782
3927.54,982,0.782
3942.78,984.5,0.782
3957.98,987,0.779
3973.17,989.5,0.779
3988.38,992,0.78
4003.55,994.5,0.778
4018.79,997,0.776
4033.99,999.5,0.776
4049.2,1002,0.775
4064.42,1004.5,0.774
4079.61,1007,0.774
4094.79,1009.5,0.774
4109.99,1012,0.773
4125.13,1014.5,0.772
4140.36,1017,0.773
4155.61,1019.5,0.769
4170.86,1022,0.771
4186.11,1024.5,0.77
4201.36,1027,0.77
4216.62,1029.5,0.768
4231.89,1032,0.767
4247.2,1034.5,0.767
4262.46,1037,0.766
4277.76,1039.5,0.765
4293.02,1042,0.765
4308.33,1044.5,0.764
4323.62,1047,0.763
4338.89,1049.5,0.763
4354.16,1052,0.762
4369.37,1054.5,0.762
4384.62,1057,0.761
4399.9,1059.5,0.761
4415.15,1062,0.761
4430.39,1064.5,0.759
4445.72,1067,0.758
4457.98,1069,0.76