File: Wood/Calibration_Data/FSRI/FSRI_STA_N2_30K_R3.csv
Time (s),Temperature (K),Mass (mg),Heat Flow Rate (W/g)
0.0,325.5,3.9683,0.0327
24.463,328.0,3.9718,0.1405
37.8791,330.5,3.9713,0.2148
48.3832,333.0,3.9717,0.2749
57.4279,335.5,3.9729,0.3259
65.6461,338.0,3.9726,0.3661
73.2531,340.5,3.9718,0.4014
80.4569,343.0,3.9705,0.4371
87.3315,345.5,3.9715,0.4671
93.9609,348.0,3.9721,0.4924
100.445,350.5,3.9706,0.5185
106.719,353.0,3.9714,0.5442
112.866,355.5,3.97,0.5637
118.899,358.0,3.971,0.5839
124.836,360.5,3.9691,0.6066
130.646,363.0,3.9695,0.6251
136.378,365.5,3.9692,0.6418
142.051,368.0,3.9668,0.6605
147.635,370.5,3.9673,0.6757
153.156,373.0,3.9654,0.6917
158.656,375.5,3.9649,0.7035
164.085,378.0,3.9669,0.7135
169.474,380.5,3.9657,0.7239
174.858,383.0,3.9655,0.7325
180.174,385.5,3.9642,0.7356
185.464,388.0,3.9634,0.7413
190.749,390.5,3.9641,0.7425
195.981,393.0,3.9642,0.745
201.179,395.5,3.9644,0.7489
206.347,398.0,3.9654,0.7499
211.493,400.5,3.9627,0.7482
216.582,403.0,3.9613,0.7522
221.638,405.5,3.9613,0.7566
226.678,408.0,3.9613,0.7607
231.678,410.5,3.9612,0.7653
236.639,413.0,3.9599,0.7704
241.584,415.5,3.9612,0.7789
246.514,418.0,3.9599,0.7861
251.404,420.5,3.9606,0.7928
256.281,423.0,3.9599,0.8017
261.127,425.5,3.9599,0.8125
265.96,428.0,3.9598,0.8179
270.763,430.5,3.9593,0.8277
275.564,433.0,3.9592,0.8355
280.354,435.5,3.9584,0.8432
285.124,438.0,3.9593,0.8515
289.875,440.5,3.9579,0.8618
294.627,443.0,3.9579,0.8727
299.339,445.5,3.9575,0.8814
304.067,448.0,3.9566,0.8928
308.756,450.5,3.9566,0.9032
313.438,453.0,3.957,0.9121
318.102,455.5,3.9569,0.9232
322.73,458.0,3.9568,0.9324
327.36,460.5,3.9557,0.9426
331.95,463.0,3.9566,0.9522
336.544,465.5,3.9567,0.9637
341.146,468.0,3.9553,0.9747
345.732,470.5,3.9549,0.9861
350.301,473.0,3.9533,0.996
354.83,475.5,3.9527,1.0089
359.392,478.0,3.9501,1.0206
363.95,480.5,3.9476,1.0313
368.498,483.0,3.9461,1.0438
373.031,485.5,3.9446,1.0487
377.558,488.0,3.9437,1.0623
382.077,490.5,3.9408,1.0713
386.602,493.0,3.9382,1.083
391.097,495.5,3.9353,1.0879
395.605,498.0,3.9319,1.0992
400.112,500.5,3.9289,1.1122
404.604,503.0,3.9263,1.1183
409.094,505.5,3.9215,1.1288
413.587,508.0,3.9162,1.137
418.069,510.5,3.9135,1.1438
422.552,513.0,3.9071,1.1527
427.018,515.5,3.9017,1.1529
431.5,518.0,3.8964,1.1606
435.963,520.5,3.8917,1.1648
440.41,523.0,3.8881,1.1671
444.9,525.5,3.8834,1.1739
449.36,528.0,3.8783,1.1763
453.813,530.5,3.8727,1.1764
458.276,533.0,3.8665,1.1797
462.726,535.5,3.8581,1.1817
467.179,538.0,3.8499,1.1812
471.621,540.5,3.8409,1.1822
476.038,543.0,3.8338,1.1806
480.495,545.5,3.826,1.1801
484.981,548.0,3.8158,1.1782
489.429,550.5,3.8053,1.173
493.871,553.0,3.7949,1.1719
498.325,555.5,3.7832,1.1712
502.766,558.0,3.7712,1.1686
507.212,560.5,3.7579,1.1664
511.682,563.0,3.744,1.1639
516.124,565.5,3.727,1.1629
520.575,568.0,3.711,1.159
525.037,570.5,3.694,1.1614
529.497,573.0,3.6773,1.159
533.947,575.5,3.6585,1.1588
538.408,578.0,3.6383,1.1591
542.869,580.5,3.6157,1.1572
547.334,583.0,3.5947,1.1591
551.79,585.5,3.5712,1.1635
556.244,588.0,3.5456,1.1676
560.719,590.5,3.518,1.1757
565.19,593.0,3.4879,1.1873
569.668,595.5,3.4562,1.1958
574.135,598.0,3.4229,1.2082
578.616,600.5,3.3886,1.2219
583.096,603.0,3.3501,1.2331
587.577,605.5,3.3122,1.2488
592.069,608.0,3.2709,1.2646
596.544,610.5,3.2255,1.2845
601.067,613.0,3.1784,1.3001
605.559,615.5,3.1292,1.3209
610.059,618.0,3.0764,1.34
614.568,620.5,3.0248,1.36
619.075,623.0,2.9719,1.3701
623.584,625.5,2.9149,1.384
628.096,628.0,2.8575,1.3959
632.623,630.5,2.7973,1.4148
637.152,633.0,2.736,1.431
641.689,635.5,2.6733,1.4525
646.239,638.0,2.6083,1.4832
650.789,640.5,2.5425,1.5152
655.358,643.0,2.475,1.5601
659.934,645.5,2.4059,1.6092
664.526,648.0,2.3334,1.6694
669.138,650.5,2.2562,1.7393
673.745,653.0,2.1763,1.8115
678.377,655.5,2.0938,1.8853
683.001,658.0,2.0075,1.9507
687.629,660.5,1.9163,2.0047
692.234,663.0,1.8231,2.0336
696.822,665.5,1.7298,2.0197
701.36,668.0,1.6381,1.9518
705.884,670.5,1.5517,1.8243
710.361,673.0,1.4726,1.627
714.795,675.5,1.4007,1.3774
719.209,678.0,1.3407,1.0937
723.628,680.5,1.2916,0.8036
728.058,683.0,1.2538,0.5454
732.514,685.5,1.2263,0.3293
737.032,688.0,1.2085,0.172
741.58,690.5,1.1939,0.0787
746.172,693.0,1.1835,0.0227
750.777,695.5,1.1741,-0.0173
755.384,698.0,1.165,-0.0506
760.006,700.5,1.1572,-0.065
764.634,703.0,1.1476,-0.088
769.278,705.5,1.142,-0.1027
773.912,708.0,1.1347,-0.1193
778.557,710.5,1.1272,-0.1382
783.202,713.0,1.1204,-0.1508
787.854,715.5,1.1111,-0.1642
792.505,718.0,1.107,-0.1784
797.159,720.5,1.1014,-0.1856
801.822,723.0,1.0955,-0.1921
806.482,725.5,1.089,-0.1996
811.159,728.0,1.0827,-0.1941
815.838,730.5,1.0783,-0.1973
820.522,733.0,1.0742,-0.1897
825.212,735.5,1.0667,-0.1823
829.903,738.0,1.0618,-0.1702
834.601,740.5,1.0538,-0.1567
839.317,743.0,1.0464,-0.1374
844.035,745.5,1.0406,-0.1216
848.746,748.0,1.0354,-0.0977
853.473,750.5,1.0325,-0.0819
858.182,753.0,1.0301,-0.0631
862.885,755.5,1.0233,-0.0384
867.646,758.0,1.0184,-0.0245
872.388,760.5,1.0164,-0.0089
877.127,763.0,1.0113,0.0014
881.871,765.5,1.0063,0.0211
886.615,768.0,1.0033,0.0318
891.36,770.5,0.9992,0.0449
896.091,773.0,0.995,0.0556
900.851,775.5,0.993,0.0629
905.627,778.0,0.9907,0.0617
910.386,780.5,0.988,0.0659
915.145,783.0,0.9847,0.0696
919.915,785.5,0.9825,0.076
924.67,788.0,0.9822,0.0797
929.448,790.5,0.9789,0.0832
934.227,793.0,0.9734,0.0887
939.007,795.5,0.9721,0.0875
943.77,798.0,0.9729,0.095
948.565,800.5,0.9666,0.0911
953.346,803.0,0.9626,0.0961
958.135,805.5,0.9608,0.0986
962.92,808.0,0.958,0.1024
967.713,810.5,0.9553,0.1028
972.477,813.0,0.9538,0.1036
977.286,815.5,0.9535,0.1054
982.094,818.0,0.9513,0.1017
986.885,820.5,0.9473,0.1048
991.672,823.0,0.9453,0.1059
996.478,825.5,0.9432,0.0999
1001.29,828.0,0.9447,0.1033
1006.11,830.5,0.9418,0.1034
1010.91,833.0,0.9371,0.1058
1015.73,835.5,0.9357,0.1034
1020.54,838.0,0.9314,0.1031
1025.36,840.5,0.9288,0.1032
1030.18,843.0,0.9275,0.0972
1034.99,845.5,0.9245,0.0956
1039.8,848.0,0.9231,0.0981
1044.62,850.5,0.9218,0.0952
1049.44,853.0,0.9214,0.0914
1054.26,855.5,0.9201,0.0929
1059.09,858.0,0.9188,0.0918
1063.92,860.5,0.9162,0.089
1068.74,863.0,0.9162,0.0907
1073.58,865.5,0.9149,0.0908
1078.42,868.0,0.9122,0.0911
1083.23,870.5,0.9095,0.0878
1088.09,873.0,0.9085,0.0889
1092.93,875.5,0.9071,0.0871
1097.76,878.0,0.9045,0.0869
1102.62,880.5,0.9014,0.0824
1107.45,883.0,0.8988,0.0816
1112.32,885.5,0.8985,0.0773
1117.17,888.0,0.8963,0.0721
1122.03,890.5,0.8946,0.0667
1126.89,893.0,0.8923,0.0664
1131.76,895.5,0.8923,0.0652
1136.62,898.0,0.8909,0.0612
1141.48,900.5,0.8896,0.0576
1146.35,903.0,0.8889,0.0554
1151.22,905.5,0.8866,0.0537
1156.1,908.0,0.884,0.0547
1160.98,910.5,0.8826,0.0549
1165.86,913.0,0.8812,0.0466
1170.75,915.5,0.8798,0.0427
1175.64,918.0,0.8789,0.0453
1180.53,920.5,0.8788,0.0391
1185.42,923.0,0.8776,0.0353
1190.31,925.5,0.8768,0.025
1195.2,928.0,0.8746,0.0222
1200.09,930.5,0.8733,0.016
1204.98,933.0,0.8719,0.0081
1209.88,935.5,0.8706,0.0031
1214.79,938.0,0.8696,-0.0009
1219.72,940.5,0.871,-0.0138
1224.64,943.0,0.8683,-0.009
1229.55,945.5,0.867,-0.0189
1234.47,948.0,0.867,-0.0212
1239.39,950.5,0.8657,-0.0282
1244.31,953.0,0.8644,-0.0377
1249.23,955.5,0.8628,-0.0395
1254.16,958.0,0.8604,-0.0454
1259.07,960.5,0.8591,-0.0522
1264,963.0,0.8597,-0.0643
1268.94,965.5,0.8591,-0.0697
1273.86,968.0,0.8584,-0.0659
1278.81,970.5,0.8571,-0.0736
1283.75,973.0,0.8558,-0.0821
1288.69,975.5,0.8546,-0.0898
1293.62,978.0,0.8538,-0.0988
1298.6,980.5,0.8525,-0.1031
1303.55,983.0,0.8525,-0.1143
1308.51,985.5,0.8538,-0.1252
1313.46,988.0,0.8525,-0.1286
1318.43,990.5,0.8525,-0.1326
1323.39,993.0,0.8512,-0.144
1328.35,995.5,0.8504,-0.1474
1333.32,998.0,0.8499,-0.1529
1338.27,1000.5,0.8482,-0.1599
1343.24,1003.0,0.8469,-0.1701
1348.2,1005.5,0.8456,-0.1802
1353.17,1008.0,0.8469,-0.1839
1358.14,1010.5,0.8442,-0.1965
1363.1,1013.0,0.8441,-0.2027
1368.08,1015.5,0.8442,-0.211
1373.04,1018.0,0.843,-0.2123
1378.01,1020.5,0.8442,-0.2141
1383.01,1023.0,0.8436,-0.2174
1387.97,1025.5,0.8421,-0.2284
1392.95,1028.0,0.8428,-0.2297
1397.94,1030.5,0.8415,-0.2348
1402.93,1033.0,0.8418,-0.2391
1407.91,1035.5,0.8413,-0.2426
1412.89,1038.0,0.839,-0.253
1417.87,1040.5,0.8389,-0.2466
1422.85,1043.0,0.8389,-0.2524
1427.85,1045.5,0.839,-0.2503
1432.83,1048.0,0.838,-0.2547
1437.83,1050.5,0.8376,-0.2555
1442.82,1053.0,0.8363,-0.259
1447.81,1055.5,0.8349,-0.2619
1452.8,1058.0,0.8336,-0.2678
1457.81,1060.5,0.8336,-0.2715
1462.8,1063.0,0.8336,-0.2689
1465.87,1064.5,0.8336,-0.273