File: Wood/Calibration_Data/FSRI/FSRI_Wood_LFA_N2_Parallel_R5.csv
Temperature (K),Mean Diffusivity (mm^2/s)
298.0,0.137
323.0,0.14
348.0,0.145
373.0,0.141
423.0,0.132
473.0,0.124
523.0,0.118
573.0,0.119