File: Wood/Calibration_Data/FSRI/FSRI_TGA_N2_30K_R1.csv
Time (s),Temperature (K),Mass (mg)
0,325.0,4.042
29.9352,327.5,4.042
43.887,330.0,4.044
54.6948,332.5,4.043
63.9414,335.0,4.042
72.2616,337.5,4.042
80.0058,340.0,4.041
87.2988,342.5,4.042
94.2768,345.0,4.039
101.019,347.5,4.040
107.5428,350.0,4.041
113.9082,352.5,4.039
120.1404,355.0,4.038
126.2004,357.5,4.036
132.168,360.0,4.039
138.0396,362.5,4.038
143.8104,365.0,4.036
149.4984,367.5,4.036
155.118,370.0,4.036
160.665,372.5,4.036
166.155,375.0,4.036
171.618,377.5,4.034
177.0168,380.0,4.033
182.3976,382.5,4.032
187.7406,385.0,4.032
193.029,387.5,4.032
198.3072,390.0,4.030
203.5338,392.5,4.029
208.7412,395.0,4.030
213.8556,397.5,4.029
219.0078,400.0,4.029
224.0946,402.5,4.028
229.1574,405.0,4.028
234.1716,407.5,4.029
239.1522,410.0,4.028
244.1166,412.5,4.028
249.054,415.0,4.028
253.9542,417.5,4.028
258.8304,420.0,4.029
263.688,422.5,4.029
268.5192,425.0,4.028
273.3402,427.5,4.028
278.1402,430.0,4.027
282.9336,432.5,4.026
287.7066,435.0,4.027
292.4532,437.5,4.026
297.1962,440.0,4.026
301.9272,442.5,4.025
306.6468,445.0,4.024
311.3526,447.5,4.024
316.017,450.0,4.026
320.6982,452.5,4.026
325.3692,455.0,4.026
330.0072,457.5,4.024
334.6374,460.0,4.023
339.246,462.5,4.024
343.8384,465.0,4.023
348.4218,467.5,4.023
352.9908,470.0,4.021
357.5532,472.5,4.021
362.115,475.0,4.020
366.663,477.5,4.020
371.2086,480.0,4.018
375.7374,482.5,4.016
380.2614,485.0,4.014
384.801,487.5,4.014
389.3238,490.0,4.013
393.8382,492.5,4.009
398.3484,495.0,4.007
402.8556,497.5,4.006
407.3448,500.0,4.002
411.8694,502.5,3.999
416.3634,505.0,3.995
420.8616,507.5,3.992
425.3382,510.0,3.990
429.8244,512.5,3.983
434.3148,515.0,3.979
438.7926,517.5,3.973
443.2686,520.0,3.967
447.741,522.5,3.962
452.2074,525.0,3.955
456.6786,527.5,3.950
461.1366,530.0,3.944
465.6048,532.5,3.937
470.0556,535.0,3.930
474.5142,537.5,3.923
478.959,540.0,3.914
483.4068,542.5,3.906
487.8618,545.0,3.896
492.3042,547.5,3.886
496.7646,550.0,3.876
501.2172,552.5,3.866
505.6734,555.0,3.854
510.1278,557.5,3.842
514.5762,560.0,3.831
519.0378,562.5,3.817
523.494,565.0,3.802
527.949,567.5,3.786
532.413,570.0,3.770
536.8728,572.5,3.751
541.3332,575.0,3.734
545.7972,577.5,3.716
550.2612,580.0,3.695
554.7336,582.5,3.674
559.2066,585.0,3.650
563.6754,587.5,3.626
568.149,590.0,3.599
572.6346,592.5,3.572
577.1088,595.0,3.542
581.6028,597.5,3.510
586.0968,600.0,3.477
590.5944,602.5,3.439
595.0914,605.0,3.400
599.5998,607.5,3.359
604.0968,610.0,3.314
608.613,612.5,3.268
613.1202,615.0,3.220
617.6334,617.5,3.169
622.1556,620.0,3.117
626.6802,622.5,3.063
631.206,625.0,3.005
635.7288,627.5,2.948
640.248,630.0,2.890
644.7834,632.5,2.828
649.3272,635.0,2.767
653.883,637.5,2.704
658.4394,640.0,2.640
663.0126,642.5,2.572
667.5948,645.0,2.501
672.174,647.5,2.428
676.776,650.0,2.352
681.396,652.5,2.273
686.0088,655.0,2.190
690.6216,657.5,2.102
695.22,660.0,2.010
699.786,662.5,1.921
704.3754,665.0,1.830
708.9,667.5,1.739
713.3922,670.0,1.651
717.8502,672.5,1.572
722.2704,675.0,1.503
726.6792,677.5,1.441
731.0958,680.0,1.391
735.5196,682.5,1.356
739.9782,685.0,1.329
744.4722,687.5,1.310
749.016,690.0,1.295
753.585,692.5,1.285
758.1426,695.0,1.273
762.7458,697.5,1.261
767.3736,700.0,1.257
771.9936,702.5,1.250
776.5998,705.0,1.241
781.2198,707.5,1.234
785.8488,710.0,1.226
790.482,712.5,1.220
795.1152,715.0,1.213
799.752,717.5,1.203
804.399,720.0,1.198
809.0448,722.5,1.191
813.702,725.0,1.186
818.3646,727.5,1.178
823.0398,730.0,1.173
827.7126,732.5,1.168
832.4004,735.0,1.159
837.0894,737.5,1.154
841.7892,740.0,1.149
846.4908,742.5,1.144
851.181,745.0,1.137
855.8988,747.5,1.132
860.6514,750.0,1.126
865.3764,752.5,1.122
870.1038,755.0,1.117
874.8336,757.5,1.113
879.57,760.0,1.110
884.3118,762.5,1.108
889.041,765.0,1.103
893.7906,767.5,1.098
898.5408,770.0,1.093
903.2946,772.5,1.090
908.0418,775.0,1.086
912.8046,777.5,1.083
917.568,780.0,1.079
922.3386,782.5,1.077
927.1056,785.0,1.078
931.8828,787.5,1.073
936.6606,790.0,1.069
941.4354,792.5,1.066
946.2222,795.0,1.064
951.0096,797.5,1.059
955.8066,800.0,1.057
960.606,802.5,1.055
965.4084,805.0,1.053
970.2132,807.5,1.052
975.0198,810.0,1.049
979.836,812.5,1.046
984.6402,815.0,1.044
989.4642,817.5,1.041
994.293,820.0,1.038
999.132,822.5,1.037
1003.97,825.0,1.036
1008.8,827.5,1.032
1013.68,830.0,1.030
1018.54,832.5,1.026
1023.4,835.0,1.025
1028.27,837.5,1.025
1033.143,840.0,1.023
1038.02,842.5,1.020
1042.9,845.0,1.022
1047.78,847.5,1.017
1052.67,850.0,1.015
1057.542,852.5,1.013
1062.42,855.0,1.011
1067.316,857.5,1.009
1072.19,860.0,1.007
1077.07,862.5,1.005
1081.95,865.0,1.004
1086.822,867.5,1.002
1091.7,870.0,0.998
1096.581,872.5,0.998
1101.46,875.0,0.997
1106.33,877.5,0.994
1111.22,880.0,0.993
1116.09,882.5,0.991
1120.98,885.0,0.989
1125.84,887.5,0.989
1130.74,890.0,0.986
1135.63,892.5,0.984
1140.51,895.0,0.984
1145.39,897.5,0.981
1150.28,900.0,0.980
1155.165,902.5,0.978
1160.04,905.0,0.976
1164.94,907.5,0.976
1169.829,910.0,0.974
1174.71,912.5,0.973
1179.603,915.0,0.972
1184.5,917.5,0.970
1189.39,920.0,0.969
1194.29,922.5,0.968
1199.178,925.0,0.967
1204.08,927.5,0.965
1208.97,930.0,0.965
1213.86,932.5,0.963
1218.75,935.0,0.962
1223.64,937.5,0.961
1228.55,940.0,0.959
1233.44,942.5,0.961
1238.316,945.0,0.957
1243.24,947.5,0.956
1248.13,950.0,0.955
1253.03,952.5,0.954
1257.945,955.0,0.954
1262.847,957.5,0.952
1267.76,960.0,0.951
1272.68,962.5,0.950
1277.59,965.0,0.950
1282.51,967.5,0.950
1287.43,970.0,0.947
1292.36,972.5,0.947
1297.29,975.0,0.947
1302.2,977.5,0.946
1307.151,980.0,0.947
1312.08,982.5,0.944
1317.02,985.0,0.944
1321.98,987.5,0.943
1326.93,990.0,0.941
1331.89,992.5,0.941
1336.84,995.0,0.942
1341.801,997.5,0.941
1346.76,1000.0,0.939
1351.73,1002.5,0.938
1356.69,1005.0,0.938
1361.66,1007.5,0.934
1366.63,1010.0,0.934
1371.58,1012.5,0.935
1376.58,1015.0,0.935
1381.54,1017.5,0.935
1386.53,1020.0,0.933
1391.51,1022.5,0.933
1396.48,1025.0,0.931
1401.43,1027.5,0.930
1406.421,1030.0,0.931
1411.41,1032.5,0.931
1416.39,1035.0,0.930
1421.37,1037.5,0.929
1426.35,1040.0,0.929
1431.33,1042.5,0.929
1436.32,1045.0,0.927
1441.3,1047.5,0.926
1446.29,1050.0,0.925
1451.274,1052.5,0.925
1456.26,1055.0,0.924
1461.261,1057.5,0.923
1466.26,1060.0,0.925
1471.25,1062.5,0.923
1473.3,1063.5,0.923