File: Wood/Calibration_Data/FSRI/FSRI_Wood_Perpendicular_Cone_75kW_hor_R2.csv
Time,Mass (g),HRRPUA (kW/m2)
0.0,103.75,0.0
4.0,103.31,1.0
8.0,103.09,1.8
12.0,102.9,2.0
16.0,102.51,1.5
20.0,101.82,1.5
24.0,100.89,3.9
28.0,100.04,71.0
32.0,99.2,209.7
36.0,98.45,298.2
40.0,97.73,332.9
44.0,97.13,341.1
48.0,96.47,321.7
52.0,95.85,293.7
56.0,95.25,285.6
60.0,94.6,268.1
64.0,94.06,251.6
68.0,93.53,241.4
72.0,93.01,229.9
76.0,92.47,222.5
80.0,91.97,210.6
84.0,91.52,203.0
88.0,91.02,197.3
92.0,90.58,192.1
96.0,90.03,189.0
100.0,89.54,179.4
104.0,89.17,177.6
108.0,88.67,173.9
112.0,88.24,168.9
116.0,87.83,164.0
120.0,87.4,161.1
124.0,86.94,160.6
128.0,86.51,154.8
132.0,86.01,151.4
136.0,85.61,149.4
140.0,85.17,149.5
144.0,84.77,144.1
148.0,84.37,143.6
152.0,83.95,142.2
156.0,83.55,139.6
160.0,83.13,139.1
164.0,82.68,136.4
168.0,82.29,134.9
172.0,81.9,133.9
176.0,81.46,133.0
180.0,81.05,132.6
184.0,80.67,131.4
188.0,80.32,128.7
192.0,79.91,133.0
196.0,79.46,129.4
200.0,79.01,125.0
204.0,78.62,127.4
208.0,78.2,124.5
212.0,77.81,122.5
216.0,77.45,125.0
220.0,77.05,122.4
224.0,76.71,122.4
228.0,76.26,119.2
232.0,75.84,118.7
236.0,75.51,111.7
240.0,75.09,117.7
244.0,74.71,117.0
248.0,74.31,114.0
252.0,73.99,113.6
256.0,73.66,110.6
260.0,73.3,114.7
264.0,72.96,112.1
268.0,72.56,112.8
272.0,72.24,111.7
276.0,71.81,110.7
280.0,71.41,110.2
284.0,71.07,108.0
288.0,70.72,108.5
292.0,70.39,107.0
296.0,70.05,109.0
300.0,69.71,109.3
304.0,69.33,109.2
308.0,68.96,109.1
312.0,68.61,105.3
316.0,68.26,104.5
320.0,67.9,106.3
324.0,67.6,106.6
328.0,67.26,106.2
332.0,66.94,106.1
336.0,66.58,107.0
340.0,66.24,106.9
344.0,65.94,104.4
348.0,65.54,104.0
352.0,65.18,103.9
356.0,64.85,106.0
360.0,64.5,106.2
364.0,64.21,105.6
368.0,63.92,107.5
372.0,63.56,106.8
376.0,63.24,108.0
380.0,62.86,108.7
384.0,62.51,106.8
388.0,62.19,109.3
392.0,61.88,112.4
396.0,61.54,113.1
400.0,61.19,112.1
404.0,60.92,112.3
408.0,60.55,111.2
412.0,60.2,112.5
416.0,59.88,115.9
420.0,59.49,117.0
424.0,59.21,117.5
428.0,58.84,115.6
432.0,58.57,116.4
436.0,58.24,118.9
440.0,57.88,118.3
444.0,57.54,118.1
448.0,57.18,121.1
452.0,56.83,122.1
456.0,56.55,119.9
460.0,56.18,123.3
464.0,55.84,119.5
468.0,55.53,122.7
472.0,55.21,124.1
476.0,54.86,120.3
480.0,54.54,123.5
484.0,54.21,124.9
488.0,53.85,127.7
492.0,53.47,127.7
496.0,53.14,124.5
500.0,52.8,125.7
504.0,52.51,127.5
508.0,52.16,126.4
512.0,51.81,125.4
516.0,51.47,124.4
520.0,51.15,126.2
524.0,50.77,127.6
528.0,50.43,127.7
532.0,50.12,129.3
536.0,49.78,128.5
540.0,49.45,129.9
544.0,49.1,130.0
548.0,48.74,130.0
552.0,48.44,128.8
556.0,48.06,133.7
560.0,47.69,130.9
564.0,47.37,129.8
568.0,47.01,132.7
572.0,46.65,135.2
576.0,46.29,136.1
580.0,45.96,133.3
584.0,45.61,136.9
588.0,45.23,136.7
592.0,44.88,142.0
596.0,44.5,137.6
600.0,44.16,138.4
604.0,43.78,142.4
608.0,43.41,144.1
612.0,43.01,142.8
616.0,42.67,145.4
620.0,42.3,145.8
624.0,41.93,146.6
628.0,41.55,145.3
632.0,41.15,146.2
636.0,40.79,150.8
640.0,40.4,152.7
644.0,40.01,150.1
648.0,39.61,152.0
652.0,39.26,156.6
656.0,38.84,154.5
660.0,38.48,156.1
664.0,38.07,158.6
668.0,37.63,158.1
672.0,37.23,158.8
676.0,36.86,159.3
680.0,36.46,159.0
684.0,36.07,157.7
688.0,35.66,159.9
692.0,35.27,162.9
696.0,34.88,160.6
700.0,34.51,165.4
704.0,34.07,161.2
708.0,33.64,161.7
712.0,33.23,164.5
716.0,32.84,164.9
720.0,32.45,166.6
724.0,32.09,166.7
728.0,31.7,163.4
732.0,31.36,160.2
736.0,30.96,161.4
740.0,30.56,164.1
744.0,30.13,161.0
748.0,29.76,158.6
752.0,29.4,156.5
756.0,28.99,155.2
760.0,28.65,162.1
764.0,28.34,158.1
768.0,27.99,156.7
772.0,27.63,157.9
776.0,27.27,155.2
780.0,26.91,152.3
784.0,26.58,151.9
788.0,26.22,149.2
792.0,25.88,150.4
796.0,25.54,150.4
800.0,25.26,146.4
804.0,24.95,147.3
808.0,24.67,140.9
812.0,24.34,141.3
816.0,24.0,138.3
820.0,23.67,137.5
824.0,23.42,132.1
828.0,23.15,131.4
832.0,22.94,127.5
836.0,22.65,127.2
840.0,22.39,125.8
844.0,22.17,125.0
848.0,21.94,119.6
852.0,21.71,115.4
856.0,21.44,113.1
860.0,21.21,112.4
864.0,21.04,109.8
868.0,20.79,108.1
872.0,20.64,102.7
876.0,20.45,98.7
880.0,20.29,98.2
884.0,20.1,95.8
888.0,19.96,94.0
892.0,19.75,91.5
896.0,19.59,89.0
900.0,19.43,84.9
904.0,19.29,83.0
908.0,19.18,79.7
912.0,19.1,79.1
916.0,18.97,76.1
920.0,18.87,71.5
924.0,18.73,67.2
928.0,18.61,63.3
932.0,18.5,61.4
936.0,18.43,60.8
940.0,18.33,58.9
944.0,18.27,57.2
948.0,18.18,56.1
952.0,18.14,53.8
956.0,18.08,51.4
960.0,18.01,49.3
964.0,17.9,47.5
968.0,17.84,46.2
972.0,17.79,45.1
976.0,17.74,46.0
980.0,17.68,45.7
984.0,17.69,43.5
988.0,17.64,42.5
992.0,17.6,40.4
996.0,17.55,39.4
1000.0,17.43,38.9
1004.0,17.4,37.8
1008.0,17.35,36.9
1012.0,17.29,36.5
1016.0,17.23,36.5
1020.0,17.2,36.3
1024.0,17.23,36.6
1028.0,17.18,36.9
1032.0,17.15,37.1
1036.0,17.01,38.0
1040.0,16.97,36.4
1044.0,16.95,37.2
1048.0,16.9,36.3
1052.0,16.84,37.0
1056.0,16.81,37.0
1060.0,16.79,37.0
1064.0,16.78,37.2
1068.0,16.71,36.9
1072.0,16.64,37.3
1076.0,16.59,37.3
1080.0,16.52,38.5
1084.0,16.47,39.8
1088.0,16.44,41.2
1089.0,16.43,40.9