File: Wood/Calibration_Data/FSRI/FSRI_Wood_Parallel_Cone_25kW_hor_R3.csv
Time,Mass (g),HRRPUA (kW/m2)
0.0,104.35,4.0
8.0,103.96,4.5
16.0,103.84,11.1
24.0,103.82,13.9
32.0,103.75,15.4
40.0,103.68,23.3
48.0,103.51,21.5
56.0,103.35,7.8
64.0,102.7,8.3
72.0,101.96,89.6
80.0,101.2,164.3
88.0,100.41,167.4
96.0,99.76,161.9
104.0,99.19,148.1
112.0,98.55,135.5
120.0,98.0,129.5
128.0,97.39,120.3
136.0,96.84,115.1
144.0,96.4,111.1
152.0,95.96,102.8
160.0,95.48,99.6
168.0,95.03,99.8
176.0,94.54,93.7
184.0,94.22,88.7
192.0,93.8,85.5
200.0,93.39,82.6
208.0,93.01,80.8
216.0,92.54,77.6
224.0,92.23,76.0
232.0,91.89,76.5
240.0,91.53,74.2
248.0,91.18,75.0
256.0,90.7,71.5
264.0,90.46,68.8
272.0,90.12,68.9
280.0,89.77,68.0
288.0,89.44,66.7
296.0,88.95,64.7
304.0,88.76,63.5
312.0,88.44,64.0
320.0,88.07,62.5
328.0,87.74,61.3
336.0,87.39,62.6
344.0,87.01,60.8
352.0,86.77,59.7
360.0,86.46,61.0
368.0,86.12,61.5
376.0,85.81,62.7
384.0,85.39,62.3
392.0,85.16,60.0
400.0,84.83,59.1
408.0,84.52,60.4
416.0,84.18,60.4
424.0,83.8,59.0
432.0,83.58,59.7
440.0,83.23,58.8
448.0,82.92,56.9
456.0,82.61,58.1
464.0,82.18,55.9
472.0,81.97,56.7
480.0,81.65,57.3
488.0,81.33,56.4
496.0,81.02,55.8
504.0,80.6,56.1
512.0,80.34,55.0
520.0,80.06,55.3
528.0,79.76,56.0
536.0,79.41,56.5
544.0,79.06,63.4
552.0,78.68,65.2
560.0,78.37,63.4
568.0,78.03,62.2
576.0,77.72,60.5
584.0,77.28,60.8
592.0,77.01,59.6
600.0,76.73,59.2
608.0,76.4,59.6
616.0,76.06,60.2
624.0,75.66,60.5
632.0,75.42,62.0
640.0,75.06,62.2
648.0,74.75,61.4
656.0,74.39,61.0
664.0,74.02,61.9
672.0,73.77,62.1
680.0,73.46,61.3
688.0,73.13,62.9
696.0,72.81,61.4
704.0,72.4,62.0
712.0,72.16,62.3
720.0,71.83,63.2
728.0,71.54,63.2
736.0,71.21,61.9
744.0,70.81,61.2
752.0,70.52,60.9
760.0,70.27,59.7
768.0,69.94,61.4
776.0,69.65,62.5
784.0,69.26,61.5
792.0,69.02,60.5
800.0,68.72,60.9
808.0,68.38,60.3
816.0,68.08,62.0
824.0,67.69,60.4
832.0,67.46,61.1
840.0,67.15,62.3
848.0,66.83,62.8
856.0,66.55,62.4
864.0,66.13,62.9
872.0,65.92,62.6
880.0,65.61,61.2
888.0,65.32,63.5
896.0,65.01,61.8
904.0,64.6,62.5
912.0,64.36,64.0
920.0,64.09,65.0
928.0,63.78,64.2
936.0,63.47,66.9
944.0,63.14,66.6
952.0,62.86,63.8
960.0,62.54,66.1
968.0,62.23,65.4
976.0,61.92,63.4
984.0,61.54,64.7
992.0,61.28,66.6
1000.0,61.01,66.4
1008.0,60.68,66.8
1016.0,60.35,68.3
1024.0,59.99,69.2
1032.0,59.73,69.1
1040.0,59.43,70.0
1048.0,59.12,71.8
1056.0,58.79,71.9
1064.0,58.38,72.1
1072.0,58.17,73.0
1080.0,57.88,72.0
1088.0,57.54,71.4
1096.0,57.23,73.5
1104.0,56.8,71.0
1112.0,56.55,71.1
1120.0,56.24,72.0
1128.0,55.9,72.7
1136.0,55.57,72.8
1144.0,55.12,73.6
1152.0,54.83,77.2
1160.0,54.55,78.1
1168.0,54.2,79.7
1176.0,53.84,78.6
1184.0,53.42,76.7
1192.0,53.18,74.1
1200.0,52.83,77.2
1208.0,52.47,80.2
1216.0,52.09,80.1
1224.0,51.68,77.0
1232.0,51.4,80.4
1240.0,51.04,77.4
1248.0,50.67,80.0
1256.0,50.33,79.5
1264.0,49.9,78.7
1272.0,49.57,81.8
1280.0,49.22,81.7
1288.0,48.86,81.6
1296.0,48.48,84.2
1304.0,47.97,84.0
1312.0,47.67,84.8
1320.0,47.29,84.3
1328.0,46.92,84.4
1336.0,46.51,86.6
1344.0,46.05,85.9
1352.0,45.72,86.8
1360.0,45.31,88.9
1368.0,44.93,89.8
1376.0,44.51,90.4
1384.0,44.01,88.4
1392.0,43.7,89.0
1400.0,43.26,91.4
1408.0,42.84,96.0
1416.0,42.44,93.4
1424.0,41.96,92.2
1432.0,41.6,92.4
1440.0,41.17,95.5
1448.0,40.75,95.7
1456.0,40.33,94.2
1464.0,39.85,96.2
1472.0,39.46,94.6
1480.0,39.02,96.3
1488.0,38.58,94.6
1496.0,38.13,93.4
1504.0,37.48,94.6
1512.0,37.24,93.7
1520.0,36.87,96.1
1528.0,36.4,97.2
1536.0,35.96,98.3
1544.0,35.42,104.2
1552.0,35.09,102.0
1560.0,34.65,99.5
1568.0,34.25,99.6
1576.0,33.73,99.2
1584.0,33.19,102.7
1592.0,32.85,103.6
1600.0,32.39,100.8
1608.0,31.93,101.5
1616.0,31.46,105.8
1624.0,30.87,105.7
1632.0,30.52,105.8
1640.0,30.08,108.2
1648.0,29.62,107.8
1656.0,29.14,101.2
1664.0,28.6,102.8
1672.0,28.25,103.9
1680.0,27.8,102.9
1688.0,27.38,103.0
1696.0,26.93,102.0
1704.0,26.42,100.8
1712.0,26.1,98.7
1720.0,25.66,98.8
1728.0,25.23,100.8
1736.0,24.87,107.2
1744.0,24.28,104.5
1752.0,23.95,103.3
1760.0,23.54,100.9
1768.0,23.17,97.4
1776.0,22.76,93.3
1784.0,22.36,92.0
1792.0,21.93,93.1
1800.0,21.67,88.6
1808.0,21.35,85.2
1816.0,21.05,82.1
1824.0,20.66,78.6
1832.0,20.38,76.5
1840.0,20.15,71.2
1848.0,19.91,69.0
1856.0,19.67,65.4
1864.0,19.29,66.7
1872.0,19.19,63.4
1880.0,18.94,62.7
1888.0,18.74,58.8
1896.0,18.54,55.4
1904.0,18.24,55.2
1912.0,18.18,51.3
1920.0,18.02,46.8
1928.0,17.88,44.1
1936.0,17.73,41.0
1944.0,17.51,41.3
1952.0,17.38,36.5
1960.0,17.36,35.6
1968.0,17.24,32.8
1976.0,17.14,32.6
1984.0,16.95,32.0
1992.0,16.94,33.4
2000.0,16.87,33.8
2008.0,16.78,33.2
2016.0,16.7,30.7
2024.0,16.55,27.0
2032.0,16.49,26.2
2040.0,16.47,27.7
2048.0,16.37,28.0
2056.0,16.31,28.1
2064.0,16.14,27.7
2072.0,16.15,25.8
2080.0,16.11,23.8
2088.0,16.04,23.1
2096.0,15.96,22.9
2104.0,15.81,22.6
2112.0,15.83,22.2
2120.0,15.76,23.0
2128.0,15.71,23.4
2136.0,15.63,22.4
2144.0,15.47,22.7
2152.0,15.51,21.9
2160.0,15.45,21.5
2168.0,15.39,20.7
2170.0,15.39,20.6