File: Wood/Calibration_Data/FSRI/FSRI_Wood_LFA_N2_Parallel_R4.csv
Temperature (K),Mean Diffusivity (mm^2/s)
298.0,0.147
323.0,0.149
348.0,0.15
373.0,0.146
423.0,0.137
473.0,0.13
523.0,0.125
573.0,0.127