File: Wood/Calibration_Data/FSRI/FSRI_TGA_N2_30K_R3.csv
Time (s),Temperature (K),Mass (mg)
0,325.0,3.969
33.3696,327.5,3.971
47.5632,330.0,3.972
58.38,332.5,3.971
67.6104,335.0,3.972
75.9396,337.5,3.973
83.643,340.0,3.972
90.8886,342.5,3.971
97.806,345.0,3.971
104.4744,347.5,3.971
110.9796,350.0,3.970
117.2802,352.5,3.971
123.4422,355.0,3.971
129.5022,357.5,3.969
135.4446,360.0,3.969
141.2796,362.5,3.969
147.0228,365.0,3.969
152.7,367.5,3.968
158.2998,370.0,3.967
163.8252,372.5,3.966
169.3368,375.0,3.966
174.774,377.5,3.966
180.1656,380.0,3.964
185.5548,382.5,3.966
190.8768,385.0,3.964
196.1694,387.5,3.963
201.4602,390.0,3.964
206.6958,392.5,3.964
211.902,395.0,3.964
217.0758,397.5,3.965
222.2244,400.0,3.963
227.3226,402.5,3.961
232.3824,405.0,3.961
237.4278,407.5,3.961
242.4306,410.0,3.960
247.4064,412.5,3.961
252.3366,415.0,3.961
257.2794,417.5,3.960
262.1742,420.0,3.961
267.0546,422.5,3.960
271.9044,425.0,3.960
276.7392,427.5,3.960
281.5536,430.0,3.959
286.3416,432.5,3.959
291.1428,435.0,3.958
295.9152,437.5,3.959
300.6672,440.0,3.958
305.4246,442.5,3.958
310.1358,445.0,3.958
314.8674,447.5,3.957
319.5588,450.0,3.957
324.2412,452.5,3.957
328.9116,455.0,3.957
333.543,457.5,3.957
338.1702,460.0,3.956
342.774,462.5,3.957
347.3568,465.0,3.957
351.9636,467.5,3.955
356.5494,470.0,3.955
361.122,472.5,3.954
365.6574,475.0,3.953
370.2102,477.5,3.951
374.775,480.0,3.949
379.3218,482.5,3.947
383.856,485.0,3.945
388.3854,487.5,3.945
392.9046,490.0,3.941
397.4304,492.5,3.938
401.9268,495.0,3.935
406.4382,497.5,3.932
410.943,500.0,3.930
415.4388,502.5,3.927
419.9262,505.0,3.923
424.422,507.5,3.918
428.904,510.0,3.913
433.3842,512.5,3.908
437.853,515.0,3.902
442.3314,517.5,3.898
446.7996,520.0,3.893
451.2444,522.5,3.888
455.7318,525.0,3.884
460.1982,527.5,3.879
464.6502,530.0,3.873
469.1148,532.5,3.867
473.565,535.0,3.860
478.0194,537.5,3.852
482.466,540.0,3.842
486.882,542.5,3.835
491.3268,545.0,3.827
495.816,547.5,3.817
500.2668,550.0,3.807
504.7122,552.5,3.796
509.1648,555.0,3.785
513.6114,557.5,3.773
518.0448,560.0,3.760
522.5208,562.5,3.746
526.965,565.0,3.729
531.4134,567.5,3.713
535.8738,570.0,3.696
540.3342,572.5,3.680
544.7856,575.0,3.661
549.2454,577.5,3.642
553.7082,580.0,3.620
558.1704,582.5,3.598
562.632,585.0,3.575
567.0816,587.5,3.549
571.5564,590.0,3.522
576.027,592.5,3.493
580.5024,595.0,3.462
584.9718,597.5,3.430
589.449,600.0,3.395
593.931,602.5,3.356
598.4112,605.0,3.317
602.901,607.5,3.277
607.3752,610.0,3.232
611.8956,612.5,3.185
616.3914,615.0,3.138
620.8884,617.5,3.086
625.3968,620.0,3.034
629.9046,622.5,2.981
634.4154,625.0,2.923
638.9244,627.5,2.865
643.4436,630.0,2.805
647.9784,632.5,2.745
652.5144,635.0,2.684
657.0612,637.5,2.620
661.6122,640.0,2.554
666.1746,642.5,2.487
670.7532,645.0,2.417
675.3414,647.5,2.344
679.953,650.0,2.268
684.5586,652.5,2.187
689.1876,655.0,2.105
693.8148,657.5,2.019
698.4402,660.0,1.929
703.0488,662.5,1.838
707.6406,665.0,1.746
712.1856,667.5,1.655
716.7096,670.0,1.567
721.197,672.5,1.485
725.64,675.0,1.411
730.0548,677.5,1.348
734.4714,680.0,1.298
738.8994,682.5,1.260
743.3478,685.0,1.231
747.8574,687.5,1.212
752.4006,690.0,1.196
756.9864,692.5,1.185
761.5914,695.0,1.177
766.1982,697.5,1.167
770.8146,700.0,1.159
775.4394,702.5,1.150
780.0876,705.0,1.142
784.7238,707.5,1.136
789.3666,710.0,1.128
794.0124,712.5,1.122
798.6624,715.0,1.112
803.3124,717.5,1.108
807.9636,720.0,1.103
812.628,722.5,1.096
817.2882,725.0,1.090
821.9634,727.5,1.084
826.641,730.0,1.078
831.3258,732.5,1.075
836.0112,735.0,1.068
840.705,737.5,1.063
845.403,740.0,1.055
850.1124,742.5,1.048
854.8314,745.0,1.042
859.5444,747.5,1.037
864.267,750.0,1.032
868.9836,752.5,1.031
873.6846,755.0,1.025
878.436,757.5,1.018
883.182,760.0,1.016
887.9196,762.5,1.012
892.6626,765.0,1.006
897.4086,767.5,1.003
902.1504,770.0,1.000
906.888,772.5,0.996
911.6364,775.0,0.993
916.4166,777.5,0.992
921.1758,780.0,0.988
925.938,782.5,0.985
930.7044,785.0,0.982
935.4594,787.5,0.982
940.2348,790.0,0.979
945.0162,792.5,0.975
949.7958,795.0,0.972
954.558,797.5,0.973
959.3484,800.0,0.968
964.1334,802.5,0.964
968.9202,805.0,0.961
973.7064,807.5,0.958
978.4998,810.0,0.955
983.265,812.5,0.954
988.0668,815.0,0.954
992.8794,817.5,0.951
997.671,820.0,0.948
1002.46,822.5,0.946
1007.26,825.0,0.944
1012.074,827.5,0.945
1016.9,830.0,0.942
1021.7,832.5,0.938
1026.51,835.0,0.936
1031.32,837.5,0.932
1036.14,840.0,0.930
1040.96,842.5,0.929
1045.773,845.0,0.926
1050.58,847.5,0.923
1055.4,850.0,0.922
1060.22,852.5,0.922
1065.04,855.0,0.920
1069.869,857.5,0.919
1074.699,860.0,0.916
1079.52,862.5,0.916
1084.36,865.0,0.915
1089.2,867.5,0.912
1094.02,870.0,0.909
1098.86,872.5,0.909
1103.71,875.0,0.907
1108.54,877.5,0.905
1113.39,880.0,0.902
1118.23,882.5,0.899
1123.09,885.0,0.899
1127.946,887.5,0.897
1132.81,890.0,0.895
1137.66,892.5,0.892
1142.53,895.0,0.892
1147.39,897.5,0.891
1152.258,900.0,0.890
1157.12,902.5,0.889
1162,905.0,0.886
1166.874,907.5,0.885
1171.75,910.0,0.884
1176.63,912.5,0.881
1181.52,915.0,0.880
1186.41,917.5,0.879
1191.3,920.0,0.879
1196.19,922.5,0.879
1201.08,925.0,0.877
1205.97,927.5,0.875
1210.86,930.0,0.873
1215.75,932.5,0.872
1220.65,935.0,0.871
1225.55,937.5,0.870
1230.48,940.0,0.871
1235.41,942.5,0.870
1240.31,945.0,0.867
1245.23,947.5,0.867
1250.15,950.0,0.866
1255.077,952.5,0.864
1259.997,955.0,0.863
1264.93,957.5,0.860
1269.83,960.0,0.859
1274.77,962.5,0.860
1279.7,965.0,0.860
1284.63,967.5,0.858
1289.57,970.0,0.857
1294.51,972.5,0.856
1299.46,975.0,0.856
1304.37,977.5,0.854
1309.36,980.0,0.853
1314.31,982.5,0.852
1319.268,985.0,0.853
1324.22,987.5,0.853
1329.18,990.0,0.853
1334.151,992.5,0.851
1339.11,995.0,0.851
1344.07,997.5,0.850
1349.03,1000.0,0.848
1354,1002.5,0.847
1358.964,1005.0,0.846
1363.93,1007.5,0.847
1368.9,1010.0,0.844
1373.86,1012.5,0.844
1378.83,1015.0,0.844
1383.798,1017.5,0.843
1388.77,1020.0,0.844
1393.76,1022.5,0.845
1398.732,1025.0,0.843
1403.7,1027.5,0.843
1408.69,1030.0,0.842
1413.69,1032.5,0.843
1418.66,1035.0,0.842
1423.65,1037.5,0.840
1428.63,1040.0,0.839
1433.61,1042.5,0.839
1438.6,1045.0,0.839
1443.59,1047.5,0.839
1448.58,1050.0,0.838
1453.58,1052.5,0.836
1458.56,1055.0,0.835
1463.556,1057.5,0.834
1468.56,1060.0,0.834
1473.55,1062.5,0.834
1475.54,1063.5,0.834