File: Wood/Calibration_Data/FSRI/FSRI_CAPA_N2_60kW_R2.csv
Time (s),Mass (g),TC Back (K),TC Top (K)
0,11.821,298.6,427.3
2,11.742,298.6,564.1
4,11.74,298.6,619.4
6,11.728,298.7,671.8
8,11.581,298.7,705.4
10,11.585,298.6,755.2
12,11.513,298.7,
14,11.402,298.6,
16,11.292,298.7,
18,11.262,298.8,
20,11.165,298.9,
22,11.054,299.2,
24,10.93,299.3,
26,10.9,299.9,
28,10.808,300.4,
30,10.665,301.2,
32,10.685,301.8,
34,10.583,302.8,
36,10.541,303.9,
38,10.456,305,
40,10.381,306.1,
42,10.343,307.4,
44,10.251,308.7,
46,10.207,309.9,
48,10.143,311.3,
50,10.101,312.8,
52,10.028,314.1,
54,9.931,315.6,
56,9.945,317.1,
58,9.881,318.7,
60,9.804,320.4,
62,9.782,321.9,
64,9.674,323.4,
66,9.631,325,
68,9.548,326.6,
70,9.54,328.2,
72,9.487,329.8,
74,9.458,331.3,
76,9.394,333,
78,9.22,334.3,
80,9.258,335.8,
82,9.202,337.2,
84,9.166,338.7,
86,9.141,340.1,
88,9.038,341.5,
90,9.038,342.7,
92,8.937,344.1,
94,8.932,345.2,
96,8.842,346.4,
98,8.801,347.6,
100,8.751,348.6,
102,8.712,349.8,
104,8.654,350.6,
106,8.594,351.3,
108,8.498,352.2,
110,8.494,353,
112,8.466,353.5,
114,8.451,353.9,
116,8.383,353.2,
118,8.344,353.2,
120,8.257,353.4,
122,8.203,353.6,
124,8.259,353.8,
126,8.085,354.1,
128,8.07,354.3,
130,8.012,354.5,
132,8.032,354.7,
134,7.953,355.2,
136,7.94,355.5,
138,7.884,355.8,
140,7.846,356.1,
142,7.766,356.6,
144,7.748,357,
146,7.73,357.6,
148,7.683,358.5,
150,7.594,359.2,
152,7.507,360.1,
154,7.532,360.7,
156,7.478,362.1,
158,7.425,363.1,
160,7.431,364.3,
162,7.352,365.7,
164,7.377,367.3,
166,7.274,368.7,
168,7.258,370.4,
170,7.248,372.1,
172,7.181,374.2,
174,7.139,376.2,
176,7.134,378.2,
178,7.091,379.1,
180,7.043,381.2,
182,6.96,383.1,
184,6.916,385.2,
186,6.864,387.2,
188,6.826,389.2,
190,6.805,391.2,
192,6.805,393.2,
194,6.695,395.1,
196,6.748,396.2,
198,6.709,398.2,
200,6.618,400.1,
202,6.675,401.2,
204,6.544,403.2,
206,6.517,405.2,
208,6.526,406.2,
210,6.447,408.2,
212,6.428,409.2,
214,6.371,411.2,
216,6.379,412.1,
218,6.35,414.2,
220,6.308,415.1,
222,6.256,417.1,
224,6.19,418.2,
226,6.147,419.2,
228,6.148,421.2,
230,6.137,422.2,
232,6.047,423.2,
234,6.072,424.2,
236,5.972,426.1,
238,5.964,427.2,
240,5.935,428.2,
242,5.865,429.2,
244,5.804,430.1,
246,5.791,431.2,
248,5.784,432.2,
250,5.714,434.2,
252,5.662,435.1,
254,5.617,436.2,
256,5.579,436.2,
258,5.559,438.2,
260,5.557,439.1,
262,5.537,440.1,
264,5.457,441.1,
266,5.405,441.1,
268,5.37,442.2,
270,5.356,443.2,
272,5.312,444.2,
274,5.231,445.2,
276,5.19,446.2,
278,5.188,447.2,
280,5.149,448.2,
282,5.085,449.2,
284,5.02,450.2,
286,5.077,450.2,
288,4.995,451.2,
290,4.888,452.2,
292,4.864,453.1,
294,4.884,453.2,
296,4.827,454.2,
298,4.829,455.2,
300,4.819,456.2,
302,4.701,456.2,
304,4.674,457.2,
306,4.659,458.2,
308,4.625,458.1,
310,4.526,459.2,
312,4.585,460.2,
314,4.524,460.1,
316,4.517,461.2,
318,4.437,462.2,
320,4.447,462.2,
322,4.436,463.2,
324,4.353,463.2,
326,4.334,464.2,
328,4.303,465.2,
330,4.238,465.2,
332,4.237,466.2,
334,4.229,466.2,
336,4.193,466.2,
338,4.182,467.2,
340,4.142,468.2,
342,4.119,468.2,
344,4.059,468.1,
346,4.037,469.2,
348,4.065,470.2,
350,3.992,470.2,
352,3.977,471.2,
354,3.922,471.2,
356,3.93,471.2,
358,3.879,472.2,
360,3.889,472.2,
362,3.858,473.2,
364,3.882,473.2,
366,3.835,473.2,
368,3.821,474.2,
370,3.781,475.2,
372,3.777,475.2,
374,3.663,476.1,
376,3.702,476.2,
378,3.638,477.2,
380,3.668,477.1,
382,3.59,477.2,
384,3.589,478.2,
386,3.592,477.2,
388,3.623,478.2,
390,3.552,478.2,
392,3.506,479.2,
394,3.564,479.2,
396,3.499,479.2,
398,3.508,480.1,
400,3.493,480.2,
402,3.45,480.2,
404,3.463,481.1,
406,3.403,481.2,
408,3.43,482.2,
410,3.336,482.2,
412,3.367,482.2,
414,3.392,482.2,
416,3.334,483.2,
418,3.316,483.2,
420,3.281,483.2,
422,3.317,483.2,
424,3.294,484.2,
426,3.258,484.2,
428,3.267,484.2,
430,3.272,484.3,
432,3.258,484.2,
434,3.172,484.2,
436,3.23,485.2,
438,3.221,485.1,
440,3.233,485.2,
442,3.184,486.1,
444,3.204,486.2,
446,3.176,486.2,
448,3.144,486.2,
450,3.145,485.2,
452,3.145,486.7,
454,3.11,487.1,
456,3.086,486.7,
458,3.108,488.2,
460,3.062,488.2,
462,3.072,488.2,
464,3.106,488.2,
466,3.061,488.2,
468,3.035,488.2,
470,3.006,489.2,
472,3.048,489.1,
474,3.026,489.2,
476,2.958,488.2,
478,3.024,489.2,
480,2.986,489,
482,2.948,489.6,
484,2.967,489.2,
486,2.969,490.1,
488,2.996,490.2,
490,2.931,491.1,
492,2.952,490.2,
494,2.905,490.2,
496,2.875,491.2,
498,2.89,490.2,
500,2.889,490.2,1035.5
502,2.915,491.2,1032.5
504,2.909,491.1,1030
506,2.935,491.2,1034.7
508,2.925,491.2,1032
510,2.902,491.2,1026.2
512,2.877,491.2,1033.8
514,2.874,491.1,1029.4
516,2.88,491.2,1038.7
518,2.884,492.2,1032.7
520,2.9,491.1,1032.6
522,2.91,491.1,1036.8
524,2.842,492.2,1038.7
526,2.85,492.2,1035.6
528,2.841,493.2,1033.4
530,2.831,493.1,1030.3
532,2.794,493.2,1030.9
534,2.835,492.9,1027.7
536,2.819,493.1,1037.6
538,2.835,493.2,1032.2
540,2.85,493.2,1034
542,2.831,493.2,1033.5
544,2.801,493.2,1035.2