File: Wood/Calibration_Data/FSRI/FSRI_Wood_Perpendicular_Cone_25kW_hor_R3.csv
Time,Mass (g),HRRPUA (kW/m2)
0.0,103.1,5.4
7.0,103.01,8.3
14.0,102.87,4.8
21.0,102.74,3.2
28.0,102.7,3.1
35.0,102.59,1.4
42.0,102.49,3.4
49.0,102.39,3.8
56.0,102.24,3.6
63.0,102.17,6.4
70.0,102.12,10.3
77.0,102.03,11.9
84.0,101.94,9.7
91.0,101.84,12.5
98.0,101.65,13.6
105.0,101.62,15.1
112.0,101.52,16.5
119.0,101.4,14.9
126.0,101.27,11.6
133.0,101.1,8.6
140.0,100.64,9.1
147.0,99.9,20.8
154.0,99.19,119.7
161.0,98.48,174.2
168.0,97.79,176.5
175.0,97.06,162.8
182.0,96.52,151.4
189.0,95.97,141.6
196.0,95.42,130.6
203.0,94.93,121.8
210.0,94.38,112.1
217.0,93.91,101.3
224.0,93.57,98.0
231.0,93.14,96.1
238.0,92.72,92.6
245.0,92.32,87.2
252.0,91.86,80.3
259.0,91.5,76.9
266.0,91.17,75.0
273.0,90.8,74.6
280.0,90.43,72.2
287.0,90.06,71.8
294.0,89.62,69.4
301.0,89.27,68.4
308.0,88.98,66.1
315.0,88.63,61.9
322.0,88.28,61.3
329.0,87.92,59.7
336.0,87.48,60.9
343.0,87.14,60.4
350.0,86.86,60.4
357.0,86.51,61.4
364.0,86.17,65.8
371.0,85.77,63.6
378.0,85.37,58.6
385.0,85.12,53.2
392.0,84.8,51.6
399.0,84.47,50.1
406.0,84.14,49.1
413.0,83.77,49.5
420.0,83.39,48.9
427.0,83.08,48.2
434.0,82.85,46.6
441.0,82.54,47.1
448.0,82.21,47.3
455.0,81.88,47.1
462.0,81.53,47.4
469.0,81.22,46.2
476.0,80.96,44.8
483.0,80.67,44.6
490.0,80.36,44.7
497.0,80.04,43.2
504.0,79.66,46.4
511.0,79.45,46.1
518.0,79.14,44.6
525.0,78.86,42.4
532.0,78.55,40.0
539.0,78.26,39.7
546.0,77.88,38.4
553.0,77.61,40.6
560.0,77.4,40.5
567.0,77.11,39.7
574.0,76.81,38.0
581.0,76.55,37.9
588.0,76.18,37.8
595.0,75.97,37.0
602.0,75.7,36.1
609.0,75.41,34.3
616.0,75.14,31.2
623.0,74.85,30.9
630.0,74.51,29.8
637.0,74.28,30.8
644.0,74.06,30.4
651.0,73.8,31.3
658.0,73.52,33.7
665.0,73.26,33.0
672.0,72.91,33.0
679.0,72.73,34.3
686.0,72.47,34.2
693.0,72.2,32.6
700.0,71.97,33.6
707.0,71.65,34.4
714.0,71.39,35.6
721.0,71.18,34.3
728.0,70.95,32.4
735.0,70.7,32.1
742.0,70.45,31.1
749.0,70.17,31.1
756.0,69.88,31.2
763.0,69.71,32.2
770.0,69.48,31.4
777.0,69.24,30.6
784.0,68.99,29.5
791.0,68.66,29.4
798.0,68.47,30.4
805.0,68.28,30.7
812.0,68.04,34.0
819.0,67.82,34.2
826.0,67.53,29.3
833.0,67.24,27.9
840.0,67.11,26.8
847.0,66.89,27.4
854.0,66.66,27.0
861.0,66.42,25.5
868.0,66.16,29.5
875.0,65.87,31.8
882.0,65.71,31.0
889.0,65.48,29.8
896.0,65.25,29.4
903.0,65.0,29.0
910.0,64.69,31.0
917.0,64.45,32.0
924.0,64.28,31.8
931.0,64.07,31.5
938.0,63.82,32.7
945.0,63.56,34.5
952.0,63.32,36.8
959.0,62.99,38.2
966.0,62.82,40.7
973.0,62.59,39.7
980.0,62.32,39.2
987.0,62.06,40.9
994.0,61.79,41.7
1001.0,61.44,42.6
1008.0,61.27,44.6
1015.0,61.0,47.2
1022.0,60.71,45.9
1029.0,60.45,47.2
1036.0,60.1,48.2
1043.0,59.81,49.0
1050.0,59.59,51.2
1057.0,59.29,51.4
1064.0,59.0,52.7
1071.0,58.67,54.1
1078.0,58.38,55.7
1085.0,57.99,56.0
1092.0,57.74,58.6
1099.0,57.41,59.5
1106.0,57.11,60.0
1113.0,56.79,61.8
1120.0,56.36,65.7
1127.0,56.0,67.2
1134.0,55.75,66.2
1141.0,55.39,66.5
1148.0,55.05,69.1
1155.0,54.67,72.1
1162.0,54.28,72.3
1169.0,53.84,72.9
1176.0,53.54,75.2
1183.0,53.18,75.9
1190.0,52.8,79.7
1197.0,52.4,81.9
1204.0,51.99,81.7
1211.0,51.51,82.4
1218.0,51.2,82.5
1225.0,50.78,84.6
1232.0,50.36,85.0
1239.0,49.92,86.1
1246.0,49.39,88.4
1253.0,49.04,89.0
1260.0,48.64,88.6
1267.0,48.2,90.5
1274.0,47.75,91.7
1281.0,47.24,92.1
1288.0,46.71,89.3
1295.0,46.32,92.0
1302.0,45.85,93.8
1309.0,45.38,94.6
1316.0,44.87,95.6
1323.0,44.32,95.7
1330.0,43.88,95.2
1337.0,43.4,96.2
1344.0,42.86,99.0
1351.0,42.36,100.8
1358.0,41.85,101.6
1365.0,41.28,102.3
1372.0,40.82,105.6
1379.0,40.28,105.1
1386.0,39.75,106.7
1393.0,39.21,109.5
1400.0,38.65,110.2
1407.0,38.1,111.4
1414.0,37.65,109.7
1421.0,37.1,111.9
1428.0,36.58,112.3
1435.0,36.02,112.2
1442.0,35.5,109.5
1449.0,34.92,110.3
1456.0,34.47,109.6
1463.0,33.97,108.5
1470.0,33.45,111.0
1477.0,32.96,107.6
1484.0,32.4,110.6
1491.0,31.95,109.4
1498.0,31.48,111.3
1505.0,31.05,108.0
1512.0,30.57,107.0
1519.0,30.1,105.1
1526.0,29.6,102.1
1533.0,29.16,98.2
1540.0,28.83,98.2
1547.0,28.43,96.1
1554.0,28.04,95.1
1561.0,27.65,93.8
1568.0,27.25,90.3
1575.0,26.91,87.4
1582.0,26.58,85.5
1589.0,26.27,83.7
1596.0,25.98,81.2
1603.0,25.69,77.6
1610.0,25.35,73.0
1617.0,25.07,69.8
1624.0,24.88,65.4
1631.0,24.66,62.1
1638.0,24.42,59.2
1645.0,24.21,56.2
1652.0,23.94,52.4
1659.0,23.83,48.9
1666.0,23.66,47.7
1673.0,23.51,43.9
1680.0,23.33,41.5
1687.0,23.13,38.7
1694.0,22.97,36.7
1701.0,22.93,34.7
1708.0,22.79,31.6
1715.0,22.68,30.5
1722.0,22.55,27.5
1729.0,22.37,25.2
1736.0,22.3,24.6
1743.0,22.25,22.3
1750.0,22.17,20.9
1757.0,22.07,17.9
1764.0,21.98,16.5
1771.0,21.82,13.1
1778.0,21.8,12.2
1785.0,21.72,11.8
1792.0,21.63,11.9
1799.0,21.55,11.6
1806.0,21.45,12.6
1813.0,21.31,11.4
1820.0,21.29,8.8
1827.0,21.24,8.6
1834.0,21.15,8.6
1841.0,21.09,8.6
1848.0,21.01,9.2
1855.0,20.9,10.6
1862.0,20.88,10.8
1869.0,20.81,9.9
1876.0,20.76,9.7
1883.0,20.66,9.1
1890.0,20.53,11.3
1897.0,20.46,11.1
1904.0,20.46,10.4
1911.0,20.41,9.9
1918.0,20.35,9.3
1925.0,20.27,8.1
1932.0,20.12,8.8
1939.0,20.05,8.8
1940.0,20.04,8.9