File: Wood/Calibration_Data/FSRI/FSRI_Wood_CAPA_N2_60kW_R1.csv
Time (s),Mass (g),TC Back (K),TC Top (K)
0,13.114,296.3,396.4
3,13.052,296.3,609.5
6,12.938,296.2,
9,12.953,296.4,
12,12.845,296.5,
15,12.731,296.7,
18,12.599,297.2,
21,12.446,298,
24,12.353,299.1,
27,12.242,300.5,
30,12.132,302.1,
33,11.989,304,
36,11.882,306.2,
39,11.807,308.3,
42,11.685,310.6,
45,11.581,313.2,
48,11.492,315.6,
51,11.422,318.1,
54,11.311,320.8,
57,11.213,323.3,
60,11.128,325.9,
63,11.02,328.5,
66,10.956,331.1,
69,10.845,333.6,
72,10.755,336,
75,10.695,338.3,
78,10.588,340.7,
81,10.466,343,
84,10.425,345.2,
87,10.371,347.3,
90,10.294,349.3,
93,10.143,351.1,
96,10.149,353,
99,10.042,354.4,
102,9.921,355.5,
105,9.887,356.2,
108,9.838,356.9,
111,9.742,357.1,
114,9.698,357.5,
117,9.569,357.8,
120,9.509,358.1,
123,9.428,358.4,
126,9.354,358.7,
129,9.287,359,
132,9.222,359.5,
135,9.147,360.1,
138,9.088,360.7,
141,9.008,361.4,
144,8.926,362.3,
147,8.875,363.3,
150,8.787,364.4,
153,8.762,365.7,
156,8.724,367.3,
159,8.605,369.2,
162,8.587,371,
165,8.533,373.2,
168,8.423,375.6,
171,8.354,378.3,
174,8.342,380.8,
177,8.248,383.6,
180,8.18,386.7,
183,8.117,389.4,
186,8.081,392.5,
189,7.993,395.2,
192,7.97,397.7,
195,7.864,400.7,
198,7.814,403.3,
201,7.735,406.1,
204,7.679,407.9,
207,7.676,411.2,
210,7.563,413,
213,7.508,415.3,
216,7.489,416.9,
219,7.355,419.4,
222,7.314,421.1,
225,7.241,423,
228,7.184,424.9,
231,7.128,425.7,
234,6.965,428.9,
237,6.985,430.4,
240,6.892,432,
243,6.837,433.5,
246,6.771,435.9,
249,6.687,436.2,
252,6.662,436.6,
255,6.584,439.2,
258,6.521,440.4,
261,6.426,441.4,
264,6.343,442.5,
267,6.298,443.4,
270,6.229,444.1,
273,6.18,445.6,
276,6.081,443.2,
279,6.055,442.9,
282,5.999,444.4,
285,5.929,445.8,
288,5.882,446.1,
291,5.817,446.3,
294,5.708,448.2,
297,5.668,449.5,
300,5.607,447.8,
303,5.521,447.9,
306,5.46,448.5,
309,5.452,449.5,
312,5.363,453.3,
315,5.281,453.4,
318,5.26,452.9,
321,5.21,454.4,
324,5.145,454,
327,5.08,456.8,
330,5.043,457.4,
333,5.012,459,
336,4.94,458.7,
339,4.88,460.4,
342,4.803,460.4,
345,4.764,458.6,
348,4.725,461.2,
351,4.725,462.6,
354,4.651,463.9,
357,4.563,463.5,
360,4.572,464.9,
363,4.507,467.7,
366,4.436,465.7,
369,4.438,467.9,
372,4.403,468,
375,4.347,467.5,
378,4.318,470,
381,4.286,470.4,
384,4.19,471.7,
387,4.142,471.8,
390,4.154,472.4,
393,4.107,473.5,
396,4.097,472.6,
399,4.017,474.5,
402,3.981,474.5,
405,3.997,475.1,
408,3.942,476.7,
411,3.897,476.5,
414,3.858,477.9,
417,3.831,477.7,
420,3.772,478.7,
423,3.795,479.3,
426,3.704,479.7,
429,3.73,480,
432,3.719,480.2,
435,3.653,480.7,
438,3.602,481.5,
441,3.632,480.5,
444,3.604,482.2,
447,3.554,482.9,
450,3.53,483.1,
453,3.519,484.2,
456,3.519,484,
459,3.474,484.4,
462,3.451,485.3,
465,3.5,485.6,
468,3.47,486.8,
471,3.419,485.8,
474,3.4,486.9,
477,3.4,487.1,
480,3.402,487.4,
483,3.327,487.7,
486,3.362,488.2,
489,3.298,487.7,
492,3.289,488.7,
495,3.315,488,
498,3.236,488.7,
501,3.264,488.4,
504,3.213,489.9,
507,3.221,490,
510,3.166,489.7,
513,3.199,490.2,
516,3.223,489.9,
519,3.193,490.3,
522,3.185,490.6,
525,3.152,491.1,
528,3.138,491,
531,3.157,491.8,
534,3.147,491.7,
537,3.107,492.1,
540,3.126,492.5,
543,3.086,493,
546,3.123,493.9,
549,3.126,493.7,
552,3.114,493.3,
555,3.074,493.7,
558,3.046,493.4,
561,3.054,494,
564,3.029,494,
567,3.07,494.4,
570,3.032,495,
573,3.049,494.6,
576,3.048,495.1,
579,3.008,495.3,
582,3.029,495.2,
585,3.019,495.5,
588,2.968,496,
591,2.983,495.7,
594,3.027,496,
597,3.009,496.2,
600,3.031,496.3,
603,2.959,496.4,1019.9
606,2.987,496,1025.2
609,2.93,496.2,1023.8
612,2.951,496.3,1029.2
615,2.985,496.6,1031.8
618,2.903,496.4,1031.1
621,2.932,496.2,1028.3
624,2.919,496.2,1023.8
627,2.964,496.7,1026
630,2.917,496.4,1028.1
633,2.912,496.4,1028.6
636,2.947,496.8,1026.5
639,2.96,496.7,1024.1
642,2.932,497.2,1027.7
645,2.873,497.2,1035.4
648,2.964,497,1025.1
651,2.887,497.2,1031.7
654,2.88,497.4,1032.3
657,2.892,497.2,1036.2
660,2.887,497,1034.6
663,2.922,497.5,1033.1
666,2.879,497.7,1039.2
669,2.898,497.1,1038.4
672,2.897,497.5,1030.8
675,2.889,496.9,1030.1
678,2.886,497.4,1026.3
681,2.87,497.5,1030.8
684,2.864,497.5,1031.7
687,2.885,497.8,1031.1
690,2.843,497.8,1029.6