File: Wood/Calibration_Data/FSRI/FSRI_Wood_Perpendicular_Cone_50kW_hor_R2.csv
Time,Mass (g),HRRPUA (kW/m2)
0.0,104.65,-3.5
5.0,104.47,-2.2
10.0,104.38,5.3
15.0,104.28,7.1
20.0,104.15,7.7
25.0,103.96,11.7
30.0,103.43,10.5
35.0,102.72,13.4
40.0,101.98,81.2
45.0,101.28,166.0
50.0,100.56,215.1
55.0,99.94,233.8
60.0,99.31,242.3
65.0,98.69,238.0
70.0,98.15,225.5
75.0,97.52,210.4
80.0,96.94,194.9
85.0,96.4,185.7
90.0,95.97,177.6
95.0,95.51,172.9
100.0,95.06,163.0
105.0,94.59,155.2
110.0,94.16,150.9
115.0,93.69,147.7
120.0,93.22,143.1
125.0,92.83,138.4
130.0,92.4,134.6
135.0,92.07,131.6
140.0,91.68,127.4
145.0,91.26,123.0
150.0,90.92,122.3
155.0,90.49,119.9
160.0,90.04,117.8
165.0,89.61,116.0
170.0,89.24,113.8
175.0,88.92,108.8
180.0,88.57,110.9
185.0,88.25,109.0
190.0,87.79,106.3
195.0,87.44,108.9
200.0,86.94,105.9
205.0,86.6,104.9
210.0,86.19,102.7
215.0,86.01,102.1
220.0,85.62,100.3
225.0,85.17,103.0
230.0,84.78,101.3
235.0,84.45,99.3
240.0,84.03,96.3
245.0,83.69,94.8
250.0,83.29,94.0
255.0,82.98,93.4
260.0,82.69,91.9
265.0,82.34,91.3
270.0,81.97,90.0
275.0,81.53,88.0
280.0,81.16,86.5
285.0,80.84,85.6
290.0,80.51,85.3
295.0,80.23,85.9
300.0,79.88,86.3
305.0,79.55,82.9
310.0,79.22,83.0
315.0,78.9,83.5
320.0,78.5,82.6
325.0,78.17,82.0
330.0,77.85,82.3
335.0,77.57,82.1
340.0,77.26,81.6
345.0,76.96,80.5
350.0,76.64,80.6
355.0,76.29,81.6
360.0,75.87,81.1
365.0,75.57,80.1
370.0,75.32,77.7
375.0,75.08,79.1
380.0,74.77,80.7
385.0,74.48,78.8
390.0,74.17,78.1
395.0,73.79,77.5
400.0,73.49,78.0
405.0,73.2,78.9
410.0,72.92,77.4
415.0,72.69,79.3
420.0,72.4,77.3
425.0,72.08,78.1
430.0,71.78,78.2
435.0,71.46,77.0
440.0,71.09,76.8
445.0,70.87,77.1
450.0,70.61,77.5
455.0,70.32,76.1
460.0,70.01,79.6
465.0,69.74,78.2
470.0,69.46,78.5
475.0,69.09,80.4
480.0,68.8,79.7
485.0,68.5,80.8
490.0,68.19,80.8
495.0,68.01,80.6
500.0,67.7,80.0
505.0,67.4,80.5
510.0,67.15,80.9
515.0,66.8,80.6
520.0,66.47,81.8
525.0,66.18,80.6
530.0,65.91,81.0
535.0,65.69,81.6
540.0,65.42,82.7
545.0,65.13,81.4
550.0,64.86,80.5
555.0,64.5,80.2
560.0,64.22,80.2
565.0,63.93,80.7
570.0,63.71,80.4
575.0,63.43,82.4
580.0,63.2,84.3
585.0,62.9,85.7
590.0,62.58,85.9
595.0,62.24,84.8
600.0,62.0,85.3
605.0,61.7,86.9
610.0,61.5,86.3
615.0,61.21,84.6
620.0,60.94,87.0
625.0,60.7,87.5
630.0,60.37,85.9
635.0,60.09,86.6
640.0,59.8,85.3
645.0,59.54,87.5
650.0,59.33,90.4
655.0,59.04,88.6
660.0,58.74,88.2
665.0,58.48,90.8
670.0,58.18,91.8
675.0,57.83,92.9
680.0,57.62,93.2
685.0,57.25,93.0
690.0,57.04,93.1
695.0,56.74,95.3
700.0,56.42,97.4
705.0,56.09,99.2
710.0,55.8,100.2
715.0,55.45,104.1
720.0,55.13,105.4
725.0,54.83,108.9
730.0,54.56,110.5
735.0,54.2,111.8
740.0,53.87,113.2
745.0,53.51,112.9
750.0,53.08,115.0
755.0,52.74,114.3
760.0,52.39,115.0
765.0,52.04,117.9
770.0,51.68,116.6
775.0,51.32,122.4
780.0,50.93,123.3
785.0,50.55,123.6
790.0,50.1,126.3
795.0,49.7,127.3
800.0,49.29,131.2
805.0,48.94,132.7
810.0,48.52,135.9
815.0,48.12,135.4
820.0,47.71,135.3
825.0,47.3,138.8
830.0,46.83,141.9
835.0,46.4,141.9
840.0,45.95,142.4
845.0,45.59,145.6
850.0,45.14,145.8
855.0,44.72,146.3
860.0,44.25,147.8
865.0,43.79,147.1
870.0,43.31,149.3
875.0,42.87,149.4
880.0,42.39,152.8
885.0,41.96,154.3
890.0,41.59,157.4
895.0,41.13,154.2
900.0,40.69,152.8
905.0,40.23,154.5
910.0,39.75,154.5
915.0,39.26,156.9
920.0,38.82,154.2
925.0,38.38,155.9
930.0,37.97,156.4
935.0,37.52,156.6
940.0,37.08,158.7
945.0,36.62,155.2
950.0,36.2,153.6
955.0,35.73,153.2
960.0,35.26,154.3
965.0,34.88,151.0
970.0,34.41,152.7
975.0,34.05,149.1
980.0,33.61,147.9
985.0,33.21,152.8
990.0,32.77,148.3
995.0,32.32,145.9
1000.0,31.91,145.8
1005.0,31.51,143.4
1010.0,31.13,144.0
1015.0,30.79,140.5
1020.0,30.43,138.8
1025.0,30.02,139.0
1030.0,29.59,134.4
1035.0,29.22,134.2
1040.0,28.87,131.8
1045.0,28.58,129.8
1050.0,28.24,130.8
1055.0,27.9,130.3
1060.0,27.59,128.6
1065.0,27.22,129.2
1070.0,26.84,124.4
1075.0,26.53,122.6
1080.0,26.24,121.6
1085.0,25.93,118.0
1090.0,25.7,115.7
1095.0,25.43,114.3
1100.0,25.15,112.7
1105.0,24.84,111.1
1110.0,24.58,106.4
1115.0,24.27,105.8
1120.0,24.05,105.0
1125.0,23.79,101.3
1130.0,23.6,100.9
1135.0,23.38,98.4
1140.0,23.18,97.5
1145.0,22.94,94.9
1150.0,22.68,92.0
1155.0,22.47,88.8
1160.0,22.24,89.5
1165.0,22.15,86.0
1170.0,22.04,85.5
1175.0,21.88,82.7
1180.0,21.74,79.9
1185.0,21.59,74.4
1190.0,21.35,73.6
1195.0,21.22,71.6
1200.0,21.09,68.3
1205.0,21.06,67.1
1210.0,21.01,65.7
1215.0,20.9,62.6
1220.0,20.82,59.3
1225.0,20.75,56.6
1230.0,20.54,53.0
1235.0,20.5,50.9
1240.0,20.44,48.2
1245.0,20.46,49.6
1250.0,20.42,47.0
1255.0,20.34,47.1
1260.0,20.27,47.0
1265.0,20.13,46.4
1270.0,20.07,46.9
1275.0,19.98,46.2
1280.0,19.94,45.1
1285.0,19.99,45.5
1290.0,19.94,43.8
1295.0,19.9,42.4
1300.0,19.81,42.3
1305.0,19.69,41.4
1310.0,19.61,41.1
1315.0,19.56,42.1
1320.0,19.5,43.1
1325.0,19.58,43.2
1330.0,19.52,44.0
1335.0,19.47,44.0
1340.0,19.43,44.6
1345.0,19.35,43.9
1350.0,19.22,43.5
1355.0,19.14,40.3
1360.0,19.09,39.5
1365.0,19.12,39.7
1370.0,19.13,40.5
1375.0,19.09,41.2
1380.0,18.99,42.1
1385.0,18.91,42.9
1390.0,18.81,43.7
1395.0,18.75,43.7
1397.0,18.72,44.3