File: Wood/Calibration_Data/FSRI/FSRI_Wood_LFA_N2_Parallel_R3.csv
Temperature (K),Mean Diffusivity (mm^2/s)
298.0,0.154
323.0,0.156
348.0,0.158
373.0,0.154
423.0,0.145
473.0,0.137
523.0,0.13
573.0,0.131