File: Wood/Calibration_Data/FSRI/FSRI_Wood_STA_N2_30K_R1.csv
Time (s),Temperature (K),Mass (mg),Heat Flow Rate (W/g)
0.0,325.0,4.0427,-0.0048
40.3744,327.5,4.0425,0.1133
54.6348,330.0,4.0441,0.1956
65.554,332.5,4.043,0.2583
74.8754,335.0,4.0423,0.3125
83.2322,337.5,4.0413,0.3592
91.0056,340.0,4.0414,0.3963
98.32,342.5,4.0422,0.4332
105.317,345.0,4.0394,0.4663
112.071,347.5,4.0399,0.4959
118.603,350.0,4.041,0.5262
124.979,352.5,4.039,0.5533
131.22,355.0,4.0378,0.5773
137.288,357.5,4.0353,0.5995
143.261,360.0,4.0398,0.6239
149.138,362.5,4.0375,0.6453
154.917,365.0,4.0366,0.6673
160.607,367.5,4.0361,0.6871
166.232,370.0,4.0348,0.7046
171.782,372.5,4.036,0.7231
177.276,375.0,4.0359,0.7388
182.74,377.5,4.0344,0.7521
188.146,380.0,4.0331,0.7615
193.519,382.5,4.0317,0.7711
198.873,385.0,4.0317,0.7749
204.159,387.5,4.0317,0.7836
209.441,390.0,4.0305,0.7855
214.668,392.5,4.0294,0.7835
219.881,395.0,4.0294,0.7828
224.996,397.5,4.029,0.7822
230.15,400.0,4.029,0.7836
235.239,402.5,4.0277,0.7844
240.302,405.0,4.0277,0.7855
245.321,407.5,4.0281,0.7885
250.302,410.0,4.0277,0.7906
255.268,412.5,4.0277,0.7951
260.208,415.0,4.0279,0.7997
265.109,417.5,4.0277,0.8047
269.987,420.0,4.029,0.8138
274.846,422.5,4.029,0.8178
279.678,425.0,4.0277,0.826
284.496,427.5,4.0281,0.8352
289.299,430.0,4.0274,0.8434
294.094,432.5,4.0264,0.8528
298.869,435.0,4.0276,0.8645
303.615,437.5,4.0264,0.8734
308.359,440.0,4.0263,0.8836
313.092,442.5,4.0251,0.8946
317.811,445.0,4.0244,0.9033
322.519,447.5,4.0244,0.9178
327.184,450.0,4.0257,0.9287
331.865,452.5,4.0257,0.939
336.538,455.0,4.027,0.9512
341.177,457.5,4.0242,0.9606
345.808,460.0,4.0229,0.9722
350.418,462.5,4.0242,0.9835
355.011,465.0,4.0229,0.9918
359.594,467.5,4.0229,1.0025
364.165,470.0,4.0212,1.0146
368.726,472.5,4.0209,1.0259
373.29,475.0,4.0196,1.0374
377.838,477.5,4.0196,1.0458
382.384,480.0,4.0183,1.0608
386.913,482.5,4.0166,1.0731
391.437,485.0,4.0143,1.084
395.976,487.5,4.0143,1.0957
400.5,490.0,4.013,1.1068
405.016,492.5,4.0097,1.117
409.525,495.0,4.0075,1.1276
414.033,497.5,4.0059,1.1376
418.522,500.0,4.0026,1.149
423.048,502.5,3.9997,1.1599
427.541,505.0,3.995,1.1722
432.04,507.5,3.9925,1.1832
436.517,510.0,3.9907,1.1948
441.003,512.5,3.9828,1.2033
445.493,515.0,3.9792,1.2113
449.972,517.5,3.9726,1.2141
454.447,520.0,3.9678,1.2203
458.921,522.5,3.9625,1.2247
463.387,525.0,3.9556,1.2297
467.858,527.5,3.9509,1.2315
472.315,530.0,3.944,1.2328
476.785,532.5,3.9376,1.2334
481.236,535.0,3.9309,1.2322
485.695,537.5,3.9231,1.2324
490.139,540.0,3.9145,1.2318
494.589,542.5,3.9068,1.2302
499.042,545.0,3.8963,1.2268
503.485,547.5,3.8865,1.2238
507.945,550.0,3.8767,1.2196
512.397,552.5,3.8657,1.2146
516.854,555.0,3.854,1.208
521.309,557.5,3.8421,1.2062
525.757,560.0,3.8309,1.2057
530.217,562.5,3.8175,1.2002
534.674,565.0,3.8027,1.1965
539.129,567.5,3.7867,1.1953
543.594,570.0,3.7708,1.191
548.053,572.5,3.752,1.1893
552.513,575.0,3.7355,1.1862
556.977,577.5,3.7171,1.1819
561.44,580.0,3.6966,1.1814
565.913,582.5,3.675,1.1763
570.385,585.0,3.6517,1.1769
574.855,587.5,3.6272,1.1792
579.328,590.0,3.6006,1.1794
583.812,592.5,3.5736,1.184
588.288,595.0,3.5445,1.1907
592.779,597.5,3.5123,1.1972
597.275,600.0,3.4785,1.2101
601.772,602.5,3.4416,1.2196
606.268,605.0,3.4023,1.232
610.778,607.5,3.3609,1.2477
615.274,610.0,3.3165,1.2594
619.79,612.5,3.2716,1.2728
624.297,615.0,3.2234,1.2861
628.812,617.5,3.1724,1.3035
633.331,620.0,3.1196,1.3188
637.856,622.5,3.0663,1.3295
642.382,625.0,3.008,1.3412
646.904,627.5,2.9513,1.3562
651.424,630.0,2.8928,1.3672
655.958,632.5,2.8325,1.3824
660.502,635.0,2.7715,1.4023
665.058,637.5,2.708,1.4236
669.614,640.0,2.6436,1.4511
674.186,642.5,2.576,1.4854
678.767,645.0,2.5053,1.5262
683.346,647.5,2.4326,1.5773
687.944,650.0,2.3556,1.6389
692.567,652.5,2.2774,1.7024
697.18,655.0,2.1938,1.7661
701.793,657.5,2.1069,1.824
706.393,660.0,2.0161,1.8702
710.959,662.5,1.9268,1.8916
715.55,665.0,1.8366,1.8771
720.077,667.5,1.7442,1.809
724.571,670.0,1.6564,1.6823
729.031,672.5,1.5767,1.4968
733.453,675.0,1.5053,1.2694
737.862,677.5,1.4439,1.0107
742.278,680.0,1.3941,0.7545
746.702,682.5,1.3579,0.527
751.158,685.0,1.3304,0.3375
755.648,687.5,1.3107,0.2035
760.192,690.0,1.2955,0.1204
764.758,692.5,1.2853,0.07
769.317,695.0,1.2738,0.0384
773.916,697.5,1.2608,0.0154
778.544,700.0,1.2572,-0.0009
783.165,702.5,1.2508,-0.0198
787.772,705.0,1.2418,-0.0369
792.391,707.5,1.2342,-0.0487
797.018,710.0,1.2265,-0.0644
801.652,712.5,1.2199,-0.0783
806.285,715.0,1.2127,-0.0928
810.922,717.5,1.2039,-0.1048
815.568,720.0,1.1979,-0.1153
820.215,722.5,1.1905,-0.123
824.871,725.0,1.1866,-0.1293
829.532,727.5,1.1784,-0.1333
834.207,730.0,1.173,-0.1322
838.88,732.5,1.168,-0.1297
843.567,735.0,1.1596,-0.123
848.256,737.5,1.1546,-0.1147
852.954,740.0,1.149,-0.1036
857.658,742.5,1.1438,-0.0912
862.347,745.0,1.1374,-0.0751
867.062,747.5,1.1324,-0.0587
871.816,750.0,1.1267,-0.0382
876.54,752.5,1.1224,-0.0167
881.268,755.0,1.1182,-0.0014
885.998,757.5,1.1137,0.0176
890.733,760.0,1.1096,0.0289
895.474,762.5,1.1083,0.0482
900.205,765.0,1.1034,0.0574
904.954,767.5,1.0976,0.0707
909.703,770.0,1.0936,0.0816
914.457,772.5,1.0895,0.0877
919.204,775.0,1.0867,0.0952
923.966,777.5,1.0831,0.1024
928.731,780.0,1.0792,0.1091
933.5,782.5,1.0772,0.111
938.267,785.0,1.0782,0.1139
943.043,787.5,1.0729,0.1175
947.821,790.0,1.0685,0.1187
952.596,792.5,1.0658,0.1221
957.382,795.0,1.0648,0.1249
962.17,797.5,1.0597,0.1275
966.966,800.0,1.0573,0.1447
971.767,802.5,1.0547,0.1488
976.568,805.0,1.0531,0.1495
981.373,807.5,1.0516,0.1548
986.179,810.0,1.0493,0.1566
990.995,812.5,1.0462,0.1564
995.799,815.0,1.0437,0.1603
1000.62,817.5,1.0411,0.1618
1005.45,820.0,1.0383,0.1665
1010.29,822.5,1.0376,0.1658
1015.13,825.0,1.0355,0.1657
1019.96,827.5,1.0323,0.1682
1024.84,830.0,1.0296,0.1675
1029.7,832.5,1.0262,0.168
1034.56,835.0,1.0244,0.1702
1039.43,837.5,1.0253,0.1705
1044.3,840.0,1.0227,0.1714
1049.18,842.5,1.0202,0.169
1054.06,845.0,1.0216,0.1692
1058.94,847.5,1.0167,0.1709
1063.82,850.0,1.0149,0.1726
1068.7,852.5,1.0134,0.1771
1073.57,855.0,1.0107,0.1743
1078.47,857.5,1.0094,0.1749
1083.34,860.0,1.0068,0.1746
1088.22,862.5,1.0054,0.171
1093.1,865.0,1.0041,0.1753
1097.98,867.5,1.002,0.1749
1102.86,870.0,0.9984,0.1748
1107.74,872.5,0.998,0.1789
1112.62,875.0,0.997,0.1762
1117.49,877.5,0.9946,0.1744
1122.38,880.0,0.993,0.1757
1127.25,882.5,0.9917,0.1743
1132.14,885.0,0.9893,0.1716
1136.99,887.5,0.9889,0.1736
1141.89,890.0,0.9869,0.1738
1146.78,892.5,0.9839,0.1713
1151.66,895.0,0.984,0.1731
1156.54,897.5,0.9813,0.1699
1161.43,900.0,0.98,0.1678
1166.32,902.5,0.9783,0.169
1171.2,905.0,0.9759,0.1675
1176.09,907.5,0.9759,0.1649
1180.98,910.0,0.9743,0.1644
1185.87,912.5,0.9734,0.1608
1190.76,915.0,0.972,0.1532
1195.65,917.5,0.9704,0.1472
1200.54,920.0,0.9691,0.144
1205.44,922.5,0.9677,0.1418
1210.33,925.0,0.9677,0.1432
1215.23,927.5,0.9651,0.1432
1220.12,930.0,0.9652,0.1423
1225.01,932.5,0.9632,0.1324
1229.91,935.0,0.9618,0.1303
1234.8,937.5,0.9605,0.1274
1239.7,940.0,0.9592,0.1195
1244.6,942.5,0.9613,0.1144
1249.47,945.0,0.9573,0.1118
1254.39,947.5,0.9557,0.1063
1259.28,950.0,0.9553,0.1067
1264.18,952.5,0.9537,0.1014
1269.1,955.0,0.9537,0.0949
1274,957.5,0.9524,0.088
1278.91,960.0,0.951,0.0899
1283.83,962.5,0.9497,0.0835
1288.74,965.0,0.9497,0.0786
1293.66,967.5,0.9497,0.0745
1298.58,970.0,0.9473,0.07
1303.51,972.5,0.9471,0.0675
1308.45,975.0,0.9475,0.0583
1313.35,977.5,0.9467,0.0579
1318.3,980.0,0.9469,0.0482
1323.24,982.5,0.9445,0.0414
1328.17,985.0,0.9443,0.0357
1333.13,987.5,0.9432,0.0276
1338.08,990.0,0.9417,0.0197
1343.04,992.5,0.9404,0.0157
1347.99,995.0,0.9418,0.0061
1352.95,997.5,0.9405,0.0016
1357.91,1000.0,0.9392,-0.0058
1362.88,1002.5,0.9379,-0.0134
1367.84,1005.0,0.9379,-0.0186
1372.81,1007.5,0.9351,-0.023
1377.78,1010.0,0.9338,-0.029
1382.73,1012.5,0.9351,-0.0385
1387.73,1015.0,0.9351,-0.0406
1392.69,1017.5,0.9351,-0.0451
1397.68,1020.0,0.9337,-0.0537
1402.66,1022.5,0.9325,-0.0608
1407.64,1025.0,0.9318,-0.0712
1412.58,1027.5,0.9301,-0.0768
1417.57,1030.0,0.9311,-0.09
1422.56,1032.5,0.9312,-0.0928
1427.54,1035.0,0.9298,-0.0989
1432.52,1037.5,0.9286,-0.1094
1437.5,1040.0,0.9286,-0.1113
1442.48,1042.5,0.9285,-0.1226
1447.47,1045.0,0.9274,-0.1301
1452.45,1047.5,0.9259,-0.1327
1457.43,1050.0,0.9246,-0.1368
1462.42,1052.5,0.9246,-0.143
1467.41,1055.0,0.9239,-0.1519
1472.41,1057.5,0.9233,-0.1566
1477.41,1060.0,0.9246,-0.1644
1482.4,1062.5,0.9233,-0.1724
1484.4,1063.5,0.9233,-0.1748