File: Wood/Calibration_Data/FSRI/FSRI_Wood_Perpendicular_Cone_50kW_hor_R1.csv
Time,Mass (g),HRRPUA (kW/m2)
0.0,100.94,0.1
5.0,100.78,1.7
10.0,100.69,6.9
15.0,100.53,16.6
20.0,100.41,16.8
25.0,100.11,17.0
30.0,99.54,14.2
35.0,98.81,31.4
40.0,98.09,120.0
45.0,97.26,202.9
50.0,96.6,231.0
55.0,95.98,243.0
60.0,95.42,232.3
65.0,94.86,222.0
70.0,94.28,213.6
75.0,93.72,198.9
80.0,93.19,182.1
85.0,92.61,174.0
90.0,92.17,172.2
95.0,91.68,160.4
100.0,91.26,160.8
105.0,90.88,156.9
110.0,90.44,145.0
115.0,89.99,143.5
120.0,89.61,141.1
125.0,89.17,141.2
130.0,88.69,134.6
135.0,88.34,131.5
140.0,87.97,133.1
145.0,87.61,129.0
150.0,87.27,120.3
155.0,86.9,120.2
160.0,86.52,118.9
165.0,86.11,112.6
170.0,85.74,109.2
175.0,85.38,103.7
180.0,85.01,102.1
185.0,84.68,102.3
190.0,84.35,101.7
195.0,84.0,99.6
200.0,83.65,94.8
205.0,83.28,96.4
210.0,82.88,92.1
215.0,82.53,91.2
220.0,82.19,89.8
225.0,81.9,86.6
230.0,81.56,88.1
235.0,81.24,88.0
240.0,80.88,85.5
245.0,80.54,84.5
250.0,80.09,83.1
255.0,79.76,82.1
260.0,79.45,82.6
265.0,79.1,81.7
270.0,78.85,81.4
275.0,78.54,79.8
280.0,78.22,78.7
285.0,77.87,80.1
290.0,77.53,77.6
295.0,77.2,77.8
300.0,76.88,77.6
305.0,76.63,76.1
310.0,76.32,74.7
315.0,76.02,75.2
320.0,75.7,73.3
325.0,75.37,72.9
330.0,75.01,73.4
335.0,74.74,72.6
340.0,74.45,72.6
345.0,74.23,72.3
350.0,73.92,73.1
355.0,73.58,71.6
360.0,73.3,71.2
365.0,72.94,70.7
370.0,72.64,70.0
375.0,72.37,70.2
380.0,72.11,68.9
385.0,71.85,68.8
390.0,71.55,69.0
395.0,71.26,70.6
400.0,70.99,68.2
405.0,70.65,68.6
410.0,70.39,68.8
415.0,70.08,69.5
420.0,69.87,68.1
425.0,69.59,67.7
430.0,69.33,68.2
435.0,69.08,68.2
440.0,68.69,67.8
445.0,68.42,68.5
450.0,68.12,69.0
455.0,67.89,69.1
460.0,67.69,70.0
465.0,67.41,70.2
470.0,67.12,69.4
475.0,66.87,69.1
480.0,66.53,68.6
485.0,66.26,70.1
490.0,65.99,70.0
495.0,65.75,69.2
500.0,65.55,67.4
505.0,65.26,68.0
510.0,65.0,68.9
515.0,64.74,69.8
520.0,64.46,70.1
525.0,64.14,71.2
530.0,63.86,72.0
535.0,63.62,71.7
540.0,63.42,72.1
545.0,63.16,72.9
550.0,62.88,74.1
555.0,62.68,72.2
560.0,62.26,72.6
565.0,61.99,74.4
570.0,61.74,75.4
575.0,61.5,73.6
580.0,61.27,76.5
585.0,60.99,75.1
590.0,60.71,76.2
595.0,60.47,75.7
600.0,60.15,77.6
605.0,59.9,76.6
610.0,59.61,76.4
615.0,59.4,76.2
620.0,59.13,78.6
625.0,58.86,78.9
630.0,58.57,78.9
635.0,58.28,79.9
640.0,57.97,80.1
645.0,57.67,80.6
650.0,57.46,80.4
655.0,57.23,83.5
660.0,56.99,82.4
665.0,56.7,86.2
670.0,56.36,86.3
675.0,56.04,85.9
680.0,55.73,87.9
685.0,55.44,89.6
690.0,55.18,90.4
695.0,54.9,91.3
700.0,54.6,92.1
705.0,54.27,93.6
710.0,53.91,93.6
715.0,53.57,95.0
720.0,53.25,96.3
725.0,52.94,97.9
730.0,52.67,100.9
735.0,52.35,102.5
740.0,52.0,105.2
745.0,51.64,104.9
750.0,51.33,108.1
755.0,50.91,108.1
760.0,50.55,110.8
765.0,50.18,112.5
770.0,49.91,113.5
775.0,49.54,115.4
780.0,49.19,114.7
785.0,48.81,117.8
790.0,48.36,122.8
795.0,47.96,125.2
800.0,47.55,124.0
805.0,47.23,124.8
810.0,46.8,129.3
815.0,46.45,127.0
820.0,46.05,129.7
825.0,45.61,129.6
830.0,45.14,131.9
835.0,44.71,134.4
840.0,44.33,133.1
845.0,43.96,136.9
850.0,43.52,137.2
855.0,43.1,139.1
860.0,42.66,139.5
865.0,42.21,139.6
870.0,41.73,141.2
875.0,41.27,141.6
880.0,40.9,143.3
885.0,40.45,145.3
890.0,40.0,147.3
895.0,39.59,149.7
900.0,39.08,148.8
905.0,38.64,151.4
910.0,38.17,149.4
915.0,37.71,149.7
920.0,37.28,150.7
925.0,36.82,152.0
930.0,36.39,151.8
935.0,35.93,153.4
940.0,35.46,154.6
945.0,34.99,152.1
950.0,34.5,154.9
955.0,34.01,155.0
960.0,33.57,154.6
965.0,33.18,155.2
970.0,32.74,154.3
975.0,32.28,159.2
980.0,31.83,157.2
985.0,31.41,156.3
990.0,30.97,153.9
995.0,30.48,154.1
1000.0,30.05,153.9
1005.0,29.67,151.4
1010.0,29.26,150.7
1015.0,28.83,149.8
1020.0,28.47,148.7
1025.0,28.07,145.3
1030.0,27.62,145.7
1035.0,27.25,141.2
1040.0,26.89,136.1
1045.0,26.57,134.9
1050.0,26.23,135.5
1055.0,25.86,130.5
1060.0,25.56,127.6
1065.0,25.18,125.0
1070.0,24.85,123.2
1075.0,24.54,122.9
1080.0,24.29,120.6
1085.0,24.05,119.2
1090.0,23.8,116.6
1095.0,23.53,111.1
1100.0,23.3,107.5
1105.0,22.96,105.1
1110.0,22.77,100.4
1115.0,22.53,98.5
1120.0,22.33,95.6
1125.0,22.24,91.4
1130.0,22.08,87.6
1135.0,21.97,84.7
1140.0,21.8,82.1
1145.0,21.61,79.9
1150.0,21.44,75.0
1155.0,21.32,72.4
1160.0,21.24,68.2
1165.0,21.21,64.7
1170.0,21.14,61.6
1175.0,21.04,59.3
1180.0,20.92,56.9
1185.0,20.81,54.8
1190.0,20.7,52.8
1195.0,20.65,49.9
1200.0,20.66,47.3
1205.0,20.64,46.5
1210.0,20.58,44.3
1215.0,20.51,44.3
1220.0,20.45,44.2
1225.0,20.32,44.1
1230.0,20.19,43.5
1235.0,20.12,42.5
1240.0,20.11,43.3
1245.0,20.12,46.0
1250.0,20.09,45.5
1255.0,20.05,44.5
1260.0,19.94,41.6
1265.0,19.81,40.8
1270.0,19.71,40.2
1275.0,19.69,38.9
1280.0,19.72,39.1
1285.0,19.7,39.4
1290.0,19.61,39.9
1295.0,19.57,39.3
1300.0,19.42,39.4
1305.0,19.34,38.7
1310.0,19.3,39.5
1315.0,19.22,39.8
1320.0,19.2,40.5
1325.0,19.21,39.8
1330.0,19.15,38.9
1335.0,19.11,37.3
1340.0,19.1,38.0
1345.0,18.95,36.3
1350.0,18.85,36.8
1354.0,18.8,39.0