File: Wood/Calibration_Data/FSRI/FSRI_Wood_STA_N2_10K_R2.csv
Time (s),Temperature (K),Mass (mg),Heat Flow Rate (W/g)
0.0,324.5,3.9476,0.0116
50.7131,327.0,3.9477,0.0886
76.8838,329.5,3.9488,0.1273
98.776,332.0,3.9474,0.1517
118.75,334.5,3.9465,0.1679
137.588,337.0,3.9431,0.1806
155.742,339.5,3.9442,0.1915
173.36,342.0,3.9435,0.202
190.544,344.5,3.9426,0.2104
207.385,347.0,3.9428,0.2224
223.886,349.5,3.9425,0.2317
240.202,352.0,3.9425,0.2391
256.197,354.5,3.9402,0.2447
271.969,357.0,3.9384,0.2496
287.577,359.5,3.9369,0.253
302.957,362.0,3.9358,0.2526
318.158,364.5,3.9358,0.2553
333.24,367.0,3.9358,0.2544
348.225,369.5,3.9357,0.254
363.045,372.0,3.9345,0.25
377.8,374.5,3.933,0.2498
392.503,377.0,3.9308,0.2461
407.138,379.5,3.931,0.246
421.702,382.0,3.9318,0.2436
436.298,384.5,3.9301,0.2429
450.849,387.0,3.9305,0.2412
465.348,389.5,3.9318,0.2433
479.827,392.0,3.9279,0.2417
494.303,394.5,3.9292,0.2443
508.751,397.0,3.9279,0.2454
523.094,399.5,3.9292,0.2461
537.504,402.0,3.9264,0.2488
551.831,404.5,3.9271,0.251
566.136,407.0,3.9271,0.2526
580.406,409.5,3.9284,0.2548
594.663,412.0,3.9259,0.2581
608.954,414.5,3.9242,0.2597
623.17,417.0,3.9262,0.2642
637.341,419.5,3.9262,0.2631
651.549,422.0,3.9249,0.2681
665.783,424.5,3.9249,0.2721
679.91,427.0,3.9253,0.2705
694.116,429.5,3.9249,0.2729
708.267,432.0,3.9238,0.2784
722.426,434.5,3.9226,0.2794
736.581,437.0,3.9236,0.2809
750.711,439.5,3.9226,0.285
764.895,442.0,3.918,0.2871
779.054,444.5,3.9193,0.29
793.233,447.0,3.919,0.2922
807.37,449.5,3.919,0.2977
821.539,452.0,3.918,0.3015
835.731,454.5,3.9173,0.3037
849.874,457.0,3.9139,0.3037
864.068,459.5,3.9126,0.3078
878.204,462.0,3.9103,0.3084
892.298,464.5,3.9077,0.3127
906.469,467.0,3.906,0.3189
920.625,469.5,3.9034,0.3196
934.793,472.0,3.9021,0.3239
948.912,474.5,3.9007,0.3248
963.132,477.0,3.8958,0.328
977.287,479.5,3.8918,0.3298
991.48,482.0,3.888,0.3323
1005.67,484.5,3.8808,0.338
1019.85,487.0,3.8789,0.3396
1034.08,489.5,3.8725,0.3439
1048.26,492.0,3.8689,0.3472
1062.48,494.5,3.864,0.3492
1076.73,497.0,3.857,0.3491
1090.94,499.5,3.8504,0.3482
1105.13,502.0,3.8451,0.351
1119.38,504.5,3.8399,0.3521
1133.55,507.0,3.8339,0.3531
1147.78,509.5,3.8286,0.3516
1161.98,512.0,3.821,0.3517
1176.2,514.5,3.8143,0.3536
1190.45,517.0,3.8074,0.3549
1204.65,519.5,3.8013,0.3559
1218.92,522.0,3.7931,0.3582
1233.14,524.5,3.7829,0.3556
1247.39,527.0,3.7737,0.358
1261.62,529.5,3.7655,0.3596
1275.86,532.0,3.755,0.3605
1290.11,534.5,3.7433,0.3611
1304.36,537.0,3.7311,0.3615
1318.63,539.5,3.7165,0.3611
1332.88,542.0,3.7053,0.3607
1347.12,544.5,3.6905,0.3595
1361.41,547.0,3.6749,0.3586
1375.65,549.5,3.6585,0.3568
1389.98,552.0,3.6412,0.3567
1404.26,554.5,3.6232,0.3569
1418.56,557.0,3.6024,0.36
1432.82,559.5,3.5822,0.3589
1447.12,562.0,3.5595,0.3608
1461.42,564.5,3.5365,0.3616
1475.72,567.0,3.5102,0.3648
1490.02,569.5,3.4808,0.3696
1504.34,572.0,3.4519,0.3728
1518.61,574.5,3.4215,0.3788
1532.97,577.0,3.3895,0.3829
1547.32,579.5,3.3532,0.3856
1561.66,582.0,3.3159,0.3956
1576.03,584.5,3.2754,0.4064
1590.44,587.0,3.2335,0.4138
1604.84,589.5,3.1908,0.4208
1619.22,592.0,3.1425,0.431
1633.6,594.5,3.0912,0.4406
1648.03,597.0,3.0373,0.4494
1662.42,599.5,2.9843,0.4569
1676.84,602.0,2.9313,0.461
1691.23,604.5,2.8699,0.4692
1705.64,607.0,2.8118,0.4778
1720,609.5,2.7512,0.4853
1734.5,612.0,2.6858,0.4963
1748.93,614.5,2.6235,0.503
1763.38,617.0,2.5565,0.5144
1777.89,619.5,2.4905,0.5292
1792.35,622.0,2.4192,0.5443
1806.88,624.5,2.3479,0.5686
1821.4,627.0,2.2689,0.591
1835.93,629.5,2.1905,0.6152
1850.49,632.0,2.1081,0.6417
1865.05,634.5,2.0233,0.671
1879.64,637.0,1.9301,0.6945
1894.14,639.5,1.8343,0.7131
1908.7,642.0,1.7414,0.7191
1923.23,644.5,1.6437,0.7127
1937.68,647.0,1.5469,0.6785
1952.08,649.5,1.4556,0.6255
1966.39,652.0,1.3711,0.5401
1980.66,654.5,1.3004,0.4323
1994.89,657.0,1.2421,0.3119
2009.16,659.5,1.199,0.1967
2023.49,662.0,1.1675,0.0999
2037.88,664.5,1.1499,0.0385
2052.38,667.0,1.135,0.0052
2066.91,669.5,1.1244,-0.0147
2081.48,672.0,1.12,-0.0223
2096.07,674.5,1.1107,-0.031
2110.7,677.0,1.1012,-0.0351
2125.3,679.5,1.0927,-0.0436
2139.95,682.0,1.0848,-0.0502
2154.56,684.5,1.0795,-0.0587
2169.17,687.0,1.0712,-0.0655
2183.79,689.5,1.0632,-0.0735
2198.42,692.0,1.0578,-0.0799
2213.05,694.5,1.0505,-0.0891
2227.73,697.0,1.0452,-0.0909
2242.41,699.5,1.0353,-0.0986
2257.09,702.0,1.0301,-0.1011
2271.81,704.5,1.0234,-0.1044
2286.55,707.0,1.0177,-0.1065
2301.28,709.5,1.0096,-0.1072
2315.99,712.0,1.0023,-0.1057
2330.68,714.5,0.9973,-0.1031
2345.38,717.0,0.9898,-0.0976
2360.12,719.5,0.9831,-0.0924
2374.87,722.0,0.9807,-0.0868
2389.66,724.5,0.9742,-0.0823
2404.41,727.0,0.9703,-0.0783
2419.15,729.5,0.965,-0.0718
2433.93,732.0,0.9572,-0.0637
2448.7,734.5,0.9543,-0.0595
2463.52,737.0,0.9476,-0.055
2478.28,739.5,0.9454,-0.0501
2493.1,742.0,0.9431,-0.0468
2507.94,744.5,0.9398,-0.0413
2522.76,747.0,0.9352,-0.0387
2537.58,749.5,0.9296,-0.0323
2552.44,752.0,0.9263,-0.0313
2567.23,754.5,0.9228,-0.0297
2582.09,757.0,0.9224,-0.0293
2596.94,759.5,0.9161,-0.0271
2611.76,762.0,0.9146,-0.0262
2626.58,764.5,0.9094,-0.0251
2641.4,767.0,0.9081,-0.0304
2656.24,769.5,0.9054,-0.0279
2671.06,772.0,0.9013,-0.0264
2685.94,774.5,0.8987,-0.0245
2700.82,777.0,0.8973,-0.024
2715.67,779.5,0.8927,-0.0216
2730.51,782.0,0.8924,-0.0224
2745.36,784.5,0.8902,-0.0229
2760.23,787.0,0.8858,-0.0218
2775.06,789.5,0.8837,-0.0217
2789.96,792.0,0.8801,-0.022
2804.87,794.5,0.8762,-0.0209
2819.76,797.0,0.8723,-0.0202
2834.68,799.5,0.8723,-0.0162
2849.59,802.0,0.8682,-0.0198
2864.52,804.5,0.8695,-0.0226
2879.44,807.0,0.8656,-0.0189
2894.29,809.5,0.8643,-0.0111
2909.25,812.0,0.863,-0.0097
2924.22,814.5,0.8577,-0.0106
2939.14,817.0,0.8563,-0.0144
2954.11,819.5,0.8574,-0.016
2969.08,822.0,0.8545,-0.0166
2984.06,824.5,0.8534,-0.022
2999.04,827.0,0.8488,-0.0222
3014,829.5,0.8489,-0.0285
3028.94,832.0,0.8462,-0.0253
3043.89,834.5,0.8421,-0.0269
3058.83,837.0,0.8435,-0.0255
3073.74,839.5,0.8396,-0.025
3088.66,842.0,0.8392,-0.0238
3103.58,844.5,0.8406,-0.027
3118.48,847.0,0.8366,-0.0343
3133.4,849.5,0.8326,-0.0378
3148.33,852.0,0.8336,-0.0399
3163.4,854.5,0.8297,-0.0364
3178.39,857.0,0.8264,-0.0388
3193.39,859.5,0.8251,-0.0392
3208.4,862.0,0.824,-0.044
3223.42,864.5,0.8224,-0.0461
3238.41,867.0,0.8198,-0.0521
3253.37,869.5,0.8185,-0.055
3268.4,872.0,0.8185,-0.0528
3283.44,874.5,0.8159,-0.0547
3298.43,877.0,0.8135,-0.0559
3313.46,879.5,0.8126,-0.0623
3328.45,882.0,0.8113,-0.0678
3343.52,884.5,0.8099,-0.0686
3358.56,887.0,0.8099,-0.0717
3373.63,889.5,0.806,-0.0749
3388.7,892.0,0.8073,-0.079
3403.79,894.5,0.8047,-0.0828
3418.89,897.0,0.802,-0.085
3433.98,899.5,0.8007,-0.0828
3449.04,902.0,0.8007,-0.0844
3464.13,904.5,0.7984,-0.0845
3479.22,907.0,0.7968,-0.0826
3494.25,909.5,0.7954,-0.0863
3509.32,912.0,0.7941,-0.0915
3524.38,914.5,0.7954,-0.0947
3539.45,917.0,0.7941,-0.0946
3554.56,919.5,0.7918,-0.0992
3569.6,922.0,0.7898,-0.0949
3584.63,924.5,0.7876,-0.1027
3599.62,927.0,0.7874,-0.1006
3614.74,929.5,0.7884,-0.1017
3629.82,932.0,0.7871,-0.1013
3644.88,934.5,0.7871,-0.1022
3659.93,937.0,0.7858,-0.1054
3674.99,939.5,0.7818,-0.1057
3690.06,942.0,0.7807,-0.1061
3705.16,944.5,0.781,-0.112
3720.29,947.0,0.7803,-0.1121
3735.39,949.5,0.779,-0.1078
3750.53,952.0,0.7776,-0.1069
3765.64,954.5,0.777,-0.1098
3780.75,957.0,0.7756,-0.111
3795.89,959.5,0.7757,-0.1081
3811.03,962.0,0.777,-0.1134
3826.15,964.5,0.7749,-0.1186
3841.29,967.0,0.7747,-0.1221
3856.39,969.5,0.776,-0.1242
3871.53,972.0,0.7706,-0.1215
3886.64,974.5,0.7693,-0.1187
3901.77,977.0,0.7719,-0.1151
3916.9,979.5,0.7716,-0.1182
3932.07,982.0,0.7701,-0.1109
3947.28,984.5,0.7717,-0.1058
3962.47,987.0,0.7699,-0.1135
3977.69,989.5,0.7678,-0.1118
3992.92,992.0,0.7677,-0.1071
4008.11,994.5,0.7669,-0.1047
4023.24,997.0,0.7646,-0.106
4038.45,999.5,0.7657,-0.096
4053.62,1002.0,0.7644,-0.0942
4068.88,1004.5,0.765,-0.0904
4084.16,1007.0,0.7617,-0.0885
4099.37,1009.5,0.7614,-0.0849
4114.56,1012.0,0.764,-0.0806
4129.8,1014.5,0.7633,-0.0764
4145,1017.0,0.7593,-0.0775
4160.19,1019.5,0.7552,-0.0799
4175.45,1022.0,0.7571,-0.0833
4190.64,1024.5,0.7584,-0.0818
4205.79,1027.0,0.7611,-0.0726
4221,1029.5,0.7585,-0.0679
4236.21,1032.0,0.759,-0.063
4251.41,1034.5,0.7594,-0.056
4266.67,1037.0,0.7557,-0.0448
4281.9,1039.5,0.7564,-0.0381
4297.21,1042.0,0.7537,-0.032
4312.56,1044.5,0.754,-0.0251
4327.87,1047.0,0.7531,-0.0134
4343.14,1049.5,0.7524,-0.0012
4358.41,1052.0,0.7524,0.0107
4373.65,1054.5,0.7534,0.014
4388.9,1057.0,0.7523,0.0218
4404.15,1059.5,0.7512,0.0316
4419.4,1062.0,0.7498,0.0319
4434.71,1064.5,0.7523,0.0359
4450.01,1067.0,0.7503,0.0403
4465.29,1069.5,0.7501,0.0474