File: Wood/Calibration_Data/FSRI/FSRI_DSC_N2_30K_R1.csv
Time (s),Temperature (K),Heat Flow Rate (W/g)
0,325.0,2.34E-03
29.9352,327.5,1.19E-01
43.887,330.0,2.00E-01
54.6948,332.5,2.62E-01
63.9414,335.0,3.15E-01
72.2616,337.5,3.62E-01
80.0058,340.0,3.99E-01
87.2988,342.5,4.36E-01
94.2768,345.0,4.68E-01
101.019,347.5,4.98E-01
107.5428,350.0,5.28E-01
113.9082,352.5,5.54E-01
120.1404,355.0,5.79E-01
126.2004,357.5,6.02E-01
132.168,360.0,6.26E-01
138.0396,362.5,6.47E-01
143.8104,365.0,6.69E-01
149.4984,367.5,6.89E-01
155.118,370.0,7.05E-01
160.665,372.5,7.24E-01
166.155,375.0,7.39E-01
171.618,377.5,7.53E-01
177.0168,380.0,7.62E-01
182.3976,382.5,7.71E-01
187.7406,385.0,7.75E-01
193.029,387.5,7.84E-01
198.3072,390.0,7.84E-01
203.5338,392.5,7.84E-01
208.7412,395.0,7.83E-01
213.8556,397.5,7.83E-01
219.0078,400.0,7.84E-01
224.0946,402.5,7.85E-01
229.1574,405.0,7.85E-01
234.1716,407.5,7.88E-01
239.1522,410.0,7.91E-01
244.1166,412.5,7.95E-01
249.054,415.0,7.99E-01
253.9542,417.5,8.06E-01
258.8304,420.0,8.14E-01
263.688,422.5,8.18E-01
268.5192,425.0,8.27E-01
273.3402,427.5,8.36E-01
278.1402,430.0,8.44E-01
282.9336,432.5,8.54E-01
287.7066,435.0,8.64E-01
292.4532,437.5,8.74E-01
297.1962,440.0,8.84E-01
301.9272,442.5,8.95E-01
306.6468,445.0,9.03E-01
311.3526,447.5,9.19E-01
316.017,450.0,9.29E-01
320.6982,452.5,9.39E-01
325.3692,455.0,9.51E-01
330.0072,457.5,9.61E-01
334.6374,460.0,9.74E-01
339.246,462.5,9.84E-01
343.8384,465.0,9.93E-01
348.4218,467.5,1.00E+00
352.9908,470.0,1.02E+00
357.5532,472.5,1.03E+00
362.115,475.0,1.04E+00
366.663,477.5,1.05E+00
371.2086,480.0,1.06E+00
375.7374,482.5,1.07E+00
380.2614,485.0,1.09E+00
384.801,487.5,1.10E+00
389.3238,490.0,1.11E+00
393.8382,492.5,1.12E+00
398.3484,495.0,1.13E+00
402.8556,497.5,1.14E+00
407.3448,500.0,1.15E+00
411.8694,502.5,1.16E+00
416.3634,505.0,1.17E+00
420.8616,507.5,1.18E+00
425.3382,510.0,1.20E+00
429.8244,512.5,1.20E+00
434.3148,515.0,1.21E+00
438.7926,517.5,1.21E+00
443.2686,520.0,1.22E+00
447.741,522.5,1.23E+00
452.2074,525.0,1.23E+00
456.6786,527.5,1.23E+00
461.1366,530.0,1.23E+00
465.6048,532.5,1.23E+00
470.0556,535.0,1.23E+00
474.5142,537.5,1.23E+00
478.959,540.0,1.23E+00
483.4068,542.5,1.23E+00
487.8618,545.0,1.23E+00
492.3042,547.5,1.22E+00
496.7646,550.0,1.22E+00
501.2172,552.5,1.21E+00
505.6734,555.0,1.21E+00
510.1278,557.5,1.21E+00
514.5762,560.0,1.20E+00
519.0378,562.5,1.20E+00
523.494,565.0,1.20E+00
527.949,567.5,1.19E+00
532.413,570.0,1.19E+00
536.8728,572.5,1.19E+00
541.3332,575.0,1.19E+00
545.7972,577.5,1.18E+00
550.2612,580.0,1.18E+00
554.7336,582.5,1.18E+00
559.2066,585.0,1.18E+00
563.6754,587.5,1.18E+00
568.149,590.0,1.18E+00
572.6346,592.5,1.18E+00
577.1088,595.0,1.19E+00
581.6028,597.5,1.20E+00
586.0968,600.0,1.21E+00
590.5944,602.5,1.22E+00
595.0914,605.0,1.23E+00
599.5998,607.5,1.25E+00
604.0968,610.0,1.26E+00
608.613,612.5,1.27E+00
613.1202,615.0,1.29E+00
617.6334,617.5,1.30E+00
622.1556,620.0,1.32E+00
626.6802,622.5,1.33E+00
631.206,625.0,1.34E+00
635.7288,627.5,1.36E+00
640.248,630.0,1.37E+00
644.7834,632.5,1.38E+00
649.3272,635.0,1.40E+00
653.883,637.5,1.43E+00
658.4394,640.0,1.45E+00
663.0126,642.5,1.49E+00
667.5948,645.0,1.53E+00
672.174,647.5,1.58E+00
676.776,650.0,1.64E+00
681.396,652.5,1.71E+00
686.0088,655.0,1.77E+00
690.6216,657.5,1.83E+00
695.22,660.0,1.87E+00
699.786,662.5,1.89E+00
704.3754,665.0,1.87E+00
708.9,667.5,1.80E+00
713.3922,670.0,1.67E+00
717.8502,672.5,1.49E+00
722.2704,675.0,1.26E+00
726.6792,677.5,9.96E-01
731.0958,680.0,7.40E-01
735.5196,682.5,5.14E-01
739.9782,685.0,3.29E-01
744.4722,687.5,1.98E-01
749.016,690.0,1.17E-01
753.585,692.5,6.78E-02
758.1426,695.0,3.67E-02
762.7458,697.5,1.41E-02
767.3736,700.0,-1.96E-03
771.9936,702.5,-2.11E-02
776.5998,705.0,-3.81E-02
781.2198,707.5,-4.97E-02
785.8488,710.0,-6.49E-02
790.482,712.5,-7.92E-02
795.1152,715.0,-9.37E-02
799.752,717.5,-1.05E-01
804.399,720.0,-1.15E-01
809.0448,722.5,-1.24E-01
813.702,725.0,-1.29E-01
818.3646,727.5,-1.34E-01
823.0398,730.0,-1.32E-01
827.7126,732.5,-1.30E-01
832.4004,735.0,-1.22E-01
837.0894,737.5,-1.14E-01
841.7892,740.0,-1.03E-01
846.4908,742.5,-9.03E-02
851.181,745.0,-7.35E-02
855.8988,747.5,-5.66E-02
860.6514,750.0,-3.63E-02
865.3764,752.5,-1.76E-02
870.1038,755.0,-6.49E-04
874.8336,757.5,1.83E-02
879.57,760.0,2.99E-02
884.3118,762.5,4.90E-02
889.041,765.0,5.74E-02
893.7906,767.5,7.19E-02
898.5408,770.0,8.22E-02
903.2946,772.5,8.86E-02
908.0418,775.0,9.51E-02
912.8046,777.5,1.02E-01
917.568,780.0,1.10E-01
922.3386,782.5,1.11E-01
927.1056,785.0,1.14E-01
931.8828,787.5,1.18E-01
936.6606,790.0,1.19E-01
941.4354,792.5,1.21E-01
946.2222,795.0,1.25E-01
951.0096,797.5,1.29E-01
955.8066,800.0,1.45E-01
960.606,802.5,1.48E-01
965.4084,805.0,1.50E-01
970.2132,807.5,1.55E-01
975.0198,810.0,1.57E-01
979.836,812.5,1.57E-01
984.6402,815.0,1.61E-01
989.4642,817.5,1.62E-01
994.293,820.0,1.67E-01
999.132,822.5,1.65E-01
1003.97,825.0,1.65E-01
1008.8,827.5,1.69E-01
1013.68,830.0,1.68E-01
1018.54,832.5,1.68E-01
1023.4,835.0,1.70E-01
1028.27,837.5,1.71E-01
1033.143,840.0,1.71E-01
1038.02,842.5,1.69E-01
1042.9,845.0,1.70E-01
1047.78,847.5,1.71E-01
1052.67,850.0,1.73E-01
1057.542,852.5,1.76E-01
1062.42,855.0,1.74E-01
1067.316,857.5,1.75E-01
1072.19,860.0,1.75E-01
1077.07,862.5,1.71E-01
1081.95,865.0,1.76E-01
1086.822,867.5,1.75E-01
1091.7,870.0,1.75E-01
1096.581,872.5,1.79E-01
1101.46,875.0,1.76E-01
1106.33,877.5,1.74E-01
1111.22,880.0,1.76E-01
1116.09,882.5,1.74E-01
1120.98,885.0,1.72E-01
1125.84,887.5,1.73E-01
1130.74,890.0,1.76E-01
1135.63,892.5,1.71E-01
1140.51,895.0,1.73E-01
1145.39,897.5,1.70E-01
1150.28,900.0,1.68E-01
1155.165,902.5,1.69E-01
1160.04,905.0,1.67E-01
1164.94,907.5,1.65E-01
1169.829,910.0,1.64E-01
1174.71,912.5,1.61E-01
1179.603,915.0,1.52E-01
1184.5,917.5,1.47E-01
1189.39,920.0,1.44E-01
1194.29,922.5,1.43E-01
1199.178,925.0,1.42E-01
1204.08,927.5,1.43E-01
1208.97,930.0,1.42E-01
1213.86,932.5,1.32E-01
1218.75,935.0,1.31E-01
1223.64,937.5,1.27E-01
1228.55,940.0,1.19E-01
1233.44,942.5,1.15E-01
1238.316,945.0,1.12E-01
1243.24,947.5,1.06E-01
1248.13,950.0,1.07E-01
1253.03,952.5,1.01E-01
1257.945,955.0,9.53E-02
1262.847,957.5,8.85E-02
1267.76,960.0,9.04E-02
1272.68,962.5,8.38E-02
1277.59,965.0,7.87E-02
1282.51,967.5,7.42E-02
1287.43,970.0,6.86E-02
1292.36,972.5,6.62E-02
1297.29,975.0,5.80E-02
1302.2,977.5,5.64E-02
1307.151,980.0,4.86E-02
1312.08,982.5,4.09E-02
1317.02,985.0,3.50E-02
1321.98,987.5,2.72E-02
1326.93,990.0,1.95E-02
1331.89,992.5,1.53E-02
1336.84,995.0,5.68E-03
1341.801,997.5,7.62E-04
1346.76,1000.0,-6.11E-03
1351.73,1002.5,-1.39E-02
1356.69,1005.0,-1.85E-02
1361.66,1007.5,-2.37E-02
1366.63,1010.0,-2.98E-02
1371.58,1012.5,-3.89E-02
1376.58,1015.0,-4.04E-02
1381.54,1017.5,-4.45E-02
1386.53,1020.0,-5.44E-02
1391.51,1022.5,-6.07E-02
1396.48,1025.0,-7.21E-02
1401.43,1027.5,-7.71E-02
1406.421,1030.0,-9.00E-02
1411.41,1032.5,-9.29E-02
1416.39,1035.0,-9.96E-02
1421.37,1037.5,-1.10E-01
1426.35,1040.0,-1.12E-01
1431.33,1042.5,-1.23E-01
1436.32,1045.0,-1.30E-01
1441.3,1047.5,-1.33E-01
1446.29,1050.0,-1.37E-01
1451.274,1052.5,-1.43E-01
1456.26,1055.0,-1.51E-01
1461.261,1057.5,-1.59E-01
1466.26,1060.0,-1.66E-01
1471.25,1062.5,-1.73E-01
,,-1.75E-01