File: Wood/Calibration_Data/FSRI/FSRI_DSC_N2_30K_R2.csv
Time (s),Temperature (K),Heat Flow Rate (W/g)
0,325.0,5.37E-03
30.0996,327.5,1.19E-01
44.0814,330.0,1.95E-01
54.8514,332.5,2.53E-01
64.0896,335.0,3.00E-01
72.3954,337.5,3.43E-01
80.0622,340.0,3.78E-01
87.3534,342.5,4.11E-01
94.3062,345.0,4.42E-01
101.007,347.5,4.71E-01
107.5002,350.0,4.93E-01
113.8206,352.5,5.17E-01
120.0048,355.0,5.38E-01
126.0756,357.5,5.58E-01
132.0342,360.0,5.77E-01
137.8662,362.5,5.98E-01
143.622,365.0,6.15E-01
149.2686,367.5,6.31E-01
154.89,370.0,6.46E-01
160.4328,372.5,6.60E-01
165.9342,375.0,6.74E-01
171.3582,377.5,6.82E-01
176.7504,380.0,6.91E-01
182.1222,382.5,6.96E-01
187.4436,385.0,7.01E-01
192.735,387.5,7.07E-01
197.9892,390.0,7.11E-01
203.22,392.5,7.12E-01
208.4022,395.0,7.14E-01
213.5598,397.5,7.17E-01
218.6754,400.0,7.14E-01
223.7616,402.5,7.20E-01
228.8016,405.0,7.25E-01
233.8098,407.5,7.28E-01
238.794,410.0,7.30E-01
243.744,412.5,7.37E-01
248.6742,415.0,7.44E-01
253.5678,417.5,7.52E-01
258.4404,420.0,7.57E-01
263.2908,422.5,7.65E-01
268.1082,425.0,7.73E-01
272.9292,427.5,7.82E-01
277.7178,430.0,7.91E-01
282.4974,432.5,7.98E-01
287.2572,435.0,8.07E-01
292.0068,437.5,8.16E-01
296.7462,440.0,8.26E-01
301.4676,442.5,8.35E-01
306.183,445.0,8.47E-01
310.8654,447.5,8.53E-01
315.5454,450.0,8.64E-01
320.2122,452.5,8.76E-01
324.8526,455.0,8.89E-01
329.4918,457.5,8.97E-01
334.101,460.0,9.08E-01
338.7006,462.5,9.20E-01
343.2996,465.0,9.30E-01
347.847,467.5,9.40E-01
352.4526,470.0,9.52E-01
357.0126,472.5,9.61E-01
361.5654,475.0,9.75E-01
366.1116,477.5,9.86E-01
370.6524,480.0,9.97E-01
375.18,482.5,1.01E+00
379.7148,485.0,1.02E+00
384.2406,487.5,1.03E+00
388.7604,490.0,1.04E+00
393.2766,492.5,1.05E+00
397.7916,495.0,1.06E+00
402.2928,497.5,1.07E+00
406.7988,500.0,1.08E+00
411.3024,502.5,1.09E+00
415.7916,505.0,1.10E+00
420.288,507.5,1.11E+00
424.7742,510.0,1.12E+00
429.2586,512.5,1.12E+00
433.7394,515.0,1.13E+00
438.2208,517.5,1.14E+00
442.695,520.0,1.14E+00
447.18,522.5,1.15E+00
451.6428,525.0,1.15E+00
456.105,527.5,1.15E+00
460.5708,530.0,1.16E+00
465.0192,532.5,1.16E+00
469.494,535.0,1.16E+00
473.9514,537.5,1.16E+00
478.4172,540.0,1.16E+00
482.8662,542.5,1.16E+00
487.32,545.0,1.16E+00
491.7732,547.5,1.16E+00
496.2282,550.0,1.15E+00
500.676,552.5,1.15E+00
505.1346,555.0,1.15E+00
509.5908,557.5,1.15E+00
514.047,560.0,1.15E+00
518.505,562.5,1.15E+00
522.9564,565.0,1.15E+00
527.421,567.5,1.15E+00
531.8826,570.0,1.15E+00
536.34,572.5,1.14E+00
540.8022,575.0,1.14E+00
545.2788,577.5,1.14E+00
549.7464,580.0,1.14E+00
554.2194,582.5,1.15E+00
558.6696,585.0,1.14E+00
563.1672,587.5,1.15E+00
567.645,590.0,1.16E+00
572.1234,592.5,1.16E+00
576.618,595.0,1.17E+00
581.1072,597.5,1.18E+00
585.6108,600.0,1.19E+00
590.106,602.5,1.21E+00
594.5928,605.0,1.23E+00
599.124,607.5,1.24E+00
603.6396,610.0,1.26E+00
608.1498,612.5,1.28E+00
612.672,615.0,1.30E+00
617.1852,617.5,1.31E+00
621.7254,620.0,1.33E+00
626.256,622.5,1.34E+00
630.7986,625.0,1.35E+00
635.3394,627.5,1.36E+00
639.8844,630.0,1.38E+00
644.4342,632.5,1.39E+00
648.9768,635.0,1.42E+00
653.5494,637.5,1.44E+00
658.1148,640.0,1.47E+00
662.7036,642.5,1.52E+00
667.2918,645.0,1.57E+00
671.8968,647.5,1.63E+00
676.5126,650.0,1.69E+00
681.12,652.5,1.76E+00
685.7388,655.0,1.84E+00
690.3768,657.5,1.90E+00
694.9908,660.0,1.97E+00
699.606,662.5,2.00E+00
704.1936,665.0,2.00E+00
708.7578,667.5,1.95E+00
713.2806,670.0,1.83E+00
717.7572,672.5,1.66E+00
722.1942,675.0,1.42E+00
726.6132,677.5,1.15E+00
731.0214,680.0,8.70E-01
735.4446,682.5,6.03E-01
739.9068,685.0,3.81E-01
744.4038,687.5,2.20E-01
748.9494,690.0,1.16E-01
753.5322,692.5,5.60E-02
758.1192,695.0,2.11E-02
762.738,697.5,-9.66E-03
767.3784,700.0,-2.50E-02
772.0014,702.5,-4.49E-02
776.6436,705.0,-5.72E-02
781.2912,707.5,-6.63E-02
785.943,710.0,-8.10E-02
790.5954,712.5,-8.83E-02
795.2556,715.0,-9.88E-02
799.923,717.5,-1.07E-01
804.5778,720.0,-1.16E-01
809.2626,722.5,-1.17E-01
813.9468,725.0,-1.19E-01
818.6418,727.5,-1.19E-01
823.335,730.0,-1.19E-01
828.0348,732.5,-1.11E-01
832.7412,735.0,-1.04E-01
837.4542,737.5,-9.32E-02
842.169,740.0,-8.04E-02
846.888,742.5,-6.25E-02
851.613,745.0,-4.84E-02
856.344,747.5,-2.96E-02
861.0774,750.0,-1.41E-02
865.8186,752.5,2.58E-03
870.5652,755.0,2.07E-02
875.3034,757.5,3.99E-02
880.0518,760.0,5.75E-02
884.8074,762.5,7.72E-02
889.5708,765.0,9.33E-02
894.3216,767.5,1.07E-01
899.0916,770.0,1.20E-01
903.8448,772.5,1.33E-01
908.61,775.0,1.45E-01
913.3812,777.5,1.52E-01
918.147,780.0,1.62E-01
922.9194,782.5,1.67E-01
927.6924,785.0,1.73E-01
932.4582,787.5,1.80E-01
937.2504,790.0,1.82E-01
942.0366,792.5,1.85E-01
946.83,795.0,1.86E-01
951.6132,797.5,1.89E-01
956.3922,800.0,1.95E-01
961.1856,802.5,1.97E-01
965.9922,805.0,2.00E-01
970.7904,807.5,1.98E-01
975.5862,810.0,2.04E-01
980.3916,812.5,2.04E-01
985.1952,815.0,2.06E-01
989.9994,817.5,2.07E-01
994.8138,820.0,2.09E-01
999.6324,822.5,2.12E-01
1004.45,825.0,2.13E-01
1009.25,827.5,2.17E-01
1014.08,830.0,2.21E-01
1018.905,832.5,2.23E-01
1023.73,835.0,2.28E-01
1028.58,837.5,2.32E-01
1033.41,840.0,2.32E-01
1038.25,842.5,2.37E-01
1043.09,845.0,2.38E-01
1047.93,847.5,2.43E-01
1052.781,850.0,2.48E-01
1057.62,852.5,2.49E-01
1062.49,855.0,2.49E-01
1067.34,857.5,2.51E-01
1072.21,860.0,2.50E-01
1077.06,862.5,2.52E-01
1081.93,865.0,2.51E-01
1086.8,867.5,2.53E-01
1091.661,870.0,2.50E-01
1096.53,872.5,2.56E-01
1101.408,875.0,2.54E-01
1106.28,877.5,2.55E-01
1111.16,880.0,2.56E-01
1116.03,882.5,2.52E-01
1120.932,885.0,2.54E-01
1125.81,887.5,2.50E-01
1130.7,890.0,2.54E-01
1135.58,892.5,2.49E-01
1140.477,895.0,2.47E-01
1145.379,897.5,2.48E-01
1150.28,900.0,2.48E-01
1155.18,902.5,2.45E-01
1160.08,905.0,2.43E-01
1164.981,907.5,2.43E-01
1169.88,910.0,2.43E-01
1174.8,912.5,2.42E-01
1179.7,915.0,2.42E-01
1184.616,917.5,2.39E-01
1189.53,920.0,2.38E-01
1194.43,922.5,2.38E-01
1199.35,925.0,2.34E-01
1204.26,927.5,2.32E-01
1209.17,930.0,2.28E-01
1214.08,932.5,2.28E-01
1218.999,935.0,2.27E-01
1223.919,937.5,2.28E-01
1228.84,940.0,2.29E-01
1233.75,942.5,2.27E-01
1238.68,945.0,2.24E-01
1243.6,947.5,2.21E-01
1248.52,950.0,2.18E-01
1253.45,952.5,2.22E-01
1258.38,955.0,2.20E-01
1263.32,957.5,2.17E-01
1268.238,960.0,2.14E-01
1273.18,962.5,2.11E-01
1278.11,965.0,2.08E-01
1283.04,967.5,2.07E-01
1287.99,970.0,2.01E-01
1292.931,972.5,2.04E-01
1297.87,975.0,1.97E-01
1302.81,977.5,1.97E-01
1307.75,980.0,1.90E-01
1312.707,982.5,1.89E-01
1317.657,985.0,1.83E-01
1322.61,987.5,1.80E-01
1327.57,990.0,1.76E-01
1332.54,992.5,1.70E-01
1337.5,995.0,1.64E-01
1342.46,997.5,1.60E-01
1347.43,1000.0,1.53E-01
1352.4,1002.5,1.51E-01
1357.37,1005.0,1.44E-01
1362.33,1007.5,1.44E-01
1367.32,1010.0,1.36E-01
1372.31,1012.5,1.33E-01
1377.294,1015.0,1.29E-01
1382.289,1017.5,1.23E-01
1387.26,1020.0,1.20E-01
1392.252,1022.5,1.12E-01
1397.23,1025.0,1.12E-01
1402.22,1027.5,9.76E-02
1407.2,1030.0,8.92E-02
1412.19,1032.5,8.36E-02
1417.18,1035.0,7.77E-02
1422.168,1037.5,7.92E-02
1427.16,1040.0,7.06E-02
1432.14,1042.5,7.10E-02
1437.13,1045.0,6.49E-02
1442.12,1047.5,5.78E-02
1447.12,1050.0,5.14E-02
1452.1,1052.5,4.98E-02
1457.1,1055.0,4.31E-02
1462.09,1057.5,3.46E-02
1467.07,1060.0,2.50E-02
1472.07,1062.5,2.58E-02
1473.07,1063.0,2.18E-02