File: Wood/Calibration_Data/FSRI/FSRI_Wood_Parallel_Cone_75kW_hor_R2.csv
Time,Mass (g),HRRPUA (kW/m2)
0.0,99.16,2.0
5.0,99.07,8.0
10.0,98.53,10.9
15.0,97.61,15.0
20.0,96.74,114.8
25.0,95.89,248.6
30.0,95.13,302.5
35.0,94.44,286.4
40.0,93.83,257.2
45.0,93.19,235.7
50.0,92.61,219.5
55.0,92.09,206.0
60.0,91.58,193.4
65.0,91.0,185.7
70.0,90.48,174.8
75.0,90.0,172.7
80.0,89.53,165.1
85.0,89.07,160.1
90.0,88.62,155.3
95.0,88.2,151.1
100.0,87.72,150.7
105.0,87.21,146.4
110.0,86.82,143.4
115.0,86.39,141.7
120.0,85.96,140.9
125.0,85.56,139.1
130.0,85.15,137.6
135.0,84.75,135.2
140.0,84.3,133.6
145.0,83.84,134.0
150.0,83.47,130.7
155.0,83.06,128.0
160.0,82.66,129.7
165.0,82.24,128.4
170.0,81.87,127.5
175.0,81.43,124.0
180.0,81.03,122.9
185.0,80.64,121.9
190.0,80.26,122.6
195.0,79.91,118.5
200.0,79.5,121.4
205.0,79.1,119.0
210.0,78.65,122.7
215.0,78.31,122.4
220.0,77.92,121.5
225.0,77.54,115.4
230.0,77.17,118.6
235.0,76.8,115.8
240.0,76.43,116.7
245.0,76.0,115.7
250.0,75.64,115.5
255.0,75.26,113.5
260.0,74.9,115.6
265.0,74.56,116.2
270.0,74.17,116.7
275.0,73.84,114.8
280.0,73.43,114.7
285.0,73.0,114.8
290.0,72.67,116.0
295.0,72.35,114.4
300.0,71.99,113.7
305.0,71.6,114.9
310.0,71.22,111.4
315.0,70.85,114.6
320.0,70.45,114.5
325.0,70.07,113.3
330.0,69.75,114.7
335.0,69.41,115.4
340.0,69.06,112.9
345.0,68.69,114.7
350.0,68.29,115.6
355.0,67.92,114.3
360.0,67.6,112.2
365.0,67.24,114.1
370.0,66.88,114.5
375.0,66.59,114.3
380.0,66.25,113.8
385.0,65.86,113.4
390.0,65.47,112.5
395.0,65.11,113.4
400.0,64.73,112.4
405.0,64.41,112.2
410.0,64.06,113.6
415.0,63.74,112.0
420.0,63.39,112.9
425.0,62.97,110.8
430.0,62.67,113.2
435.0,62.29,113.1
440.0,61.98,111.1
445.0,61.63,113.0
450.0,61.29,111.0
455.0,60.96,112.2
460.0,60.56,110.1
465.0,60.22,112.7
470.0,59.87,109.6
475.0,59.53,112.3
480.0,59.21,109.0
485.0,58.88,112.2
490.0,58.55,109.9
495.0,58.2,111.0
500.0,57.87,111.2
505.0,57.45,108.7
510.0,57.12,110.3
515.0,56.79,109.4
520.0,56.52,109.7
525.0,56.16,109.2
530.0,55.77,108.0
535.0,55.42,109.6
540.0,55.08,108.7
545.0,54.75,109.0
550.0,54.39,108.7
555.0,54.1,112.1
560.0,53.75,111.7
565.0,53.46,109.1
570.0,53.04,107.2
575.0,52.67,107.9
580.0,52.33,111.9
585.0,51.99,112.3
590.0,51.65,112.2
595.0,51.4,112.0
600.0,51.04,112.1
605.0,50.59,113.8
610.0,50.26,113.7
615.0,49.93,113.9
620.0,49.63,113.0
625.0,49.26,111.7
630.0,48.99,112.4
635.0,48.66,114.3
640.0,48.27,110.8
645.0,47.91,114.8
650.0,47.56,116.2
655.0,47.21,113.0
660.0,46.85,112.9
665.0,46.62,114.9
670.0,46.24,115.5
675.0,45.89,114.2
680.0,45.53,115.8
685.0,45.2,116.1
690.0,44.87,113.1
695.0,44.5,114.3
700.0,44.19,115.9
705.0,43.86,115.0
710.0,43.51,112.3
715.0,43.15,114.7
720.0,42.82,112.4
725.0,42.47,112.2
730.0,42.14,114.3
735.0,41.86,114.6
740.0,41.49,112.2
745.0,41.2,109.7
750.0,40.8,110.5
755.0,40.49,112.5
760.0,40.17,112.6
765.0,39.83,113.4
770.0,39.52,114.4
775.0,39.23,117.0
780.0,38.85,114.9
785.0,38.48,113.7
790.0,38.17,115.9
795.0,37.84,116.8
800.0,37.55,113.7
805.0,37.22,116.3
810.0,36.88,114.9
815.0,36.53,116.8
820.0,36.2,113.6
825.0,35.87,113.1
830.0,35.52,115.3
835.0,35.16,115.5
840.0,34.88,115.8
845.0,34.53,116.2
850.0,34.15,118.0
855.0,33.8,118.1
860.0,33.5,118.0
865.0,33.12,116.9
870.0,32.82,118.3
875.0,32.54,118.6
880.0,32.19,116.9
885.0,31.79,117.5
890.0,31.45,117.9
895.0,31.09,118.6
900.0,30.76,118.7
905.0,30.47,119.2
910.0,30.14,119.9
915.0,29.8,120.0
920.0,29.43,118.9
925.0,29.05,119.2
930.0,28.72,117.8
935.0,28.39,117.5
940.0,28.06,119.7
945.0,27.76,118.3
950.0,27.39,118.3
955.0,27.02,120.5
960.0,26.67,120.7
965.0,26.32,120.0
970.0,25.94,120.5
975.0,25.63,121.4
980.0,25.33,119.0
985.0,24.99,123.2
990.0,24.61,122.8
995.0,24.26,117.6
1000.0,23.9,118.8
1005.0,23.57,123.2
1010.0,23.28,122.1
1015.0,22.95,118.6
1020.0,22.61,119.0
1025.0,22.27,119.8
1030.0,21.92,120.3
1035.0,21.59,119.3
1040.0,21.26,119.8
1045.0,20.96,121.3
1050.0,20.67,118.1
1055.0,20.36,117.8
1060.0,19.99,117.1
1065.0,19.73,112.8
1070.0,19.42,111.4
1075.0,19.14,110.0
1080.0,18.85,109.9
1085.0,18.62,110.9
1090.0,18.4,106.2
1095.0,18.14,102.7
1100.0,17.83,97.8
1105.0,17.6,96.4
1110.0,17.36,95.4
1115.0,17.14,94.5
1120.0,17.01,90.9
1125.0,16.84,89.7
1130.0,16.64,85.5
1135.0,16.4,81.4
1140.0,16.25,77.5
1145.0,16.08,75.5
1150.0,15.94,73.2
1155.0,15.83,69.9
1160.0,15.8,67.0
1165.0,15.71,63.5
1170.0,15.52,60.1
1175.0,15.4,58.4
1180.0,15.32,57.7
1185.0,15.22,56.0
1190.0,15.23,51.8
1195.0,15.2,50.2
1200.0,15.13,47.1
1205.0,14.96,45.9
1210.0,14.89,45.1
1215.0,14.86,42.6
1220.0,14.78,42.4
1225.0,14.75,42.4
1230.0,14.78,42.6
1235.0,14.74,41.0
1240.0,14.59,39.7
1245.0,14.52,39.9
1250.0,14.46,39.0
1255.0,14.41,38.6
1260.0,14.41,37.8
1265.0,14.39,37.6
1270.0,14.34,37.0
1275.0,14.26,36.2
1280.0,14.12,36.5
1285.0,14.05,36.1
1290.0,14.04,36.3
1295.0,14.0,36.9
1300.0,14.06,36.0
1305.0,13.97,37.5
1310.0,13.82,36.8
1315.0,13.79,37.5
1319.0,13.75,37.7