File: Wood/Calibration_Data/FSRI/FSRI_TGA_N2_30K_R2.csv
Time (s),Temperature (K),Mass (mg)
0,325.0,4.044
30.0996,327.5,4.043
44.0814,330.0,4.043
54.8514,332.5,4.044
64.0896,335.0,4.044
72.3954,337.5,4.045
80.0622,340.0,4.044
87.3534,342.5,4.045
94.3062,345.0,4.044
101.007,347.5,4.044
107.5002,350.0,4.044
113.8206,352.5,4.044
120.0048,355.0,4.043
126.0756,357.5,4.042
132.0342,360.0,4.042
137.8662,362.5,4.042
143.622,365.0,4.042
149.2686,367.5,4.043
154.89,370.0,4.042
160.4328,372.5,4.042
165.9342,375.0,4.041
171.3582,377.5,4.041
176.7504,380.0,4.039
182.1222,382.5,4.039
187.4436,385.0,4.038
192.735,387.5,4.038
197.9892,390.0,4.038
203.22,392.5,4.038
208.4022,395.0,4.037
213.5598,397.5,4.037
218.6754,400.0,4.037
223.7616,402.5,4.037
228.8016,405.0,4.036
233.8098,407.5,4.035
238.794,410.0,4.037
243.744,412.5,4.037
248.6742,415.0,4.037
253.5678,417.5,4.037
258.4404,420.0,4.037
263.2908,422.5,4.037
268.1082,425.0,4.037
272.9292,427.5,4.037
277.7178,430.0,4.037
282.4974,432.5,4.038
287.2572,435.0,4.036
292.0068,437.5,4.037
296.7462,440.0,4.036
301.4676,442.5,4.037
306.183,445.0,4.037
310.8654,447.5,4.037
315.5454,450.0,4.034
320.2122,452.5,4.037
324.8526,455.0,4.035
329.4918,457.5,4.035
334.101,460.0,4.034
338.7006,462.5,4.035
343.2996,465.0,4.035
347.847,467.5,4.029
352.4526,470.0,4.031
357.0126,472.5,4.029
361.5654,475.0,4.031
366.1116,477.5,4.029
370.6524,480.0,4.027
375.18,482.5,4.025
379.7148,485.0,4.024
384.2406,487.5,4.021
388.7604,490.0,4.020
393.2766,492.5,4.017
397.7916,495.0,4.014
402.2928,497.5,4.011
406.7988,500.0,4.008
411.3024,502.5,4.007
415.7916,505.0,4.002
420.288,507.5,3.998
424.7742,510.0,3.994
429.2586,512.5,3.989
433.7394,515.0,3.985
438.2208,517.5,3.980
442.695,520.0,3.975
447.18,522.5,3.969
451.6428,525.0,3.964
456.105,527.5,3.959
460.5708,530.0,3.953
465.0192,532.5,3.947
469.494,535.0,3.945
473.9514,537.5,3.934
478.4172,540.0,3.924
482.8662,542.5,3.915
487.32,545.0,3.906
491.7732,547.5,3.896
496.2282,550.0,3.885
500.676,552.5,3.874
505.1346,555.0,3.863
509.5908,557.5,3.851
514.047,560.0,3.840
518.505,562.5,3.826
522.9564,565.0,3.813
527.421,567.5,3.798
531.8826,570.0,3.779
536.34,572.5,3.761
540.8022,575.0,3.742
545.2788,577.5,3.723
549.7464,580.0,3.703
554.2194,582.5,3.678
558.6696,585.0,3.654
563.1672,587.5,3.628
567.645,590.0,3.600
572.1234,592.5,3.574
576.618,595.0,3.542
581.1072,597.5,3.510
585.6108,600.0,3.475
590.106,602.5,3.436
594.5928,605.0,3.399
599.124,607.5,3.355
603.6396,610.0,3.311
608.1498,612.5,3.264
612.672,615.0,3.215
617.1852,617.5,3.164
621.7254,620.0,3.109
626.256,622.5,3.053
630.7986,625.0,2.994
635.3394,627.5,2.936
639.8844,630.0,2.880
644.4342,632.5,2.814
648.9768,635.0,2.751
653.5494,637.5,2.688
658.1148,640.0,2.622
662.7036,642.5,2.554
667.2918,645.0,2.483
671.8968,647.5,2.408
676.5126,650.0,2.333
681.12,652.5,2.252
685.7388,655.0,2.165
690.3768,657.5,2.078
694.9908,660.0,1.989
699.606,662.5,1.898
704.1936,665.0,1.805
708.7578,667.5,1.711
713.2806,670.0,1.621
717.7572,672.5,1.537
722.1942,675.0,1.461
726.6132,677.5,1.396
731.0214,680.0,1.345
735.4446,682.5,1.306
739.9068,685.0,1.277
744.4038,687.5,1.257
748.9494,690.0,1.240
753.5322,692.5,1.229
758.1192,695.0,1.221
762.738,697.5,1.211
767.3784,700.0,1.204
772.0014,702.5,1.196
776.6436,705.0,1.187
781.2912,707.5,1.180
785.943,710.0,1.173
790.5954,712.5,1.168
795.2556,715.0,1.161
799.923,717.5,1.154
804.5778,720.0,1.147
809.2626,722.5,1.141
813.9468,725.0,1.136
818.6418,727.5,1.130
823.335,730.0,1.123
828.0348,732.5,1.116
832.7412,735.0,1.110
837.4542,737.5,1.104
842.169,740.0,1.098
846.888,742.5,1.092
851.613,745.0,1.087
856.344,747.5,1.084
861.0774,750.0,1.080
865.8186,752.5,1.074
870.5652,755.0,1.072
875.3034,757.5,1.066
880.0518,760.0,1.062
884.8074,762.5,1.060
889.5708,765.0,1.054
894.3216,767.5,1.051
899.0916,770.0,1.046
903.8448,772.5,1.043
908.61,775.0,1.040
913.3812,777.5,1.038
918.147,780.0,1.035
922.9194,782.5,1.032
927.6924,785.0,1.027
932.4582,787.5,1.025
937.2504,790.0,1.024
942.0366,792.5,1.021
946.83,795.0,1.019
951.6132,797.5,1.015
956.3922,800.0,1.012
961.1856,802.5,1.010
965.9922,805.0,1.005
970.7904,807.5,1.003
975.5862,810.0,1.003
980.3916,812.5,1.000
985.1952,815.0,0.999
989.9994,817.5,0.996
994.8138,820.0,0.995
999.6324,822.5,0.992
1004.45,825.0,0.992
1009.25,827.5,0.989
1014.08,830.0,0.986
1018.905,832.5,0.984
1023.73,835.0,0.981
1028.58,837.5,0.980
1033.41,840.0,0.977
1038.25,842.5,0.976
1043.09,845.0,0.973
1047.93,847.5,0.970
1052.781,850.0,0.969
1057.62,852.5,0.968
1062.49,855.0,0.967
1067.34,857.5,0.965
1072.21,860.0,0.963
1077.06,862.5,0.960
1081.93,865.0,0.958
1086.8,867.5,0.958
1091.661,870.0,0.956
1096.53,872.5,0.954
1101.408,875.0,0.953
1106.28,877.5,0.952
1111.16,880.0,0.950
1116.03,882.5,0.949
1120.932,885.0,0.945
1125.81,887.5,0.945
1130.7,890.0,0.945
1135.58,892.5,0.944
1140.477,895.0,0.942
1145.379,897.5,0.941
1150.28,900.0,0.938
1155.18,902.5,0.937
1160.08,905.0,0.936
1164.981,907.5,0.934
1169.88,910.0,0.934
1174.8,912.5,0.932
1179.7,915.0,0.930
1184.616,917.5,0.929
1189.53,920.0,0.928
1194.43,922.5,0.926
1199.35,925.0,0.924
1204.26,927.5,0.923
1209.17,930.0,0.922
1214.08,932.5,0.920
1218.999,935.0,0.921
1223.919,937.5,0.919
1228.84,940.0,0.919
1233.75,942.5,0.917
1238.68,945.0,0.916
1243.6,947.5,0.917
1248.52,950.0,0.914
1253.45,952.5,0.913
1258.38,955.0,0.912
1263.32,957.5,0.913
1268.238,960.0,0.910
1273.18,962.5,0.910
1278.11,965.0,0.910
1283.04,967.5,0.909
1287.99,970.0,0.909
1292.931,972.5,0.906
1297.87,975.0,0.905
1302.81,977.5,0.905
1307.75,980.0,0.904
1312.707,982.5,0.904
1317.657,985.0,0.904
1322.61,987.5,0.902
1327.57,990.0,0.901
1332.54,992.5,0.902
1337.5,995.0,0.901
1342.46,997.5,0.900
1347.43,1000.0,0.900
1352.4,1002.5,0.900
1357.37,1005.0,0.898
1362.33,1007.5,0.898
1367.32,1010.0,0.897
1372.31,1012.5,0.895
1377.294,1015.0,0.896
1382.289,1017.5,0.895
1387.26,1020.0,0.893
1392.252,1022.5,0.893
1397.23,1025.0,0.892
1402.22,1027.5,0.891
1407.2,1030.0,0.890
1412.19,1032.5,0.891
1417.18,1035.0,0.890
1422.168,1037.5,0.890
1427.16,1040.0,0.889
1432.14,1042.5,0.890
1437.13,1045.0,0.889
1442.12,1047.5,0.889
1447.12,1050.0,0.889
1452.1,1052.5,0.887
1457.1,1055.0,0.888
1462.09,1057.5,0.886
1467.07,1060.0,0.885
1472.07,1062.5,0.884
1473.07,1063.0,0.884