File: Wood/Calibration_Data/FSRI/FSRI_TGA_N2_3K_R1.csv
Time (s),Temperature (K),Mass (mg)
0,323.5,3.969
95.2674,326.0,3.971
159.5166,328.5,3.972
217.5024,331.0,3.971
272.0526,333.5,3.972
324.7362,336.0,3.973
376.2594,338.5,3.972
426.9756,341.0,3.971
477.0168,343.5,3.971
526.7058,346.0,3.971
576.471,348.5,3.970
625.9398,351.0,3.971
675.3078,353.5,3.971
724.5324,356.0,3.969
773.8308,358.5,3.969
822.8946,361.0,3.969
871.9248,363.5,3.969
920.4486,366.0,3.968
969.5946,368.5,3.967
1018.63,371.0,3.966
1067.51,373.5,3.966
1116.561,376.0,3.966
1165.24,378.5,3.964
1214.04,381.0,3.966
1263.147,383.5,3.964
1312.2,386.0,3.963
1360.81,388.5,3.964
1409.499,391.0,3.964
1458.264,393.5,3.964
1507.05,396.0,3.965
1555.59,398.5,3.963
1604.02,401.0,3.961
1652.45,403.5,3.961
1701.04,406.0,3.961
1749.69,408.5,3.960
1798.23,411.0,3.961
1846.71,413.5,3.961
1895.21,416.0,3.960
1943.586,418.5,3.961
1992.09,421.0,3.960
2040.52,423.5,3.960
2088.93,426.0,3.960
2137.3,428.5,3.959
2185.722,431.0,3.959
2234.2,433.5,3.958
2282.64,436.0,3.959
2331.22,438.5,3.958
2379.825,441.0,3.958
2428.341,443.5,3.958
2476.87,446.0,3.957
2525.52,448.5,3.957
2574.17,451.0,3.957
2622.64,453.5,3.957
2670.972,456.0,3.957
2719.431,458.5,3.956
2767.93,461.0,3.957
2816.34,463.5,3.957
2864.53,466.0,3.955
2913.02,468.5,3.955
2961.56,471.0,3.954
3009.93,473.5,3.953
3058.37,476.0,3.951
3106.79,478.5,3.949
3155.16,481.0,3.947
3203.56,483.5,3.945
3252,486.0,3.945
3300.49,488.5,3.941
3349.122,491.0,3.938
3397.74,493.5,3.935
3446.25,496.0,3.932
3494.82,498.5,3.930
3543.29,501.0,3.927
3591.87,503.5,3.923
3640.26,506.0,3.918
3688.65,508.5,3.913
3737.2,511.0,3.908
3785.98,513.5,3.902
3834.65,516.0,3.898
3883.2,518.5,3.893
3931.86,521.0,3.888
3980.49,523.5,3.884
4029.28,526.0,3.879
4077.84,528.5,3.873
4126.42,531.0,3.867
4175,533.5,3.860
4223.53,536.0,3.852
4272.09,538.5,3.842
4320.819,541.0,3.835
4369.43,543.5,3.827
4418.07,546.0,3.817
4466.946,548.5,3.807
4515.83,551.0,3.796
4564.81,553.5,3.785
4613.78,556.0,3.773
4662.59,558.5,3.760
4711.27,561.0,3.746
4760.03,563.5,3.729
4808.76,566.0,3.713
4857.61,568.5,3.696
4906.43,571.0,3.680
4955.45,573.5,3.661
5004.25,576.0,3.642
5053.01,578.5,3.620
5101.93,581.0,3.598
5150.85,583.5,3.575
5199.84,586.0,3.549
5248.73,588.5,3.522
5297.75,591.0,3.493
5346.51,593.5,3.462
5395.58,596.0,3.430
5444.82,598.5,3.395
5494.1,601.0,3.356
5543.29,603.5,3.317
5592.35,606.0,3.277
5641.4,608.5,3.232
5690.58,611.0,3.185
5739.96,613.5,3.138
5789.469,616.0,3.086
5838.89,618.5,3.034
5888.05,621.0,2.981
5937.201,623.5,2.923
5986.35,626.0,2.865
6035.44,628.5,2.805
6084.25,631.0,2.745
6132.99,633.5,2.684
6181.75,636.0,2.620
6230.69,638.5,2.554
6279.85,641.0,2.487
6328.97,643.5,2.417
6378.37,646.0,2.344
6427.85,648.5,2.268
6477.46,651.0,2.187
6526.91,653.5,2.105
6576.366,656.0,2.019
6625.81,658.5,1.929
6675.36,661.0,1.838
6725.09,663.5,1.746
6774.807,666.0,1.655
6824.31,668.5,1.567
6873.91,671.0,1.485
6923.568,673.5,1.411
6973.31,676.0,1.348
7023.02,678.5,1.298
7072.74,681.0,1.260
7122.3,683.5,1.231
7172.26,686.0,1.212
7222.03,688.5,1.196
7271.595,691.0,1.185
7321.09,693.5,1.177
7370.75,696.0,1.167
7420.632,698.5,1.159
7470.3,701.0,1.150
7520.03,703.5,1.142
7569.91,706.0,1.136
7619.88,708.5,1.128
7669.63,711.0,1.122
7719.504,713.5,1.112
7769.34,716.0,1.108
7819.45,718.5,1.103
7869.35,721.0,1.096
7919.23,723.5,1.090
7969.29,726.0,1.084
8019.18,728.5,1.078
8069.12,731.0,1.075
8119.11,733.5,1.068
8168.99,736.0,1.063
8218.803,738.5,1.055
8268.834,741.0,1.048
8318.83,743.5,1.042
8368.68,746.0,1.037
8418.51,748.5,1.032
8468.44,751.0,1.031
8518.47,753.5,1.025
8568.57,756.0,1.018
8618.76,758.5,1.016
8668.65,761.0,1.012
8718.81,763.5,1.006
8769.15,766.0,1.003
8819.46,768.5,1.000
8869.76,771.0,0.996
8920.36,773.5,0.993
8970.78,776.0,0.992
9020.89,778.5,0.988
9070.87,781.0,0.985
9120.81,783.5,0.982
9170.73,786.0,0.982
9220.93,788.5,0.979
9271.16,791.0,0.975
9321.384,793.5,0.972
9371.44,796.0,0.973
9421.68,798.5,0.968
9471.939,801.0,0.964
9522.087,803.5,0.961
9572.34,806.0,0.958
9622.548,808.5,0.955
9672.825,811.0,0.954
9723.2,813.5,0.954
9773.41,816.0,0.951
9823.59,818.5,0.948
9874.04,821.0,0.946
9924.393,823.5,0.944
9974.65,826.0,0.945
10025.2,828.5,0.942
10075.9,831.0,0.938
10126.4,833.5,0.936
10176.903,836.0,0.932
10227.1,838.5,0.930
10277.112,841.0,0.929
10327.4,843.5,0.926
10377.9,846.0,0.923
10428.8,848.5,0.922
10479.1,851.0,0.922
10529.517,853.5,0.920
10579.9,856.0,0.919
10630.4,858.5,0.916
10680.834,861.0,0.916
10731.1,863.5,0.915
10781.697,866.0,0.912
10832.2,868.5,0.909
10882.8,871.0,0.909
10933.2,873.5,0.907
10983.6,876.0,0.905
11034.1,878.5,0.902
11084.7,881.0,0.899
11135.1,883.5,0.899
11185.533,886.0,0.897
11236.203,888.5,0.895
11287,891.0,0.892
11337.8,893.5,0.892
11388.5,896.0,0.891
11439.2,898.5,0.890
11490,901.0,0.889
11540.7,903.5,0.886
11591.6,906.0,0.885
11642.3,908.5,0.884
11692.7,911.0,0.881
11743.9,913.5,0.880
11794.683,916.0,0.879
11845.5,918.5,0.879
11895.7,921.0,0.879
11946.675,923.5,0.877
11997.9,926.0,0.875
12048.9,928.5,0.873
12099.9,931.0,0.872
12150.4,933.5,0.871
12201,936.0,0.870
12251.5,938.5,0.871
12302.4,941.0,0.870
12353.4,943.5,0.867
12404.3,946.0,0.867
12455.229,948.5,0.866
12505.812,951.0,0.864
12556.719,953.5,0.863
12607.7,956.0,0.860
12658.8,958.5,0.859
12709.4,961.0,0.860
12759.9,963.5,0.860
12810.7,966.0,0.858
12861.7,968.5,0.857
12912.5,971.0,0.856
12963.153,973.5,0.856
13013.9,976.0,0.854
13065,978.5,0.853
13116.2,981.0,0.852
13167,983.5,0.853
13217.9,986.0,0.853
13269.1,988.5,0.853
13320.132,991.0,0.851
13371.2,993.5,0.851
13422.1,996.0,0.850
13472.952,998.5,0.848
13523.7,1001.0,0.847
13574.2,1003.5,0.846
13625.415,1006.0,0.847
13676.7,1008.5,0.844
13728,1011.0,0.844
13779.207,1013.5,0.844
13830,1016.0,0.843
13881.147,1018.5,0.844
13932.309,1021.0,0.845
13983.1,1023.5,0.843
14033.9,1026.0,0.843
14084.8,1028.5,0.842
14135.904,1031.0,0.843
14186.763,1033.5,0.842
14237.622,1036.0,0.840
14288.6,1038.5,0.839
14340.1,1041.0,0.839
14391.2,1043.5,0.839
14442.1,1046.0,0.839
14492.1,1048.5,0.838
14543,1051.0,0.836
14594.5,1053.5,0.835
14646.1,1056.0,0.834
14696.7,1058.5,0.834
14747.4,1061.0,0.834
14767.8,1062.0,0.834