File: Wood/Calibration_Data/FSRI/FSRI_Wood_CAPA_N2_40kW_R2.csv
Time (s),Mass (g),TC back 1 (K),TC Top (K)
0,12.739,297.1,414.8
4,12.726,297.1,550.6
8,12.648,297,612.8
12,12.608,297,
16,12.53,297,
20,12.455,297.3,
24,12.398,297.7,
28,12.277,298.4,
32,12.255,299.7,
36,12.162,301.4,
40,12.028,303.6,
44,11.925,306.1,
48,11.853,308.9,
52,11.74,311.9,
56,11.681,315.1,
60,11.568,318.4,
64,11.511,321.7,
68,11.409,324.9,
72,11.385,328.3,
76,11.222,331.7,
80,11.178,335,
84,11.133,337.9,
88,11.026,341,
92,10.959,343.6,
96,10.884,346.4,
100,10.818,348.9,
104,10.732,351.2,
108,10.671,353.4,
112,10.591,355.2,
116,10.543,357,
120,10.426,358.3,
124,10.38,359.5,
128,10.32,360.3,
132,10.255,360.7,
136,10.166,360.9,
140,10.068,361.1,
144,10.053,361.3,
148,9.986,361.5,
152,9.911,361.8,
156,9.829,362.3,
160,9.777,362.9,
164,9.695,363.7,
168,9.656,364.6,
172,9.584,365.6,
176,9.56,366.9,
180,9.452,368.4,
184,9.384,370.1,
188,9.364,371.9,
192,9.297,374,
196,9.229,376.5,
200,9.193,379,
204,9.109,381.7,
208,9.101,384.5,
212,8.969,387.5,
216,8.969,390.3,
220,8.907,393.3,
224,8.825,396.2,
228,8.797,399.3,
232,8.765,402.2,
236,8.709,404.9,
240,8.661,407.7,
244,8.616,410.4,
248,8.572,413,
252,8.502,415.5,
256,8.415,418.1,
260,8.373,420.4,
264,8.297,422.6,
268,8.255,424.6,
272,8.2,426.7,
276,8.141,428.7,
280,8.078,430.6,
284,7.974,432.3,
288,7.978,434.1,
292,7.9,435.7,
296,7.836,437.3,
300,7.773,438.8,
304,7.716,440.1,
308,7.664,441.7,
312,7.574,443.1,
316,7.504,444.2,
320,7.465,445.1,
324,7.423,446.7,
328,7.282,447.4,
332,7.278,448.9,
336,7.211,449.5,
340,7.166,450.3,
344,7.058,451.3,
348,7.033,452.2,
352,6.943,453.2,
356,6.933,453.4,
360,6.842,454.3,
364,6.769,455.3,
368,6.686,456.3,
372,6.651,456.9,
376,6.602,456.5,
380,6.537,456.6,
384,6.505,458.1,
388,6.439,456.9,
392,6.434,458.1,
396,6.366,459.2,
400,6.328,458.5,
404,6.243,459.5,
408,6.233,459.4,
412,6.174,459.8,
416,6.111,461.2,
420,6.059,461.2,
424,6.035,461.7,
428,5.961,461.4,
432,5.952,461.8,
436,5.916,462,
440,5.833,462.2,
444,5.883,462.2,
448,5.777,462.6,
452,5.753,462.6,
456,5.748,462.4,
460,5.693,463.4,
464,5.64,463.1,
468,5.578,463.2,
472,5.61,462.6,
476,5.561,464.3,
480,5.527,464,
484,5.528,464.6,
488,5.451,464.5,
492,5.414,464.7,
496,5.376,465.6,
500,5.41,466.3,
504,5.29,466,
508,5.291,466.8,
512,5.266,467,
516,5.25,467.8,
520,5.26,468.2,
524,5.258,468,
528,5.196,468.5,
532,5.192,468.8,
536,5.164,469.1,
540,5.107,469.3,
544,5.131,469.6,
548,5.06,469.4,
552,5.08,470.4,
556,5.037,470.4,
560,4.995,470.7,
564,5.015,470.7,
568,4.976,471.6,
572,4.959,471.7,
576,4.979,472.3,
580,4.905,472,
584,4.898,472.3,
588,4.901,472.7,
592,4.86,472.6,
596,4.862,473.4,
600,4.816,473.5,
604,4.801,473.7,
608,4.815,474,
612,4.784,474.3,
616,4.741,474.5,
620,4.775,474.1,
624,4.752,474.9,
628,4.715,474.9,
632,4.721,475.1,
636,4.732,475.5,
640,4.689,475.3,
644,4.672,475.8,
648,4.676,475.9,
652,4.652,476.3,
656,4.644,476.5,
660,4.664,476.6,
664,4.648,476.6,
668,4.576,477,
672,4.591,477,
676,4.581,477.3,
680,4.566,476.9,
684,4.55,477.5,
688,4.498,477.6,
692,4.519,477.8,
696,4.505,478,
700,4.515,478.3,
704,4.492,478.6,
708,4.466,478.6,
712,4.462,478.6,
716,4.462,478.6,
720,4.444,478.9,
724,4.475,478.8,
728,4.486,479,
732,4.426,479,
736,4.405,479.3,
740,4.421,479.4,
744,4.401,479.4,
748,4.404,479.5,
752,4.361,479.8,
756,4.391,480,
760,4.363,480,
764,4.357,480.1,
768,4.358,480.4,
772,4.387,480.2,
776,4.332,480.7,
780,4.35,480.7,
784,4.341,480.7,
788,4.304,480.6,
792,4.317,480.7,
796,4.297,481.1,
800,4.289,480.9,
804,4.28,481.1,
808,4.276,481.1,
812,4.284,481.3,
816,4.258,481.3,
820,4.258,481.5,
824,4.247,481.7,
828,4.253,481.9,
832,4.249,482,
836,4.204,481.9,
840,4.243,481.8,
844,4.228,482.3,
848,4.205,482.1,
852,4.214,482.3,
856,4.229,482.6,
860,4.198,482.5,
864,4.194,482.8,
868,4.204,482.6,
872,4.212,482.8,
876,4.183,482.7,
880,4.164,482.9,
884,4.108,483.2,
888,4.183,483.3,
892,4.178,483.2,
896,4.135,483.3,
900,4.167,483.4,
904,4.117,483.4,
908,4.144,483.6,
912,4.138,483.5,
916,4.084,483.3,
920,4.111,483.4,
924,4.128,483.5,
928,4.107,483.9,
932,4.059,483.8,
936,4.093,483.9,
940,4.094,483.9,
944,4.071,484.1,
948,4.095,484.2,894.7
952,4.06,484.2,899.6
956,4.085,484.4,895.6
960,4.04,484.2,895.9
964,4.05,484.4,897.8
968,4.094,484.7,895.6
972,4.063,484.9,895.1
976,3.985,484.7,893.3
980,4.07,484.9,897.5
984,4.061,484.9,908
988,4.039,485.1,899.9