File: Wood/Calibration_Data/FSRI/FSRI_Wood_LFA_N2_Parallel_R6.csv
Temperature (K),Mean Diffusivity (mm^2/s)
298.0,0.132
323.0,0.136
348.0,0.138
373.0,0.134
423.0,0.126
473.0,0.12
523.0,0.116
573.0,0.12