File: Wood/Calibration_Data/FSRI/FSRI_DSC_N2_3K_R1.csv
Time (s),Temperature (K),Heat Flow Rate (W/g)
0,323.5,0.010
95.2674,326.0,0.050
159.5166,328.5,0.062
217.5024,331.0,0.070
272.0526,333.5,0.076
324.7362,336.0,0.082
376.2594,338.5,0.086
426.9756,341.0,0.090
477.0168,343.5,0.092
526.7058,346.0,0.090
576.471,348.5,0.088
625.9398,351.0,0.088
675.3078,353.5,0.088
724.5324,356.0,0.087
773.8308,358.5,0.087
822.8946,361.0,0.087
871.9248,363.5,0.085
920.4486,366.0,0.085
969.5946,368.5,0.084
1018.63,371.0,0.084
1067.51,373.5,0.085
1116.561,376.0,0.084
1165.24,378.5,0.084
1214.04,381.0,0.085
1263.147,383.5,0.087
1312.2,386.0,0.087
1360.81,388.5,0.089
1409.499,391.0,0.090
1458.264,393.5,0.092
1507.05,396.0,0.088
1555.59,398.5,0.090
1604.02,401.0,0.094
1652.45,403.5,0.095
1701.04,406.0,0.096
1749.69,408.5,0.098
1798.23,411.0,0.097
1846.71,413.5,0.098
1895.21,416.0,0.100
1943.586,418.5,0.102
1992.09,421.0,0.102
2040.52,423.5,0.102
2088.93,426.0,0.105
2137.3,428.5,0.108
2185.722,431.0,0.107
2234.2,433.5,0.108
2282.64,436.0,0.107
2331.22,438.5,0.107
2379.825,441.0,0.107
2428.341,443.5,0.110
2476.87,446.0,0.109
2525.52,448.5,0.113
2574.17,451.0,0.112
2622.64,453.5,0.112
2670.972,456.0,0.115
2719.431,458.5,0.113
2767.93,461.0,0.115
2816.34,463.5,0.116
2864.53,466.0,0.117
2913.02,468.5,0.117
2961.56,471.0,0.115
3009.93,473.5,0.114
3058.37,476.0,0.117
3106.79,478.5,0.115
3155.16,481.0,0.116
3203.56,483.5,0.116
3252,486.0,0.119
3300.49,488.5,0.118
3349.122,491.0,0.116
3397.74,493.5,0.119
3446.25,496.0,0.120
3494.82,498.5,0.121
3543.29,501.0,0.122
3591.87,503.5,0.122
3640.26,506.0,0.122
3688.65,508.5,0.121
3737.2,511.0,0.122
3785.98,513.5,0.123
3834.65,516.0,0.124
3883.2,518.5,0.124
3931.86,521.0,0.120
3980.49,523.5,0.121
4029.28,526.0,0.121
4077.84,528.5,0.124
4126.42,531.0,0.124
4175,533.5,0.125
4223.53,536.0,0.126
4272.09,538.5,0.124
4320.819,541.0,0.125
4369.43,543.5,0.125
4418.07,546.0,0.127
4466.946,548.5,0.129
4515.83,551.0,0.130
4564.81,553.5,0.133
4613.78,556.0,0.137
4662.59,558.5,0.139
4711.27,561.0,0.140
4760.03,563.5,0.143
4808.76,566.0,0.150
4857.61,568.5,0.151
4906.43,571.0,0.155
4955.45,573.5,0.159
5004.25,576.0,0.161
5053.01,578.5,0.167
5101.93,581.0,0.171
5150.85,583.5,0.175
5199.84,586.0,0.181
5248.73,588.5,0.182
5297.75,591.0,0.185
5346.51,593.5,0.189
5395.58,596.0,0.191
5444.82,598.5,0.194
5494.1,601.0,0.201
5543.29,603.5,0.206
5592.35,606.0,0.213
5641.4,608.5,0.222
5690.58,611.0,0.229
5739.96,613.5,0.242
5789.469,616.0,0.249
5838.89,618.5,0.251
5888.05,621.0,0.252
5937.201,623.5,0.239
5986.35,626.0,0.224
6035.44,628.5,0.188
6084.25,631.0,0.150
6132.99,633.5,0.102
6181.75,636.0,0.060
6230.69,638.5,0.030
6279.85,641.0,0.009
6328.97,643.5,0.003
6378.37,646.0,0.001
6427.85,648.5,-0.002
6477.46,651.0,-0.004
6526.91,653.5,-0.007
6576.366,656.0,-0.009
6625.81,658.5,-0.013
6675.36,661.0,-0.018
6725.09,663.5,-0.020
6774.807,666.0,-0.024
6824.31,668.5,-0.027
6873.91,671.0,-0.031
6923.568,673.5,-0.035
6973.31,676.0,-0.036
7023.02,678.5,-0.040
7072.74,681.0,-0.042
7122.3,683.5,-0.044
7172.26,686.0,-0.048
7222.03,688.5,-0.048
7271.595,691.0,-0.048
7321.09,693.5,-0.050
7370.75,696.0,-0.050
7420.632,698.5,-0.048
7470.3,701.0,-0.047
7520.03,703.5,-0.043
7569.91,706.0,-0.042
7619.88,708.5,-0.039
7669.63,711.0,-0.039
7719.504,713.5,-0.034
7769.34,716.0,-0.034
7819.45,718.5,-0.030
7869.35,721.0,-0.031
7919.23,723.5,-0.026
7969.29,726.0,-0.027
8019.18,728.5,-0.029
8069.12,731.0,-0.033
8119.11,733.5,-0.032
8168.99,736.0,-0.035
8218.803,738.5,-0.035
8268.834,741.0,-0.036
8318.83,743.5,-0.036
8368.68,746.0,-0.036
8418.51,748.5,-0.038
8468.44,751.0,-0.040
8518.47,753.5,-0.037
8568.57,756.0,-0.035
8618.76,758.5,-0.034
8668.65,761.0,-0.037
8718.81,763.5,-0.032
8769.15,766.0,-0.033
8819.46,768.5,-0.030
8869.76,771.0,-0.029
8920.36,773.5,-0.030
8970.78,776.0,-0.034
9020.89,778.5,-0.034
9070.87,781.0,-0.034
9120.81,783.5,-0.034
9170.73,786.0,-0.037
9220.93,788.5,-0.034
9271.16,791.0,-0.034
9321.384,793.5,-0.035
9371.44,796.0,-0.035
9421.68,798.5,-0.035
9471.939,801.0,-0.038
9522.087,803.5,-0.038
9572.34,806.0,-0.041
9622.548,808.5,-0.042
9672.825,811.0,-0.042
9723.2,813.5,-0.042
9773.41,816.0,-0.044
9823.59,818.5,-0.045
9874.04,821.0,-0.049
9924.393,823.5,-0.046
9974.65,826.0,-0.047
10025.2,828.5,-0.043
10075.9,831.0,-0.046
10126.4,833.5,-0.047
10176.903,836.0,-0.044
10227.1,838.5,-0.046
10277.112,841.0,-0.044
10327.4,843.5,-0.040
10377.9,846.0,-0.043
10428.8,848.5,-0.037
10479.1,851.0,-0.038
10529.517,853.5,-0.034
10579.9,856.0,-0.035
10630.4,858.5,-0.036
10680.834,861.0,-0.037
10731.1,863.5,-0.041
10781.697,866.0,-0.042
10832.2,868.5,-0.043
10882.8,871.0,-0.040
10933.2,873.5,-0.035
10983.6,876.0,-0.037
11034.1,878.5,-0.039
11084.7,881.0,-0.040
11135.1,883.5,-0.039
11185.533,886.0,-0.037
11236.203,888.5,-0.033
11287,891.0,-0.030
11337.8,893.5,-0.029
11388.5,896.0,-0.029
11439.2,898.5,-0.030
11490,901.0,-0.030
11540.7,903.5,-0.031
11591.6,906.0,-0.031
11642.3,908.5,-0.033
11692.7,911.0,-0.028
11743.9,913.5,-0.010
11794.683,916.0,-0.004
11845.5,918.5,-0.001
11895.7,921.0,-0.010
11946.675,923.5,-0.011
11997.9,926.0,-0.010
12048.9,928.5,-0.011
12099.9,931.0,-0.011
12150.4,933.5,-0.024
12201,936.0,-0.016
12251.5,938.5,-0.014
12302.4,941.0,-0.008
12353.4,943.5,-0.009
12404.3,946.0,-0.007
12455.229,948.5,-0.006
12505.812,951.0,-0.007
12556.719,953.5,-0.006
12607.7,956.0,-0.006
12658.8,958.5,-0.009
12709.4,961.0,-0.006
12759.9,963.5,-0.006
12810.7,966.0,-0.010
12861.7,968.5,-0.017
12912.5,971.0,-0.032
12963.153,973.5,-0.027
13013.9,976.0,-0.039
13065,978.5,-0.039
13116.2,981.0,-0.046
13167,983.5,-0.051
13217.9,986.0,-0.052
13269.1,988.5,-0.051
13320.132,991.0,-0.048
13371.2,993.5,-0.050
13422.1,996.0,-0.054
13472.952,998.5,-0.050
13523.7,1001.0,-0.054
13574.2,1003.5,-0.056
13625.415,1006.0,-0.051
13676.7,1008.5,-0.048
13728,1011.0,-0.048
13779.207,1013.5,-0.038
13830,1016.0,-0.036
13881.147,1018.5,-0.033
13932.309,1021.0,-0.028
13983.1,1023.5,-0.025
14033.9,1026.0,-0.025
14084.8,1028.5,-0.022
14135.904,1031.0,-0.027
14186.763,1033.5,-0.030
14237.622,1036.0,-0.037
14288.6,1038.5,-0.028
14340.1,1041.0,-0.029
14391.2,1043.5,-0.026
14442.1,1046.0,-0.015
14492.1,1048.5,-0.025
14543,1051.0,-0.012
14594.5,1053.5,-0.014
14646.1,1056.0,-0.004
14696.7,1058.5,-0.007
14747.4,1061.0,0.000
14767.8,1062.0,-0.002