File: Wood/Calibration_Data/FSRI/FSRI_DSC_N2_10K_R1.csv
Time (s),Temperature (K),Heat Flow Rate (W/g)
0,324.5,0.0262217
45.67,327,0.0993224
71.55,329.5,0.138814
93.35,332,0.162534
113.28,334.5,0.178486
132.12,337,0.190559
150.23,339.5,0.202599
167.78,342,0.209668
185,344.5,0.218829
201.84,347,0.228134
218.42,349.5,0.236093
234.7,352,0.245086
250.76,354.5,0.249212
266.53,357,0.256282
282.19,359.5,0.26328
297.7,362,0.263887
312.96,364.5,0.26628
328.12,367,0.268975
343.1,369.5,0.267343
358.01,372,0.268169
372.86,374.5,0.268955
387.58,377,0.26799
402.26,379.5,0.267526
416.86,382,0.267262
431.51,384.5,0.268128
446.02,387,0.266985
460.56,389.5,0.269657
475.07,392,0.26706
489.59,394.5,0.271423
504.02,397,0.272605
518.47,399.5,0.271736
532.88,402,0.274103
547.17,404.5,0.276746
561.55,407,0.277642
575.86,409.5,0.280786
590.15,412,0.282977
604.39,414.5,0.28597
618.58,417,0.286091
632.82,419.5,0.289335
647,422,0.290096
661.2,424.5,0.293096
675.39,427,0.295557
689.57,429.5,0.300542
703.69,432,0.302426
717.82,434.5,0.30464
731.94,437,0.309645
746.05,439.5,0.31028
760.15,442,0.312605
774.33,444.5,0.317955
788.43,447,0.318033
802.53,449.5,0.322859
816.64,452,0.326537
830.76,454.5,0.331443
844.89,457,0.331748
858.98,459.5,0.335489
873.04,462,0.339763
887.12,464.5,0.342015
901.25,467,0.347139
915.33,469.5,0.345564
929.39,472,0.348662
943.51,474.5,0.353222
957.59,477,0.35462
971.68,479.5,0.358058
985.81,482,0.358552
999.92,484.5,0.360756
1014.08,487,0.368262
1028.23,489.5,0.368957
1042.39,492,0.372335
1056.5,494.5,0.373154
1070.61,497,0.376743
1084.77,499.5,0.381977
1098.91,502,0.381076
1113.06,504.5,0.38131
1127.18,507,0.383889
1141.35,509.5,0.3833
1155.53,512,0.384365
1169.66,514.5,0.387587
1183.85,517,0.391038
1198.03,519.5,0.390418
1212.2,522,0.389315
1226.36,524.5,0.393602
1240.47,527,0.393214
1254.64,529.5,0.393897
1268.88,532,0.391171
1283.05,534.5,0.392393
1297.26,537,0.388962
1311.5,539.5,0.389111
1325.7,542,0.38936
1339.87,544.5,0.388877
1354.15,547,0.392877
1368.37,549.5,0.390242
1382.63,552,0.392108
1396.89,554.5,0.391743
1411.17,557,0.391418
1425.47,559.5,0.394204
1439.79,562,0.396798
1454.05,564.5,0.396997
1468.37,567,0.403874
1482.66,569.5,0.403322
1496.94,572,0.408116
1511.27,574.5,0.411584
1525.57,577,0.414058
1539.9,579.5,0.420078
1554.23,582,0.428282
1568.57,584.5,0.434078
1582.96,587,0.441957
1597.35,589.5,0.450257
1611.72,592,0.460335
1626.13,594.5,0.46768
1640.51,597,0.473562
1654.94,599.5,0.482101
1669.35,602,0.489179
1683.79,604.5,0.498406
1698.2,607,0.504806
1712.65,609.5,0.516149
1727.11,612,0.529957
1741.55,614.5,0.539431
1756,617,0.551715
1770.44,619.5,0.567882
1784.88,622,0.58565
1799.33,624.5,0.606237
1813.83,627,0.631123
1828.36,629.5,0.657761
1842.89,632,0.6832267
1857.46,634.5,0.71073
1872.04,637,0.737479
1886.79,639.5,0.75796
1901.57,642,0.762597
1916.38,644.5,0.750101
1931.09,647,0.714746
1945.74,649.5,0.647879
1960.22,652,0.551559
1974.65,654.5,0.438801
1989.03,657,0.316378
2003.36,659.5,0.206149
2017.72,662,0.117564
2032.16,664.5,0.0651914
2046.61,667,0.0372091
2061.1,669.5,0.026073
2075.66,672,1.58E-02
2090.19,674.5,7.93E-03
2104.75,677,7.26E-04
2119.28,679.5,-5.94E-03
2133.93,682,-1.30E-02
2148.52,684.5,-1.85E-02
2163.14,687,-0.0292469
2177.8,689.5,-0.0372821
2192.41,692,-0.0421788
2207.07,694.5,-0.049937
2221.67,697,-0.0547683
2236.3,699.5,-0.0579975
2250.93,702,-0.0642569
2265.59,704.5,-0.0661285
2280.25,707,-0.06459194
2294.9,709.5,-0.0660353
2309.63,712,-0.063267
2324.37,714.5,-0.0586474
2339.1,717,-0.05281864
2353.87,719.5,-0.0444257
2368.62,722,-0.0408287
2383.38,724.5,-0.0357582
2398.13,727,-0.0308791
2412.87,729.5,-2.48E-02
2427.65,732,-1.71E-02
2442.42,734.5,-1.16E-02
2457.25,737,-7.14E-04
2472,739.5,2.03E-03
2486.79,742,8.34E-03
2501.54,744.5,1.37E-02
2516.27,747,1.30E-02
2531.04,749.5,1.66E-02
2545.8,752,1.91E-02
2560.6,754.5,1.93E-02
2575.43,757,0.0253501
2590.25,759.5,2.37E-02
2605.05,762,2.40E-02
2619.9,764.5,0.026461
2634.74,767,0.0258841
2649.6,769.5,2.39E-02
2664.45,772,0.03015869
2679.33,774.5,0.0264836
2694.18,777,0.0271385
2708.98,779.5,2.51E-02
2723.85,782,0.0259043
2738.69,784.5,0.0274861
2753.54,787,2.38E-02
2768.4,789.5,2.17E-02
2783.25,792,2.14E-02
2798.18,794.5,1.98E-02
2813.09,797,1.44E-02
2827.98,799.5,1.41E-02
2842.92,802,1.66E-02
2857.85,804.5,1.44E-02
2872.8,807,1.12E-02
2887.75,809.5,1.07E-02
2902.68,812,1.19E-02
2917.64,814.5,1.21E-02
2932.58,817,1.59E-02
2947.5,819.5,1.67E-02
2962.37,822,1.23E-02
2977.25,824.5,9.81E-03
2992.13,827,6.61E-03
3007.02,829.5,8.42E-03
3021.89,832,8.33E-03
3036.83,834.5,2.30E-03
3051.78,837,-7.86E-06
3066.76,839.5,-2.05E-03
3081.69,842,-2.87E-03
3096.66,844.5,-2.57E-03
3111.64,847,2.95E-04
3126.66,849.5,-4.44E-03
3141.67,852,-5.66E-03
3156.66,854.5,-7.90E-03
3171.67,857,-1.02E-02
3186.69,859.5,-1.42E-02
3201.69,862,-1.11E-02
3216.7,864.5,-1.46E-02
3231.72,867,-0.02679597
3246.74,869.5,-0.0287783
3261.72,872,-0.0252317
3276.71,874.5,-0.0306171
3291.73,877,-0.0390202
3306.76,879.5,-0.0389118
3321.83,882,-0.0423073
3336.87,884.5,-0.0465189
3351.9,887,-0.0519572
3366.97,889.5,-0.0510428
3381.98,892,-0.0552746
3397.06,894.5,-0.0599899
3412.13,897,-0.0604433
3427.18,899.5,-0.0638892
3442.26,902,-0.0610856
3457.33,904.5,-0.0667229
3472.44,907,-0.0682972
3487.55,909.5,-0.0705113
3502.69,912,-0.0714987
3517.82,914.5,-0.0712015
3532.95,917,-0.0730025
3548.02,919.5,-0.0768035
3563.12,922,-0.0762418
3578.21,924.5,-0.07811335
3593.31,927,-0.0793501
3608.45,929.5,-0.0823829
3623.6,932,-0.0765441
3638.72,934.5,-0.0725844
3653.87,937,-0.0769748
3669.02,939.5,-0.0789169
3684.18,942,-0.0753678
3699.36,944.5,-0.0771436
3714.59,947,-0.0758338
3729.87,949.5,-0.0768338
3745.08,952,-0.0814055
3760.28,954.5,-0.0806398
3775.45,957,-0.0804257
3790.66,959.5,-0.08029471
3805.82,962,-0.0846927
3821.01,964.5,-0.087267
3836.2,967,-0.08504534
3851.35,969.5,-0.0868237
3866.55,972,-0.0871108
3881.8,974.5,-0.0862821
3897.05,977,-0.0837582
3912.3,979.5,-0.0859572
3927.54,982,-0.0861209
3942.78,984.5,-0.0867078
3957.98,987,-0.08361461
3973.17,989.5,-0.08470529
3988.38,992,-0.0895139
4003.55,994.5,-0.0870554
4018.79,997,-0.084801
4033.99,999.5,-0.0832292
4049.2,1002,-0.07672796
4064.42,1004.5,-0.071471
4079.61,1007,-0.0695793
4094.79,1009.5,-0.0628363
4109.99,1012,-0.0655542
4125.13,1014.5,-0.0608489
4140.36,1017,-0.0596751
4155.61,1019.5,-0.0590176
4170.86,1022,-0.0543753
4186.11,1024.5,-0.0440831
4201.36,1027,-0.0377254
4216.62,1029.5,-0.0342242
4231.89,1032,-0.0255516
4247.2,1034.5,-1.40E-02
4262.46,1037,-4.50E-03
4277.76,1039.5,-1.12E-04
4293.02,1042,9.18E-04
4308.33,1044.5,8.36E-03
4323.62,1047,1.37E-02
4338.89,1049.5,1.66E-02
4354.16,1052,1.72E-02
4369.37,1054.5,2.43E-02
4384.62,1057,0.0290151
4399.9,1059.5,2.05E-02
4415.15,1062,0.0254458
4430.39,1064.5,0.0281511
4445.72,1067,0.0272846
4457.98,1069,0.03431738