File: Wood/Calibration_Data/FSRI/FSRI_Wood_LFA_N2_Perpendicular_R5.csv
Temperature (K),Mean Diffusivity (mm^2/s)
298.0,0.46
323.0,0.489
348.0,0.44
373.0,0.408
423.0,0.371
473.0,0.344
523.0,0.326
573.0,0.316