File: Wood/Calibration_Data/FSRI/FSRI_DSC_N2_10K_R3.csv
Time (s),Temperature (K),Heat Flow Rate (W/g)
0,324.5,0.024
49.0644,327,0.102
75.2352,329.5,0.14
97.1592,332,0.165
117.1458,334.5,0.18
136.086,337,0.192
154.2936,339.5,0.202
171.9426,342,0.211
189.1248,344.5,0.219
205.9812,347,0.229
222.4938,349.5,0.237
238.6896,352,0.244
254.6922,354.5,0.251
270.498,357,0.257
286.1202,359.5,0.261
301.5084,362,0.265
316.7358,364.5,0.268
331.8114,367,0.27
346.7694,369.5,0.272
361.5942,372,0.271
376.4154,374.5,0.273
391.1442,377,0.274
405.8088,379.5,0.274
420.3966,382,0.275
434.9604,384.5,0.275
449.4588,387,0.273
464.0508,389.5,0.275
478.5672,392,0.277
493.083,394.5,0.277
507.5106,397,0.279
521.9022,399.5,0.279
536.2884,402,0.282
550.6164,404.5,0.285
564.9354,407,0.287
579.2466,409.5,0.289
593.5392,412,0.293
607.776,414.5,0.296
622.0122,417,0.295
636.2124,419.5,0.299
650.4498,422,0.301
664.6272,424.5,0.303
678.7962,427,0.307
692.9796,429.5,0.313
707.1282,432,0.314
721.2558,434.5,0.32
735.4458,437,0.322
749.6046,439.5,0.327
763.803,442,0.33
777.9288,444.5,0.339
792.0816,447,0.34
806.2476,449.5,0.343
820.4016,452,0.347
834.5466,454.5,0.347
848.6754,457,0.349
862.8102,459.5,0.355
876.978,462,0.359
891.114,464.5,0.361
905.2476,467,0.364
919.3998,469.5,0.369
933.5538,472,0.371
947.6964,474.5,0.377
961.8186,477,0.381
975.9354,479.5,0.383
990.0858,482,0.385
1004.24,484.5,0.39
1018.4,487,0.395
1032.49,489.5,0.398
1046.64,492,0.398
1060.79,494.5,0.4
1074.97,497,0.402
1089.1,499.5,0.405
1103.29,502,0.406
1117.43,504.5,0.409
1131.63,507,0.412
1145.81,509.5,0.414
1160.01,512,0.419
1174.17,514.5,0.416
1188.35,517,0.415
1202.526,519.5,0.417
1216.71,522,0.418
1230.927,524.5,0.421
1245.117,527,0.419
1259.31,529.5,0.42
1273.545,532,0.419
1287.76,534.5,0.418
1302.015,537,0.418
1316.24,539.5,0.42
1330.45,542,0.418
1344.7,544.5,0.421
1358.93,547,0.42
1373.2,549.5,0.421
1387.45,552,0.424
1401.72,554.5,0.423
1416,557,0.424
1430.28,559.5,0.424
1444.57,562,0.426
1458.89,564.5,0.427
1473.18,567,0.431
1487.52,569.5,0.432
1501.836,572,0.436
1516.14,574.5,0.442
1530.48,577,0.449
1544.79,579.5,0.46
1559.1,582,0.466
1573.44,584.5,0.472
1587.76,587,0.482
1602.11,589.5,0.492
1616.45,592,0.502
1630.8,594.5,0.506
1645.17,597,0.519
1659.58,599.5,0.53
1673.97,602,0.535
1688.418,604.5,0.547
1702.848,607,0.557
1717.29,609.5,0.567
1731.74,612,0.577
1746.14,614.5,0.589
1760.62,617,0.602
1775.07,619.5,0.617
1789.51,622,0.635
1804.014,624.5,0.659
1818.51,627,0.683
1833.01,629.5,0.713
1847.61,632,0.741
1862.175,634.5,0.771
1876.77,637,0.798
1891.34,639.5,0.818
1905.87,642,0.821
1920.32,644.5,0.81
1934.76,647,0.774
1949.14,649.5,0.711
1963.416,652,0.62
1977.69,654.5,0.507
1991.94,657,0.381
2006.169,659.5,0.27
2020.51,662,0.18
2034.87,664.5,0.122
2049.37,667,0.094
2063.88,669.5,0.079
2078.49,672,0.072
2093.082,674.5,0.065
2107.7,677,0.054
2122.27,679.5,0.048
2136.94,682,0.04
2151.5,684.5,0.036
2166.108,687,0.03
2180.7,689.5,0.023
2195.35,692,0.017
2210,694.5,0.012
2224.66,697,0.006
2239.3,699.5,0.004
2254.01,702,0.005
2268.69,704.5,0.005
2283.381,707,0.005
2298.06,709.5,0.006
2312.724,712,0.008
2327.47,714.5,0.01
2342.18,717,0.023
2356.88,719.5,0.027
2371.617,722,0.032
2386.34,724.5,0.038
2401.1,727,0.044
2415.843,729.5,0.042
2430.59,732,0.048
2445.35,734.5,0.058
2460.16,737,0.065
2474.92,739.5,0.069
2489.7,742,0.071
2504.45,744.5,0.075
2519.24,747,0.081
2533.977,749.5,0.088
2548.79,752,0.09
2563.56,754.5,0.095
2578.36,757,0.098
2593.15,759.5,0.098
2607.96,762,0.099
2622.78,764.5,0.1
2637.62,767,0.105
2652.42,769.5,0.106
2667.264,772,0.106
2682.129,774.5,0.104
2697,777,0.106
2711.841,779.5,0.109
2726.7,782,0.113
2741.53,784.5,0.115
2756.42,787,0.114
2771.29,789.5,0.114
2786.136,792,0.112
2801.02,794.5,0.114
2815.88,797,0.116
2830.78,799.5,0.118
2845.69,802,0.116
2860.617,804.5,0.114
2875.503,807,0.117
2890.41,809.5,0.114
2905.31,812,0.112
2920.22,814.5,0.116
2935.14,817,0.12
2950.11,819.5,0.125
2965.06,822,0.126
2979.98,824.5,0.13
2994.87,827,0.132
3009.85,829.5,0.129
3024.8,832,0.13
3039.73,834.5,0.13
3054.73,837,0.129
3069.7,839.5,0.131
3084.675,842,0.128
3099.66,844.5,0.13
3114.67,847,0.128
3129.67,849.5,0.126
3144.63,852,0.127
3159.64,854.5,0.121
3174.64,857,0.116
3189.66,859.5,0.113
3204.67,862,0.112
3219.66,864.5,0.109
3234.62,867,0.108
3249.64,869.5,0.111
3264.64,872,0.11
3279.65,874.5,0.108
3294.69,877,0.104
3309.72,879.5,0.103
3324.771,882,0.098
3339.79,884.5,0.098
3354.82,887,0.096
3369.83,889.5,0.093
3384.83,892,0.093
3399.84,894.5,0.094
3414.83,897,0.09
3429.86,899.5,0.089
3444.87,902,0.086
3459.9,904.5,0.084
3474.94,907,0.083
3489.98,909.5,0.082
3505.04,912,0.084
3520.08,914.5,0.077
3535.113,917,0.079
3550.16,919.5,0.078
3565.32,922,0.077
3580.43,924.5,0.079
3595.58,927,0.077
3610.73,929.5,0.078
3625.86,932,0.079
3640.98,934.5,0.08
3656.11,937,0.079
3671.2,939.5,0.078
3686.31,942,0.072
3701.403,944.5,0.075
3716.51,947,0.074
3731.67,949.5,0.076
3746.8,952,0.076
3761.96,954.5,0.078
3777.126,957,0.076
3792.29,959.5,0.076
3807.44,962,0.081
3822.61,964.5,0.077
3837.807,967,0.072
3853.01,969.5,0.071
3868.149,972,0.071
3883.3,974.5,0.068
3898.47,977,0.073
3913.61,979.5,0.071
3928.74,982,0.069
3943.91,984.5,0.073
3959.04,987,0.077
3974.268,989.5,0.078
3989.52,992,0.081
4004.74,994.5,0.082
4019.92,997,0.084
4035.13,999.5,0.084
4050.333,1002,0.081
4065.555,1004.5,0.084
4080.79,1007,0.086
4095.984,1009.5,0.086
4111.18,1012,0.084
4126.39,1014.5,0.089
4141.62,1017,0.091
4156.81,1019.5,0.093
4171.968,1022,0.091
4187.14,1024.5,0.094
4202.331,1027,0.097
4217.52,1029.5,0.097
4232.727,1032,0.097
4247.9,1034.5,0.099
4263.14,1037,0.104
4278.4,1039.5,0.107
4293.69,1042,0.115
4309.04,1044.5,0.117
4324.35,1047,0.116
4339.61,1049.5,0.12
4354.94,1052,0.121
4370.229,1054.5,0.124
4385.517,1057,0.122
4400.87,1059.5,0.132
4416.17,1062,0.135
4431.41,1064.5,0.134
4446.684,1067,0.135
4461.96,1069.5,0.134