File: Wood/Calibration_Data/FSRI/FSRI_CAPA_N2_40kW_R2.csv
Time [s],Mass [g],Back Surface Temperature [K],Top Surface Temperature [K]
0,12.7394,297.129,414.797
4,12.7261,297.077,550.636
8,12.6477,297.034,612.799
12,12.6084,297.007,
16,12.5302,297.016,
20,12.4552,297.269,
24,12.3981,297.664,
28,12.2773,298.414,
32,12.255,299.686,
36,12.1625,301.441,
40,12.0279,303.584,
44,11.925,306.121,
48,11.8531,308.871,
52,11.7403,311.907,
56,11.6805,315.068,
60,11.5682,318.434,
64,11.5106,321.652,
68,11.4092,324.909,
72,11.3854,328.316,
76,11.222,331.679,
80,11.1782,334.985,
84,11.1329,337.908,
88,11.0259,340.977,
92,10.9587,343.633,
96,10.8841,346.393,
100,10.8177,348.893,
104,10.7324,351.172,
108,10.6711,353.357,
112,10.5914,355.174,
116,10.5429,356.975,
120,10.4262,358.348,
124,10.3804,359.507,
128,10.3202,360.259,
132,10.2546,360.669,
136,10.166,360.936,
140,10.0683,361.137,
144,10.0529,361.289,
148,9.98646,361.478,
152,9.91116,361.833,
156,9.82861,362.321,
160,9.77746,362.892,
164,9.69454,363.692,
168,9.65619,364.558,
172,9.58444,365.64,
176,9.55976,366.931,
180,9.45167,368.362,
184,9.38369,370.052,
188,9.36447,371.922,
192,9.29729,374.013,
196,9.22892,376.483,
200,9.19282,378.961,
204,9.10894,381.657,
208,9.10065,384.514,
212,8.9689,387.456,
216,8.96887,390.317,
220,8.90725,393.332,
224,8.82469,396.231,
228,8.7966,399.254,
232,8.76523,402.169,
236,8.70926,404.928,
240,8.66097,407.715,
244,8.61649,410.37,
248,8.57203,413.002,
252,8.50181,415.519,
256,8.41513,418.066,
260,8.3729,420.366,
264,8.29726,422.585,
268,8.25478,424.621,
272,8.19982,426.699,
276,8.14104,428.693,
280,8.07769,430.592,
284,7.97407,432.322,
288,7.9784,434.0944,
292,7.90031,435.6553,
296,7.8361,437.341,
300,7.77291,438.838,
304,7.71552,440.145,
308,7.66426,441.742,
312,7.5741,443.134,
316,7.50358,444.163,
320,7.46483,445.139,
324,7.42273,446.658,
328,7.28152,447.4,
332,7.27849,448.899,
336,7.21097,449.478,
340,7.16637,450.266,
344,7.05831,451.323,
348,7.03309,452.157,
352,6.94335,453.2,
356,6.93272,453.437,
360,6.84217,454.29,
364,6.76907,455.335,
368,6.68631,456.273,
372,6.65098,456.899,
376,6.60196,456.48,
380,6.53737,456.614,
384,6.50484,458.062,
388,6.43851,456.884,
392,6.43403,458.054,
396,6.3665,459.206,
400,6.32843,458.496,
404,6.24316,459.531,
408,6.23307,459.45,
412,6.17447,459.764,
416,6.11103,461.244,
420,6.05851,461.203,
424,6.03513,461.679,
428,5.96148,461.41,
432,5.95231,461.803,
436,5.91624,461.972,
440,5.83331,462.216,
444,5.88279,462.235,
448,5.7775,462.638,
452,5.75298,462.61,
456,5.74808,462.405,
460,5.69305,463.404,
464,5.64016,463.068,
468,5.57848,463.199,
472,5.60991,462.599,
476,5.56144,464.273,
480,5.52716,464.023,
484,5.52791,464.567,
488,5.4511,464.507,
492,5.41421,464.74,
496,5.37553,465.583,
500,5.40985,466.338,
504,5.29004,466.018,
508,5.29099,466.781,
512,5.26598,467.05,
516,5.25009,467.785,
520,5.25997,468.205,
524,5.25765,468.028,
528,5.19607,468.546,
532,5.19228,468.844,
536,5.16371,469.12,
540,5.10705,469.281,
544,5.13143,469.563,
548,5.06036,469.389,
552,5.07975,470.381,
556,5.03667,470.426,
560,4.9951,470.748,
564,5.0149,470.687,
568,4.9762,471.578,
572,4.95892,471.726,
576,4.97907,472.251,
580,4.90539,472.02,
584,4.89765,472.326,
588,4.90066,472.653,
592,4.86003,472.587,
596,4.86227,473.35,
600,4.81568,473.509,
604,4.80123,473.714,
608,4.81468,474.037,
612,4.78419,474.347,
616,4.74111,474.522,
620,4.77499,474.105,
624,4.75226,474.935,
628,4.71545,474.886,
632,4.72142,475.0785,
636,4.73208,475.5054,
640,4.68865,475.2826,
644,4.67157,475.832,
648,4.67618,475.92,
652,4.65208,476.301,
656,4.64448,476.525,
660,4.66353,476.622,
664,4.64815,476.644,
668,4.57607,476.98,
672,4.59149,476.971,
676,4.5808,477.293,
680,4.56629,476.918,
684,4.54993,477.509,
688,4.4984,477.647,
692,4.51933,477.8,
696,4.50541,478.003,
700,4.5154,478.255,
704,4.49178,478.642,
708,4.46552,478.555,
712,4.46158,478.637,
716,4.46244,478.617,
720,4.44419,478.856,
724,4.47527,478.839,
728,4.48596,478.969,
732,4.42608,478.991,
736,4.40488,479.303,
740,4.42144,479.428,
744,4.40124,479.448,
748,4.40388,479.464,
752,4.36056,479.831,
756,4.39117,479.955,
760,4.36266,480.002,
764,4.35699,480.063,
768,4.35781,480.414,
772,4.38721,480.222,
776,4.33199,480.653,
780,4.34956,480.736,
784,4.34147,480.687,
788,4.30441,480.632,
792,4.3167,480.737,
796,4.29728,481.079,
800,4.28938,480.863,
804,4.2802,481.117,
808,4.27579,481.114,
812,4.28448,481.292,
816,4.25837,481.329,
820,4.25822,481.454,
824,4.24688,481.715,
828,4.25255,481.923,
832,4.24899,481.981,
836,4.20421,481.866,
840,4.24332,481.818,
844,4.22803,482.272,
848,4.20475,482.088,
852,4.21372,482.315,
856,4.22891,482.564,
860,4.19789,482.524,
864,4.194,482.771,
868,4.20371,482.65,
872,4.21178,482.792,
876,4.18299,482.667,
880,4.16357,482.871,
884,4.10774,483.159,
888,4.18275,483.305,
892,4.17753,483.177,
896,4.13468,483.264,
900,4.16665,483.373,
904,4.11668,483.369,
908,4.14354,483.593,
912,4.13815,483.531,
916,4.08364,483.264,
920,4.11071,483.371,
924,4.12793,483.531,
928,4.10746,483.868,
932,4.05903,483.8,
936,4.09326,483.944,
940,4.09363,483.89,
944,4.0706,484.1,
948,4.09534,484.185,894.677
952,4.05969,484.241,899.611
956,4.085,484.423,895.622
960,4.03956,484.23,895.937
964,4.04988,484.436,897.826
968,4.09416,484.672,895.622
972,4.06283,484.875,895.097
976,3.98527,484.736,893.312
980,4.06964,484.9005,897.511
984,4.06149,484.8589,908.01
988,4.03869,485.109,899.926