File: Wood/Calibration_Data/FSRI/FSRI_Wood_Parallel_Cone_50kW_hor_R1.csv
Time,Mass (g),HRRPUA (kW/m2)
0.0,96.91,1.3
6.0,95.52,3.1
12.0,94.76,7.3
18.0,93.96,5.8
24.0,93.32,67.7
30.0,92.7,170.8
36.0,92.0,202.9
42.0,91.35,202.6
48.0,90.7,191.9
54.0,90.03,179.8
60.0,89.46,168.0
66.0,88.89,167.4
72.0,88.47,158.3
78.0,87.97,147.8
84.0,87.5,141.2
90.0,87.01,132.6
96.0,86.49,129.1
102.0,86.0,123.7
108.0,85.59,125.0
114.0,85.19,121.5
120.0,84.76,121.0
126.0,84.35,118.5
132.0,83.87,117.6
138.0,83.43,115.2
144.0,83.02,114.1
150.0,82.69,112.8
156.0,82.26,108.9
162.0,81.86,109.3
168.0,81.42,106.8
174.0,81.03,105.7
180.0,80.64,101.9
186.0,80.37,101.9
192.0,79.98,98.5
198.0,79.6,99.6
204.0,79.25,99.2
210.0,78.78,99.2
216.0,78.41,97.0
222.0,78.08,99.8
228.0,77.79,97.4
234.0,77.43,97.3
240.0,77.06,97.3
246.0,76.64,97.0
252.0,76.24,98.5
258.0,75.9,95.6
264.0,75.61,95.2
270.0,75.29,94.6
276.0,74.91,95.4
282.0,74.58,95.0
288.0,74.23,94.1
294.0,73.83,93.2
300.0,73.46,90.9
306.0,73.18,89.6
312.0,72.87,92.4
318.0,72.53,90.0
324.0,72.19,89.4
330.0,71.78,89.8
336.0,71.43,88.7
342.0,71.1,88.8
348.0,70.84,88.4
354.0,70.52,87.4
360.0,70.17,86.8
366.0,69.81,85.1
372.0,69.42,85.1
378.0,69.15,82.2
384.0,68.89,86.4
390.0,68.54,86.4
396.0,68.25,86.0
402.0,67.9,86.4
408.0,67.46,84.3
414.0,67.15,85.7
420.0,66.91,84.7
426.0,66.62,84.8
432.0,66.29,86.1
438.0,65.96,85.1
444.0,65.63,84.9
450.0,65.21,85.0
456.0,64.9,84.4
462.0,64.65,83.1
468.0,64.36,82.7
474.0,64.06,84.1
480.0,63.73,84.4
486.0,63.42,82.8
492.0,63.03,82.9
498.0,62.67,83.1
504.0,62.35,84.8
510.0,62.12,83.4
516.0,61.79,84.8
522.0,61.49,85.5
528.0,61.12,85.9
534.0,60.73,87.0
540.0,60.41,84.4
546.0,60.14,84.2
552.0,59.87,85.3
558.0,59.55,83.0
564.0,59.24,82.0
570.0,58.81,81.5
576.0,58.49,79.7
582.0,58.18,80.2
588.0,57.94,81.8
594.0,57.62,82.8
600.0,57.31,84.1
606.0,56.95,84.3
612.0,56.57,83.8
618.0,56.26,82.4
624.0,55.95,82.6
630.0,55.71,82.3
636.0,55.4,83.6
642.0,55.09,83.8
648.0,54.79,84.7
654.0,54.44,84.2
660.0,54.06,83.4
666.0,53.73,85.3
672.0,53.45,83.9
678.0,53.16,83.1
684.0,52.85,84.7
690.0,52.53,85.6
696.0,52.13,87.6
702.0,51.81,87.8
708.0,51.5,86.2
714.0,51.25,86.0
720.0,50.95,87.3
726.0,50.63,86.5
732.0,50.29,86.8
738.0,49.93,88.0
744.0,49.55,88.1
750.0,49.29,88.0
756.0,49.02,86.9
762.0,48.73,87.4
768.0,48.42,87.9
774.0,48.12,89.0
780.0,47.7,85.7
786.0,47.38,86.1
792.0,47.07,85.9
798.0,46.81,86.5
804.0,46.52,88.5
810.0,46.19,86.6
816.0,45.83,88.9
822.0,45.45,88.2
828.0,45.14,89.6
834.0,44.9,88.6
840.0,44.6,89.6
846.0,44.27,90.2
852.0,43.95,89.9
858.0,43.54,88.8
864.0,43.22,89.8
870.0,42.94,89.9
876.0,42.68,90.7
882.0,42.37,91.3
888.0,42.03,90.2
894.0,41.73,91.6
900.0,41.3,93.2
906.0,40.97,95.8
912.0,40.75,93.6
918.0,40.4,94.0
924.0,40.08,94.5
930.0,39.75,93.6
936.0,39.39,92.6
942.0,39.0,91.8
948.0,38.67,94.2
954.0,38.42,95.8
960.0,38.12,96.7
966.0,37.73,94.6
972.0,37.43,96.5
978.0,37.07,99.4
984.0,36.64,98.4
990.0,36.3,98.4
996.0,36.03,97.0
1002.0,35.72,98.9
1008.0,35.36,98.7
1014.0,35.04,100.2
1020.0,34.58,102.7
1026.0,34.26,101.3
1032.0,33.89,102.8
1038.0,33.55,101.3
1044.0,33.23,101.2
1050.0,32.9,104.3
1056.0,32.55,107.2
1062.0,32.08,106.8
1068.0,31.74,107.2
1074.0,31.38,108.1
1080.0,31.09,107.4
1086.0,30.75,108.1
1092.0,30.38,107.5
1098.0,29.96,106.5
1104.0,29.53,106.9
1110.0,29.17,109.0
1116.0,28.86,108.5
1122.0,28.49,111.6
1128.0,28.08,111.9
1134.0,27.68,109.6
1140.0,27.27,111.5
1146.0,26.88,114.8
1152.0,26.48,112.7
1158.0,26.21,116.1
1164.0,25.83,113.7
1170.0,25.44,110.9
1176.0,25.01,113.2
1182.0,24.55,112.6
1188.0,24.21,113.6
1194.0,23.85,112.7
1200.0,23.5,114.1
1206.0,23.11,112.1
1212.0,22.74,117.4
1218.0,22.31,113.5
1224.0,21.93,114.2
1230.0,21.56,113.3
1236.0,21.24,111.0
1242.0,20.87,110.1
1248.0,20.5,110.5
1254.0,20.12,111.6
1260.0,19.7,111.5
1266.0,19.35,110.2
1272.0,19.06,108.8
1278.0,18.72,109.2
1284.0,18.42,107.9
1290.0,18.04,108.0
1296.0,17.67,108.7
1302.0,17.33,103.1
1308.0,17.09,102.0
1314.0,16.85,101.9
1320.0,16.53,99.4
1326.0,16.26,98.7
1332.0,15.91,94.5
1338.0,15.64,93.2
1344.0,15.39,91.0
1350.0,15.27,87.0
1356.0,15.06,85.0
1362.0,14.82,81.9
1368.0,14.65,79.4
1374.0,14.33,75.8
1380.0,14.17,72.7
1386.0,14.0,68.5
1392.0,13.9,66.5
1398.0,13.81,62.6
1404.0,13.69,59.9
1410.0,13.6,56.2
1416.0,13.4,54.3
1422.0,13.26,51.4
1428.0,13.23,49.1
1434.0,13.19,47.9
1440.0,13.13,45.7
1446.0,13.03,43.9
1452.0,12.84,40.5
1458.0,12.74,40.2
1464.0,12.66,37.6
1470.0,12.73,37.5
1476.0,12.62,38.2
1482.0,12.55,37.7
1488.0,12.41,37.7
1494.0,12.34,37.5
1500.0,12.34,35.9
1506.0,12.31,35.6
1512.0,12.24,36.6
1518.0,12.17,35.9
1524.0,12.03,37.5
1530.0,11.94,37.3
1536.0,11.89,38.6
1542.0,11.91,39.2
1548.0,11.83,37.5
1554.0,11.76,38.7
1560.0,11.64,37.6
1566.0,11.56,37.3
1572.0,11.49,36.7
1578.0,11.53,36.2
1580.0,11.51,35.8