File: Wood/Calibration_Data/FSRI/FSRI_DSC_N2_10K_R2.csv
Time (s),Temperature (K),Heat Flow Rate (W/g)
0,324.5,0.0187371
45.813,327,0.0913459
71.6124,329.5,0.128143
93.3462,332,0.152376
113.2542,334.5,0.168516
132.0486,337,0.180045
150.1668,339.5,0.193088
167.7558,342,0.20215
184.9092,344.5,0.211434
201.7398,347,0.221228
218.2368,349.5,0.230724
234.5274,352,0.239915
250.506,354.5,0.244792
266.2782,357,0.249125
281.871,359.5,0.252441
297.2334,362,0.253574
312.4272,364.5,0.254875
327.5082,367,0.254867
342.4818,369.5,0.254401
357.2982,372,0.250386
372.0474,374.5,0.249842
386.7528,377,0.247175
401.3808,379.5,0.245491
415.9392,382,0.241496
430.5348,384.5,0.243494
445.0842,387,0.24216
459.5844,389.5,0.242419
474.0672,392,0.24082
488.5434,394.5,0.244674
502.9806,397,0.24508
517.329,399.5,0.24515
531.7278,402,0.248702
546.0588,404.5,0.251637
560.3622,407,0.253855
574.6284,409.5,0.255218
588.8784,412,0.257479
603.1836,414.5,0.259426
617.3916,417,0.264774
631.5606,419.5,0.262977
645.7626,422,0.268088
660.0024,424.5,0.270556
674.1282,427,0.271937
688.3398,429.5,0.274075
702.4746,432,0.278118
716.6436,434.5,0.279697
730.7994,437,0.282135
744.9348,439.5,0.284935
759.1158,442,0.287223
773.2734,444.5,0.29008
787.4556,447,0.293028
801.591,449.5,0.297326
815.7576,452,0.301479
829.9488,454.5,0.302875
844.1004,457,0.304466
858.2862,459.5,0.307564
872.4198,462,0.310514
886.5144,464.5,0.312877
900.6858,467,0.319033
914.8458,469.5,0.319586
929.0088,472,0.323138
943.1448,474.5,0.326301
957.354,477,0.328476
971.5068,479.5,0.329942
985.6956,482,0.332702
999.8898,484.5,0.338519
1014.066,487,0.339624
1028.3,489.5,0.343584
1042.482,492,0.347198
1056.7,494.5,0.346977
1070.95,497,0.349607
1085.16,499.5,0.348659
1099.35,502,0.351827
1113.6,504.5,0.352268
1127.78,507,0.352687
1142,509.5,0.350591
1156.2,512,0.352406
1170.42,514.5,0.353867
1184.67,517,0.355123
1198.87,519.5,0.355637
1213.14,522,0.355897
1227.36,524.5,0.356481
1241.61,527,0.358712
1255.84,529.5,0.359895
1270.09,532,0.359942
1284.336,534.5,0.360456
1298.58,537,0.362802
1312.85,539.5,0.361168
1327.1,542,0.361356
1341.34,544.5,0.358464
1355.63,547,0.358827
1369.88,549.5,0.356762
1384.21,552,0.356296
1398.49,554.5,0.357193
1412.781,557,0.359687
1427.049,559.5,0.359962
1441.34,562,0.361105
1455.64,564.5,0.36202
1469.937,567,0.365048
1484.24,569.5,0.3689599
1498.57,572,0.373
1512.84,574.5,0.37907
1527.2,577,0.38499
1541.544,579.5,0.388045
1555.89,582,0.3969599
1570.26,584.5,0.4060401
1584.66,587,0.414654
1599.08,589.5,0.421982
1613.45,592,0.430489
1627.82,594.5,0.440311
1642.27,597,0.449719
1656.65,599.5,0.456421
1671.07,602,0.462078
1685.46,604.5,0.470398
1699.87,607,0.477812
1714.23,609.5,0.485238
1728.74,612,0.496293
1743.16,614.5,0.504025
1757.613,617,0.515967
1772.13,619.5,0.530043
1786.59,622,0.549163
1801.12,624.5,0.569459
1815.636,627,0.592612
1830.17,629.5,0.616178
1844.73,632,0.644469
1859.29,634.5,0.673055
1873.89,637,0.697258
1888.38,639.5,0.713832
1902.94,642,0.720228
1917.47,644.5,0.710105
1931.916,647,0.678852
1946.31,649.5,0.622514
1960.62,652,0.53612
1974.88,654.5,0.426421
1989.11,657,0.305168
2003.38,659.5,0.192118
2017.72,662,0.0961153
2032.12,664.5,0.0346391
2046.62,667,0.004217258
2061.16,669.5,-0.0140896
2075.721,672,-2.25E-02
2090.316,674.5,-3.09E-02
2104.94,677,-3.61E-02
2119.55,679.5,-4.39E-02
2134.194,682,-5.31E-02
2148.81,684.5,-5.81E-02
2163.42,687,-0.0659724
2178.03,689.5,-0.0737093
2192.67,692,-0.0807769
2207.31,694.5,-0.0892381
2221.97,697,-0.090386
2236.65,699.5,-0.0985689
2251.344,702,-0.101063
2266.06,704.5,-0.104381
2280.8,707,-0.105195
2295.53,709.5,-0.107784
2310.237,712,-0.105657
2324.928,714.5,-0.102619
2339.64,717,-0.0969699
2354.37,719.5,-0.0926892
2369.12,722,-0.088401
2383.91,724.5,-0.0827544
2398.66,727,-0.0772381
2413.4,729.5,-7.17E-02
2428.19,732,-6.38E-02
2442.951,734.5,-5.93E-02
2457.77,737,-5.15E-02
2472.531,739.5,-5.09E-02
2487.35,742,-4.83E-02
2502.189,744.5,-4.12E-02
2517.02,747,-3.75E-02
2531.84,749.5,-3.26E-02
2546.69,752,-3.06E-02
2561.49,754.5,-2.83E-02
2576.35,757,-0.0283083
2591.19,759.5,-2.66E-02
2606.025,762,-2.60E-02
2620.83,764.5,-0.0249013
2635.65,767,-0.02797995
2650.5,769.5,-2.77E-02
2665.317,772,-0.02752381
2680.2,774.5,-0.02383517
2695.08,777,-0.0230141
2709.92,779.5,-2.20E-02
2724.765,782,-0.02221608
2739.62,784.5,-0.0223983
2754.474,787,-2.27E-02
2769.321,789.5,-2.04E-02
2784.21,792,-2.24E-02
2799.13,794.5,-2.11E-02
2814.02,797,-2.16E-02
2828.94,799.5,-1.57E-02
2843.85,802,-2.09E-02
2858.78,804.5,-2.10E-02
2873.7,807,-1.95E-02
2888.55,809.5,-1.13E-02
2903.517,812,-9.62E-03
2918.478,814.5,-1.06E-02
2933.4,817,-1.39E-02
2948.38,819.5,-1.59E-02
2963.34,822,-1.66E-02
2978.32,824.5,-2.29E-02
2993.3,827,-2.21E-02
3008.27,829.5,-2.83E-02
3023.21,832,-2.50E-02
3038.15,834.5,-2.59E-02
3053.09,837,-2.63E-02
3067.995,839.5,-2.62E-02
3082.92,842,-2.49E-02
3097.84,844.5,-2.78E-02
3112.75,847,-3.47E-02
3127.66,849.5,-3.79E-02
3142.6,852,-4.03E-02
3157.66,854.5,-3.66E-02
3172.66,857,-3.96E-02
3187.65,859.5,-3.96E-02
3202.67,862,-4.21E-02
3217.68,864.5,-4.46E-02
3232.68,867,-0.0517193
3247.64,869.5,-0.0529574
3262.66,872,-0.0518872
3277.7,874.5,-0.0544987
3292.69,877,-0.0569424
3307.731,879.5,-0.0620927
3322.72,882,-0.06887218
3337.79,884.5,-0.0701955
3352.84,887,-0.0722732
3367.9,889.5,-0.0740852
3382.97,892,-0.0788396
3398.06,894.5,-0.0838797
3413.16,897,-0.0852882
3428.25,899.5,-0.0814837
3443.31,902,-0.0836466
3458.4,904.5,-0.0831378
3473.49,907,-0.0827794
3488.52,909.5,-0.0858622
3503.59,912,-0.0910276
3518.65,914.5,-0.0937494
3533.72,917,-0.0961754
3548.83,919.5,-0.100216
3563.87,922,-0.0953584
3578.9,924.5,-0.101657
3593.89,927,-0.100872
3609.01,929.5,-0.102697
3624.09,932,-0.101584
3639.15,934.5,-0.101571
3654.21,937,-0.106386
3669.264,939.5,-0.105268
3684.33,942,-0.107644
3699.43,944.5,-0.110664
3714.57,947,-0.110637
3729.67,949.5,-0.1090401
3744.8,952,-0.106173
3759.906,954.5,-0.109113
3775.02,957,-0.110078
3790.16,959.5,-0.108331
3805.3,962,-0.115902
3820.42,964.5,-0.119193
3835.563,967,-0.122361
3850.662,969.5,-0.124
3865.8,972,-0.12113
3880.91,974.5,-0.119138
3896.037,977,-0.117441
3911.18,979.5,-0.117792
3926.346,982,-0.111902
3941.55,984.5,-0.109977
3956.742,987,-0.114449
3971.97,989.5,-0.112243
3987.2,992,-0.106303
4002.38,994.5,-0.104672
4017.52,997,-0.106784
4032.72,999.5,-0.0973033
4047.9,1002,-0.0936341
4063.158,1004.5,-0.09326817
4078.44,1007,-0.0875038
4093.65,1009.5,-0.0866391
4108.84,1012,-0.0794937
4124.08,1014.5,-0.0770175
4139.28,1017,-0.0769148
4154.47,1019.5,-0.0812757
4169.73,1022,-0.0834286
4184.91,1024.5,-0.0806942
4200.07,1027,-0.073203
4215.28,1029.5,-0.0696491
4230.49,1032,-0.0615088
4245.69,1034.5,-5.50E-02
4260.95,1037,-4.53E-02
4276.18,1039.5,-3.87E-02
4291.49,1042,-3.32E-02
4306.84,1044.5,-2.58E-02
4322.15,1047,-1.24E-02
4337.42,1049.5,-3.71E-03
4352.68,1052,1.14E-02
4367.93,1054.5,1.31E-02
4383.18,1057,0.0222369
4398.42,1059.5,3.07E-02
4413.684,1062,0.0312807
4428.99,1064.5,0.0361729
4444.29,1067,0.03879198
4456.52,1069,0.0479649