File: Wood/Calibration_Data/FSRI/FSRI_Wood_LFA_N2_Perpendicular_R1.csv
Temperature (K),Mean Diffusivity (mm^2/s)
298.0,0.507
323.0,0.556
348.0,0.491
373.0,0.448
423.0,0.4
473.0,0.361
523.0,0.344
573.0,0.338