File: Wood/Calibration_Data/FSRI/FSRI_Wood_Perpendicular_Cone_50kW_hor_R3.csv
Time,Mass (g),HRRPUA (kW/m2)
0.0,97.05,3.8
5.0,96.68,4.6
10.0,96.57,8.8
15.0,96.41,12.7
20.0,96.25,14.6
25.0,95.75,7.9
30.0,95.08,13.7
35.0,94.43,84.1
40.0,93.75,164.9
45.0,93.05,205.1
50.0,92.42,221.4
55.0,91.86,223.9
60.0,91.33,209.0
65.0,90.79,201.0
70.0,90.29,185.6
75.0,89.78,182.7
80.0,89.3,177.2
85.0,88.77,169.8
90.0,88.31,161.0
95.0,87.88,152.4
100.0,87.4,146.3
105.0,87.05,144.3
110.0,86.64,135.7
115.0,86.26,133.2
120.0,85.87,127.8
125.0,85.45,125.0
130.0,85.07,123.6
135.0,84.63,119.7
140.0,84.3,117.4
145.0,83.91,115.4
150.0,83.57,115.3
155.0,83.21,112.6
160.0,82.9,111.5
165.0,82.55,106.9
170.0,82.21,105.2
175.0,81.76,102.5
180.0,81.45,100.0
185.0,81.11,99.6
190.0,80.82,97.4
195.0,80.48,100.4
200.0,80.13,103.2
205.0,79.78,98.6
210.0,79.41,91.5
215.0,79.05,88.5
220.0,78.69,88.8
225.0,78.39,87.3
230.0,78.12,90.2
235.0,77.77,88.1
240.0,77.47,87.7
245.0,77.13,83.2
250.0,76.86,83.6
255.0,76.43,79.3
260.0,76.1,77.9
265.0,75.78,77.0
270.0,75.55,75.0
275.0,75.26,73.2
280.0,74.95,72.8
285.0,74.61,72.4
290.0,74.24,71.7
295.0,73.93,70.0
300.0,73.64,70.5
305.0,73.32,69.3
310.0,73.09,67.4
315.0,72.82,68.9
320.0,72.5,69.2
325.0,72.26,66.8
330.0,71.86,67.1
335.0,71.54,65.6
340.0,71.25,64.8
345.0,71.02,63.2
350.0,70.78,63.2
355.0,70.51,64.2
360.0,70.2,64.1
365.0,69.94,61.5
370.0,69.64,63.1
375.0,69.25,63.0
380.0,68.96,61.7
385.0,68.71,61.8
390.0,68.53,62.4
395.0,68.21,60.8
400.0,67.97,59.8
405.0,67.73,61.0
410.0,67.44,60.4
415.0,67.1,59.4
420.0,66.83,58.9
425.0,66.55,58.3
430.0,66.27,60.7
435.0,66.11,59.8
440.0,65.87,58.2
445.0,65.61,59.4
450.0,65.33,59.8
455.0,65.03,58.9
460.0,64.74,59.0
465.0,64.47,59.3
470.0,64.19,58.5
475.0,64.01,57.8
480.0,63.77,57.5
485.0,63.49,56.5
490.0,63.26,57.1
495.0,62.99,56.5
500.0,62.67,56.6
505.0,62.38,55.7
510.0,62.13,55.2
515.0,61.89,54.3
520.0,61.69,56.2
525.0,61.48,57.8
530.0,61.21,56.8
535.0,60.96,57.6
540.0,60.68,57.6
545.0,60.37,60.1
550.0,60.1,58.9
555.0,59.87,59.5
560.0,59.69,60.9
565.0,59.47,60.9
570.0,59.22,59.1
575.0,58.98,60.4
580.0,58.72,59.6
585.0,58.39,58.8
590.0,58.14,60.6
595.0,57.89,59.5
600.0,57.64,58.8
605.0,57.44,58.7
610.0,57.22,59.1
615.0,57.01,59.5
620.0,56.72,61.2
625.0,56.47,61.1
630.0,56.16,62.5
635.0,55.93,61.9
640.0,55.76,64.0
645.0,55.55,63.2
650.0,55.24,63.4
655.0,55.0,66.1
660.0,54.77,66.3
665.0,54.48,66.4
670.0,54.18,68.8
675.0,53.91,70.6
680.0,53.68,69.2
685.0,53.5,69.4
690.0,53.23,71.1
695.0,52.91,71.4
700.0,52.65,72.1
705.0,52.37,71.7
710.0,52.06,71.9
715.0,51.79,73.5
720.0,51.55,74.6
725.0,51.31,75.5
730.0,51.03,78.2
735.0,50.74,78.8
740.0,50.46,80.2
745.0,50.15,80.8
750.0,49.86,83.0
755.0,49.53,84.0
760.0,49.27,86.0
765.0,49.0,89.0
770.0,48.67,89.4
775.0,48.38,88.9
780.0,48.01,89.8
785.0,47.7,92.6
790.0,47.33,91.2
795.0,46.99,94.1
800.0,46.68,95.8
805.0,46.36,96.6
810.0,46.04,98.0
815.0,45.68,99.1
820.0,45.29,103.7
825.0,44.95,106.2
830.0,44.54,109.7
835.0,44.17,109.4
840.0,43.77,110.0
845.0,43.46,113.6
850.0,43.05,116.6
855.0,42.66,118.8
860.0,42.28,118.4
865.0,41.86,119.5
870.0,41.44,118.5
875.0,40.98,125.3
880.0,40.57,125.7
885.0,40.14,127.9
890.0,39.78,132.8
895.0,39.33,132.0
900.0,38.87,137.4
905.0,38.43,136.6
910.0,37.97,139.5
915.0,37.52,139.4
920.0,37.05,141.5
925.0,36.64,141.0
930.0,36.15,142.5
935.0,35.69,144.7
940.0,35.22,148.0
945.0,34.78,149.3
950.0,34.27,147.4
955.0,33.77,150.3
960.0,33.34,150.4
965.0,32.92,153.7
970.0,32.45,152.0
975.0,32.01,149.5
980.0,31.51,151.7
985.0,31.04,152.2
990.0,30.64,150.2
995.0,30.07,153.1
1000.0,29.64,151.1
1005.0,29.14,152.1
1010.0,28.82,152.2
1015.0,28.35,150.8
1020.0,27.94,150.3
1025.0,27.5,148.7
1030.0,27.06,149.5
1035.0,26.62,145.8
1040.0,26.23,149.2
1045.0,25.85,143.0
1050.0,25.44,141.6
1055.0,25.15,139.0
1060.0,24.81,134.6
1065.0,24.48,131.2
1070.0,24.15,130.8
1075.0,23.87,125.4
1080.0,23.49,126.3
1085.0,23.25,121.7
1090.0,22.92,118.6
1095.0,22.73,112.7
1100.0,22.49,107.0
1105.0,22.22,99.7
1110.0,22.04,99.6
1115.0,21.83,96.6
1120.0,21.6,91.3
1125.0,21.42,84.3
1130.0,21.37,81.3
1135.0,21.21,76.2
1140.0,21.11,72.4
1145.0,20.98,69.7
1150.0,20.82,64.8
1155.0,20.66,62.2
1160.0,20.6,59.6
1165.0,20.59,55.9
1170.0,20.51,53.4
1175.0,20.45,50.4
1180.0,20.34,48.4
1185.0,20.31,44.6
1190.0,20.14,45.3
1195.0,20.05,44.4
1200.0,20.01,42.7
1205.0,20.01,43.8
1210.0,20.0,43.3
1215.0,19.93,41.9
1220.0,19.86,41.8
1225.0,19.8,40.1
1230.0,19.65,40.7
1235.0,19.58,41.3
1240.0,19.52,41.2
1245.0,19.49,40.0
1250.0,19.53,39.4
1255.0,19.44,38.6
1260.0,19.4,37.7
1265.0,19.34,37.5
1270.0,19.22,37.4
1275.0,19.15,38.4
1280.0,19.12,37.0
1285.0,19.09,36.4
1290.0,19.09,35.5
1295.0,19.01,34.7
1300.0,19.0,34.1
1305.0,18.95,34.9
1310.0,18.79,34.5
1315.0,18.7,35.4
1320.0,18.69,34.8
1325.0,18.72,34.9
1330.0,18.71,34.6
1332.0,18.68,35.1