File: Wood/Calibration_Data/FSRI/FSRI_TGA_N2_10K_R2.csv
Time (s),Temperature (K),Mass (mg)
0,324.5,3.95
45.813,327,3.947
71.6124,329.5,3.948
93.3462,332,3.948
113.2542,334.5,3.946
132.0486,337,3.943
150.1668,339.5,3.944
167.7558,342,3.943
184.9092,344.5,3.943
201.7398,347,3.942
218.2368,349.5,3.942
234.5274,352,3.942
250.506,354.5,3.94
266.2782,357,3.938
281.871,359.5,3.936
297.2334,362,3.936
312.4272,364.5,3.936
327.5082,367,3.936
342.4818,369.5,3.936
357.2982,372,3.934
372.0474,374.5,3.934
386.7528,377,3.931
401.3808,379.5,3.93
415.9392,382,3.932
430.5348,384.5,3.931
445.0842,387,3.931
459.5844,389.5,3.932
474.0672,392,3.928
488.5434,394.5,3.929
502.9806,397,3.928
517.329,399.5,3.929
531.7278,402,3.926
546.0588,404.5,3.927
560.3622,407,3.927
574.6284,409.5,3.928
588.8784,412,3.926
603.1836,414.5,3.924
617.3916,417,3.926
631.5606,419.5,3.926
645.7626,422,3.926
660.0024,424.5,3.925
674.1282,427,3.925
688.3398,429.5,3.925
702.4746,432,3.924
716.6436,434.5,3.923
730.7994,437,3.924
744.9348,439.5,3.923
759.1158,442,3.918
773.2734,444.5,3.919
787.4556,447,3.92
801.591,449.5,3.919
815.7576,452,3.918
829.9488,454.5,3.917
844.1004,457,3.913
858.2862,459.5,3.912
872.4198,462,3.91
886.5144,464.5,3.907
900.6858,467,3.906
914.8458,469.5,3.903
929.0088,472,3.902
943.1448,474.5,3.901
957.354,477,3.896
971.5068,479.5,3.892
985.6956,482,3.888
999.8898,484.5,3.881
1014.066,487,3.878
1028.3,489.5,3.872
1042.482,492,3.869
1056.7,494.5,3.863
1070.95,497,3.855
1085.16,499.5,3.85
1099.35,502,3.845
1113.6,504.5,3.839
1127.78,507,3.834
1142,509.5,3.829
1156.2,512,3.82
1170.42,514.5,3.814
1184.67,517,3.808
1198.87,519.5,3.801
1213.14,522,3.793
1227.36,524.5,3.783
1241.61,527,3.772
1255.84,529.5,3.766
1270.09,532,3.755
1284.336,534.5,3.742
1298.58,537,3.729
1312.85,539.5,3.716
1327.1,542,3.704
1341.34,544.5,3.69
1355.63,547,3.673
1369.88,549.5,3.658
1384.21,552,3.641
1398.49,554.5,3.622
1412.781,557,3.601
1427.049,559.5,3.581
1441.34,562,3.559
1455.64,564.5,3.535
1469.937,567,3.508
1484.24,569.5,3.479
1498.57,572,3.45
1512.84,574.5,3.42
1527.2,577,3.387
1541.544,579.5,3.352
1555.89,582,3.313
1570.26,584.5,3.274
1584.66,587,3.23
1599.08,589.5,3.188
1613.45,592,3.14
1627.82,594.5,3.088
1642.27,597,3.033
1656.65,599.5,2.983
1671.07,602,2.928
1685.46,604.5,2.867
1699.87,607,2.809
1714.23,609.5,2.748
1728.74,612,2.682
1743.16,614.5,2.62
1757.613,617,2.553
1772.13,619.5,2.487
1786.59,622,2.415
1801.12,624.5,2.344
1815.636,627,2.265
1830.17,629.5,2.186
1844.73,632,2.103
1859.29,634.5,2.018
1873.89,637,1.924
1888.38,639.5,1.828
1902.94,642,1.734
1917.47,644.5,1.638
1931.916,647,1.542
1946.31,649.5,1.451
1960.62,652,1.367
1974.88,654.5,1.297
1989.11,657,1.239
2003.38,659.5,1.196
2017.72,662,1.167
2032.12,664.5,1.149
2046.62,667,1.135
2061.16,669.5,1.124
2075.721,672,1.12
2090.316,674.5,1.111
2104.94,677,1.101
2119.55,679.5,1.092
2134.194,682,1.085
2148.81,684.5,1.079
2163.42,687,1.071
2178.03,689.5,1.063
2192.67,692,1.058
2207.31,694.5,1.05
2221.97,697,1.045
2236.65,699.5,1.035
2251.344,702,1.029
2266.06,704.5,1.023
2280.8,707,1.017
2295.53,709.5,1.01
2310.237,712,1.001
2324.928,714.5,0.996
2339.64,717,0.99
2354.37,719.5,0.983
2369.12,722,0.98
2383.91,724.5,0.973
2398.66,727,0.97
2413.4,729.5,0.965
2428.19,732,0.957
2442.951,734.5,0.954
2457.77,737,0.948
2472.531,739.5,0.946
2487.35,742,0.943
2502.189,744.5,0.94
2517.02,747,0.935
2531.84,749.5,0.93
2546.69,752,0.927
2561.49,754.5,0.923
2576.35,757,0.921
2591.19,759.5,0.917
2606.025,762,0.915
2620.83,764.5,0.909
2635.65,767,0.907
2650.5,769.5,0.905
2665.317,772,0.901
2680.2,774.5,0.899
2695.08,777,0.897
2709.92,779.5,0.893
2724.765,782,0.891
2739.62,784.5,0.889
2754.474,787,0.886
2769.321,789.5,0.884
2784.21,792,0.88
2799.13,794.5,0.876
2814.02,797,0.872
2828.94,799.5,0.872
2843.85,802,0.868
2858.78,804.5,0.87
2873.7,807,0.866
2888.55,809.5,0.864
2903.517,812,0.863
2918.478,814.5,0.858
2933.4,817,0.856
2948.38,819.5,0.857
2963.34,822,0.854
2978.32,824.5,0.852
2993.3,827,0.849
3008.27,829.5,0.848
3023.21,832,0.846
3038.15,834.5,0.842
3053.09,837,0.843
3067.995,839.5,0.84
3082.92,842,0.839
3097.84,844.5,0.841
3112.75,847,0.837
3127.66,849.5,0.833
3142.6,852,0.834
3157.66,854.5,0.83
3172.66,857,0.826
3187.65,859.5,0.825
3202.67,862,0.824
3217.68,864.5,0.822
3232.68,867,0.82
3247.64,869.5,0.818
3262.66,872,0.818
3277.7,874.5,0.816
3292.69,877,0.814
3307.731,879.5,0.813
3322.72,882,0.81
3337.79,884.5,0.81
3352.84,887,0.81
3367.9,889.5,0.806
3382.97,892,0.807
3398.06,894.5,0.805
3413.16,897,0.802
3428.25,899.5,0.801
3443.31,902,0.801
3458.4,904.5,0.798
3473.49,907,0.797
3488.52,909.5,0.795
3503.59,912,0.794
3518.65,914.5,0.795
3533.72,917,0.794
3548.83,919.5,0.791
3563.87,922,0.79
3578.9,924.5,0.787
3593.89,927,0.788
3609.01,929.5,0.788
3624.09,932,0.787
3639.15,934.5,0.787
3654.21,937,0.786
3669.264,939.5,0.782
3684.33,942,0.782
3699.43,944.5,0.781
3714.57,947,0.78
3729.67,949.5,0.779
3744.8,952,0.777
3759.906,954.5,0.777
3775.02,957,0.777
3790.16,959.5,0.776
3805.3,962,0.777
3820.42,964.5,0.775
3835.563,967,0.775
3850.662,969.5,0.776
3865.8,972,0.771
3880.91,974.5,0.769
3896.037,977,0.772
3911.18,979.5,0.772
3926.346,982,0.769
3941.55,984.5,0.771
3956.742,987,0.769
3971.97,989.5,0.769
3987.2,992,0.768
4002.38,994.5,0.767
4017.52,997,0.764
4032.72,999.5,0.766
4047.9,1002,0.764
4063.158,1004.5,0.765
4078.44,1007,0.762
4093.65,1009.5,0.761
4108.84,1012,0.764
4124.08,1014.5,0.763
4139.28,1017,0.759
4154.47,1019.5,0.756
4169.73,1022,0.757
4184.91,1024.5,0.758
4200.07,1027,0.761
4215.28,1029.5,0.758
4230.49,1032,0.759
4245.69,1034.5,0.76
4260.95,1037,0.756
4276.18,1039.5,0.756
4291.49,1042,0.754
4306.84,1044.5,0.754
4322.15,1047,0.753
4337.42,1049.5,0.752
4352.68,1052,0.752
4367.93,1054.5,0.754
4383.18,1057,0.752
4398.42,1059.5,0.75
4413.684,1062,0.75
4428.99,1064.5,0.752
4444.29,1067,0.75
4459.57,1069.5,0.751