File: Wood/Calibration_Data/FSRI/FSRI_Wood_Parallel_Cone_25kW_hor_R2.csv
Time,Mass (g),HRRPUA (kW/m2)
0.0,89.95,1.0
8.0,89.64,4.3
16.0,89.58,9.2
24.0,89.55,15.0
32.0,89.47,7.2
40.0,89.37,10.5
48.0,89.2,8.1
56.0,89.18,4.9
64.0,89.1,4.0
72.0,88.99,4.7
80.0,88.89,9.0
88.0,88.73,6.8
96.0,88.27,4.1
104.0,87.32,20.8
112.0,86.49,166.6
120.0,85.73,179.7
128.0,85.23,152.1
136.0,84.73,131.8
144.0,84.21,113.2
152.0,83.71,102.7
160.0,83.33,92.1
168.0,82.93,89.7
176.0,82.58,81.5
184.0,82.2,72.2
192.0,81.81,65.3
200.0,81.57,63.9
208.0,81.27,61.5
216.0,80.95,60.1
224.0,80.64,58.2
232.0,80.29,56.6
240.0,80.04,54.8
248.0,79.74,55.6
256.0,79.43,56.3
264.0,79.03,57.5
272.0,78.79,57.1
280.0,78.48,58.4
288.0,78.19,60.4
296.0,77.86,60.3
304.0,77.48,59.7
312.0,77.11,60.5
320.0,76.88,57.6
328.0,76.55,59.2
336.0,76.23,59.9
344.0,75.93,56.6
352.0,75.51,56.7
360.0,75.31,55.4
368.0,74.99,54.5
376.0,74.68,52.7
384.0,74.3,53.0
392.0,73.99,54.2
400.0,73.78,54.4
408.0,73.49,53.7
416.0,73.19,52.9
424.0,72.89,51.2
432.0,72.6,50.4
440.0,72.22,50.6
448.0,72.01,50.3
456.0,71.73,49.9
464.0,71.43,50.7
472.0,71.04,48.8
480.0,70.84,49.3
488.0,70.55,51.4
496.0,70.26,52.7
504.0,69.95,52.6
512.0,69.59,50.1
520.0,69.38,50.7
528.0,69.1,50.5
536.0,68.81,51.0
544.0,68.5,50.9
552.0,68.16,49.4
560.0,67.95,48.5
568.0,67.65,51.6
576.0,67.36,52.3
584.0,67.01,52.8
592.0,66.82,52.5
600.0,66.5,50.2
608.0,66.2,50.1
616.0,65.87,49.1
624.0,65.63,50.1
632.0,65.37,51.2
640.0,65.09,51.7
648.0,64.8,51.9
656.0,64.44,50.1
664.0,64.24,50.9
672.0,63.96,50.7
680.0,63.72,49.1
688.0,63.41,49.5
696.0,63.05,48.1
704.0,62.84,48.9
712.0,62.56,47.4
720.0,62.3,48.1
728.0,61.94,48.1
736.0,61.72,47.8
744.0,61.46,46.5
752.0,61.18,48.0
760.0,60.86,46.6
768.0,60.59,47.6
776.0,60.41,46.7
784.0,60.13,44.9
792.0,59.85,45.7
800.0,59.51,46.4
808.0,59.3,48.0
816.0,59.04,46.9
824.0,58.78,47.8
832.0,58.5,46.8
840.0,58.15,48.1
848.0,57.95,49.2
856.0,57.68,49.6
864.0,57.42,50.6
872.0,57.07,49.5
880.0,56.88,49.8
888.0,56.6,48.9
896.0,56.33,53.5
904.0,55.97,54.4
912.0,55.74,54.4
920.0,55.47,57.4
928.0,55.23,57.8
936.0,54.84,57.9
944.0,54.57,56.9
952.0,54.34,57.7
960.0,54.03,59.1
968.0,53.77,57.4
976.0,53.39,57.7
984.0,53.13,57.3
992.0,52.88,56.6
1000.0,52.62,57.2
1008.0,52.35,58.1
1016.0,51.98,58.4
1024.0,51.75,59.1
1032.0,51.47,57.6
1040.0,51.2,58.3
1048.0,50.89,57.8
1056.0,50.57,59.5
1064.0,50.37,58.7
1072.0,50.08,59.0
1080.0,49.79,61.0
1088.0,49.42,61.6
1096.0,49.2,59.5
1104.0,48.94,59.6
1112.0,48.64,60.9
1120.0,48.36,60.5
1128.0,48.0,62.7
1136.0,47.78,61.2
1144.0,47.49,63.0
1152.0,47.18,61.0
1160.0,46.85,62.8
1168.0,46.61,64.8
1176.0,46.33,62.7
1184.0,46.01,64.0
1192.0,45.73,65.8
1200.0,45.34,67.7
1208.0,45.11,66.8
1216.0,44.79,67.3
1224.0,44.5,66.5
1232.0,44.11,66.4
1240.0,43.83,66.7
1248.0,43.56,67.4
1256.0,43.26,67.0
1264.0,42.91,69.3
1272.0,42.5,72.3
1280.0,42.29,73.8
1288.0,41.94,73.1
1296.0,41.63,74.1
1304.0,41.22,71.2
1312.0,40.88,74.2
1320.0,40.59,73.5
1328.0,40.27,75.5
1336.0,39.89,75.2
1344.0,39.48,78.4
1352.0,39.25,79.3
1360.0,38.88,79.9
1368.0,38.53,78.6
1376.0,38.17,77.2
1384.0,37.77,75.4
1392.0,37.48,79.3
1400.0,37.1,81.0
1408.0,36.76,81.5
1416.0,36.34,79.8
1424.0,36.07,78.5
1432.0,35.68,81.8
1440.0,35.29,82.7
1448.0,34.84,82.2
1456.0,34.56,85.4
1464.0,34.21,85.0
1472.0,33.82,85.9
1480.0,33.44,87.6
1488.0,33.0,83.6
1496.0,32.71,83.3
1504.0,32.32,84.8
1512.0,31.95,81.0
1520.0,31.57,83.5
1528.0,31.14,82.6
1536.0,30.85,83.2
1544.0,30.5,82.0
1552.0,30.1,84.6
1560.0,29.66,83.9
1568.0,29.35,83.8
1576.0,28.98,84.0
1584.0,28.65,82.9
1592.0,28.24,83.4
1600.0,27.85,81.1
1608.0,27.56,81.4
1616.0,27.22,81.5
1624.0,26.88,83.8
1632.0,26.41,83.1
1640.0,26.15,80.4
1648.0,25.81,79.2
1656.0,25.48,82.3
1664.0,25.13,80.1
1672.0,24.72,78.2
1680.0,24.48,77.4
1688.0,24.18,75.0
1696.0,23.85,77.7
1704.0,23.49,76.4
1712.0,23.15,73.7
1720.0,22.96,72.1
1728.0,22.64,71.2
1736.0,22.3,71.2
1744.0,21.93,71.4
1752.0,21.75,69.6
1760.0,21.42,71.2
1768.0,21.19,71.1
1776.0,20.87,70.4
1784.0,20.57,67.5
1792.0,20.4,67.3
1800.0,20.14,64.9
1808.0,19.9,64.3
1816.0,19.56,66.1
1824.0,19.43,63.2
1832.0,19.21,59.6
1840.0,18.97,57.4
1848.0,18.69,55.0
1856.0,18.56,53.4
1864.0,18.37,50.5
1872.0,18.19,49.5
1880.0,17.96,49.9
1888.0,17.73,47.0
1896.0,17.63,44.7
1904.0,17.47,42.3
1912.0,17.3,39.0
1920.0,17.04,36.6
1928.0,17.0,34.7
1936.0,16.85,32.8
1944.0,16.69,35.6
1952.0,16.54,36.2
1960.0,16.36,34.8
1968.0,16.28,33.9
1976.0,16.13,32.7
1984.0,16.05,31.7
1992.0,15.81,33.6
2000.0,15.76,33.8
2008.0,15.63,32.0
2016.0,15.53,30.8
2024.0,15.42,30.1
2032.0,15.21,31.3
2040.0,15.18,30.7
2048.0,15.02,31.2
2056.0,14.98,30.3
2064.0,14.78,30.5
2072.0,14.74,31.7
2080.0,14.65,30.7
2088.0,14.56,31.9
2096.0,14.47,34.0
2104.0,14.29,36.8
2112.0,14.26,32.0
2120.0,14.21,26.9
2128.0,14.09,26.8
2136.0,13.94,25.7
2144.0,13.9,26.2
2152.0,13.86,28.1
2160.0,13.76,29.0
2168.0,13.65,26.3
2176.0,13.52,25.0
2184.0,13.52,25.8
2192.0,13.45,25.0
2200.0,13.38,23.8
2208.0,13.2,23.2
2216.0,13.22,26.0
2224.0,13.11,25.1
2232.0,13.06,25.2
2240.0,12.98,22.0
2248.0,12.84,22.3
2251.0,12.8,22.7