File: Wood/Calibration_Data/FSRI/FSRI_Wood_Perpendicular_Cone_25kW_hor_R2.csv
Time,Mass (g),HRRPUA (kW/m2)
0.0,94.03,5.1
8.0,94.25,5.5
16.0,94.17,4.4
24.0,94.05,2.9
32.0,93.95,2.2
40.0,93.78,1.9
48.0,93.67,1.9
56.0,93.66,4.4
64.0,93.56,4.1
72.0,93.44,-0.2
80.0,93.27,0.1
88.0,93.23,0.7
96.0,93.11,0.4
104.0,92.99,2.1
112.0,92.6,4.2
120.0,91.94,18.5
128.0,91.23,90.1
136.0,90.5,145.2
144.0,89.84,152.2
152.0,89.16,141.5
160.0,88.61,127.5
168.0,88.07,118.8
176.0,87.55,111.9
184.0,87.05,102.7
192.0,86.51,95.3
200.0,86.12,90.9
208.0,85.68,84.7
216.0,85.27,79.7
224.0,84.79,76.4
232.0,84.48,72.4
240.0,84.04,70.8
248.0,83.67,69.6
256.0,83.3,66.6
264.0,82.85,64.6
272.0,82.53,63.2
280.0,82.17,61.8
288.0,81.82,59.2
296.0,81.38,57.6
304.0,81.05,56.4
312.0,80.7,55.5
320.0,80.36,54.1
328.0,80.02,53.9
336.0,79.53,54.2
344.0,79.27,52.0
352.0,78.9,51.3
360.0,78.57,48.8
368.0,78.22,47.4
376.0,77.76,47.7
384.0,77.5,49.1
392.0,77.15,45.9
400.0,76.83,46.2
408.0,76.49,45.4
416.0,76.1,44.5
424.0,75.84,44.1
432.0,75.53,42.9
440.0,75.18,42.0
448.0,74.78,43.6
456.0,74.55,42.3
464.0,74.24,41.6
472.0,73.9,39.7
480.0,73.55,40.1
488.0,73.25,38.3
496.0,72.97,38.9
504.0,72.67,36.2
512.0,72.38,37.0
520.0,72.01,37.0
528.0,71.78,37.3
536.0,71.49,36.0
544.0,71.18,34.4
552.0,70.88,32.9
560.0,70.49,31.8
568.0,70.29,32.1
576.0,70.02,33.1
584.0,69.72,31.4
592.0,69.36,30.7
600.0,69.14,31.7
608.0,68.88,29.5
616.0,68.59,28.6
624.0,68.25,23.4
632.0,68.02,19.9
640.0,67.76,20.2
648.0,67.51,20.0
656.0,67.23,21.0
664.0,66.9,22.9
672.0,66.61,23.5
680.0,66.41,22.2
688.0,66.16,22.2
696.0,65.89,21.8
704.0,65.61,22.3
712.0,65.35,23.1
720.0,65.1,22.6
728.0,64.84,22.2
736.0,64.61,20.9
744.0,64.28,20.5
752.0,64.11,21.7
760.0,63.87,22.3
768.0,63.62,23.3
776.0,63.37,22.3
784.0,63.04,22.6
792.0,62.91,22.6
800.0,62.67,21.6
808.0,62.43,21.3
816.0,62.18,19.5
824.0,61.88,19.0
832.0,61.74,18.9
840.0,61.49,19.1
848.0,61.25,19.7
856.0,60.95,20.1
864.0,60.79,21.8
872.0,60.56,20.9
880.0,60.34,18.8
888.0,60.11,21.1
896.0,59.78,21.5
904.0,59.65,23.1
912.0,59.41,23.0
920.0,59.2,22.5
928.0,58.87,22.7
936.0,58.68,21.9
944.0,58.48,21.7
952.0,58.23,21.9
960.0,57.96,21.3
968.0,57.71,21.2
976.0,57.55,22.5
984.0,57.31,23.2
992.0,57.07,23.0
1000.0,56.74,21.0
1008.0,56.55,21.3
1016.0,56.34,23.9
1024.0,56.07,30.8
1032.0,55.79,31.9
1040.0,55.48,34.0
1048.0,55.29,36.3
1056.0,54.98,36.3
1064.0,54.76,36.7
1072.0,54.45,39.1
1080.0,54.19,41.5
1088.0,53.91,43.3
1096.0,53.62,44.5
1104.0,53.31,45.5
1112.0,52.93,45.8
1120.0,52.74,45.4
1128.0,52.43,48.9
1136.0,52.13,50.1
1144.0,51.79,51.9
1152.0,51.43,52.5
1160.0,51.14,51.8
1168.0,50.85,53.6
1176.0,50.51,52.6
1184.0,50.15,54.1
1192.0,49.83,56.1
1200.0,49.47,58.4
1208.0,49.13,62.1
1216.0,48.79,61.3
1224.0,48.45,63.3
1232.0,48.02,71.3
1240.0,47.7,71.8
1248.0,47.33,68.8
1256.0,46.95,66.2
1264.0,46.48,68.8
1272.0,46.15,70.3
1280.0,45.8,72.7
1288.0,45.39,73.8
1296.0,44.96,73.5
1304.0,44.45,75.6
1312.0,44.09,75.1
1320.0,43.68,78.6
1328.0,43.31,77.1
1336.0,42.74,77.5
1344.0,42.4,79.7
1352.0,41.88,81.0
1360.0,41.48,84.9
1368.0,41.04,86.0
1376.0,40.53,87.0
1384.0,40.09,88.5
1392.0,39.63,87.4
1400.0,39.16,90.0
1408.0,38.66,90.7
1416.0,38.19,89.4
1424.0,37.73,90.9
1432.0,37.28,94.6
1440.0,36.78,92.2
1448.0,36.24,95.0
1456.0,35.85,94.4
1464.0,35.41,95.2
1472.0,34.87,94.5
1480.0,34.42,94.2
1488.0,33.86,95.5
1496.0,33.46,96.1
1504.0,33.04,94.5
1512.0,32.56,94.9
1520.0,32.1,97.5
1528.0,31.64,94.6
1536.0,31.26,91.8
1544.0,30.85,91.5
1552.0,30.44,91.5
1560.0,29.98,88.7
1568.0,29.57,84.8
1576.0,29.25,83.4
1584.0,28.91,88.0
1592.0,28.54,84.7
1600.0,28.08,79.0
1608.0,27.83,77.0
1616.0,27.48,71.8
1624.0,27.14,72.5
1632.0,26.81,69.2
1640.0,26.47,69.2
1648.0,26.21,67.7
1656.0,25.94,67.5
1664.0,25.65,64.8
1672.0,25.34,61.6
1680.0,25.1,60.1
1688.0,24.9,57.8
1696.0,24.65,58.6
1704.0,24.4,55.1
1712.0,24.11,50.9
1720.0,23.97,47.9
1728.0,23.78,43.6
1736.0,23.6,42.4
1744.0,23.42,40.9
1752.0,23.15,38.5
1760.0,23.07,38.0
1768.0,22.9,35.4
1776.0,22.72,32.7
1784.0,22.6,31.5
1792.0,22.37,31.1
1800.0,22.32,30.2
1808.0,22.18,28.5
1816.0,22.05,28.1
1824.0,21.95,26.8
1832.0,21.75,27.0
1840.0,21.71,27.2
1848.0,21.58,27.3
1856.0,21.44,26.2
1864.0,21.28,25.5
1872.0,21.2,25.9
1880.0,21.18,26.5
1888.0,21.05,26.7
1896.0,20.97,25.6
1904.0,20.79,27.6
1912.0,20.76,27.1
1920.0,20.67,27.1
1928.0,20.59,26.4
1936.0,20.48,24.6
1944.0,20.39,23.4
1952.0,20.31,22.1
1960.0,20.23,21.7
1968.0,20.15,21.4
1976.0,20.01,22.8
1984.0,20.01,22.1
1992.0,19.91,22.3
2000.0,19.84,22.5
2008.0,19.77,22.2
2016.0,19.64,23.3
2024.0,19.63,25.7
2032.0,19.54,21.7
2040.0,19.46,20.1
2048.0,19.32,19.8
2056.0,19.31,19.7
2064.0,19.26,19.5
2072.0,19.18,18.5
2080.0,19.1,19.6
2088.0,18.96,19.6
2096.0,18.99,19.6
2104.0,18.92,18.0
2112.0,18.85,17.2
2120.0,18.77,17.6
2121.0,18.75,17.5