File: Wood/Calibration_Data/FSRI/FSRI_DSC_N2_30K_R3.csv
Time (s),Temperature (K),Heat Flow Rate (W/g)
0,325.0,6.68E-03
33.3696,327.5,1.26E-01
47.5632,330.0,2.06E-01
58.38,332.5,2.66E-01
67.6104,335.0,3.18E-01
75.9396,337.5,3.60E-01
83.643,340.0,3.98E-01
90.8886,342.5,4.32E-01
97.806,345.0,4.62E-01
104.4744,347.5,4.90E-01
110.9796,350.0,5.17E-01
117.2802,352.5,5.41E-01
123.4422,355.0,5.61E-01
129.5022,357.5,5.82E-01
135.4446,360.0,6.02E-01
141.2796,362.5,6.22E-01
147.0228,365.0,6.40E-01
152.7,367.5,6.57E-01
158.2998,370.0,6.76E-01
163.8252,372.5,6.88E-01
169.3368,375.0,7.01E-01
174.774,377.5,7.11E-01
180.1656,380.0,7.22E-01
185.5548,382.5,7.30E-01
190.8768,385.0,7.35E-01
196.1694,387.5,7.41E-01
201.4602,390.0,7.43E-01
206.6958,392.5,7.44E-01
211.902,395.0,7.46E-01
217.0758,397.5,7.47E-01
222.2244,400.0,7.49E-01
227.3226,402.5,7.53E-01
232.3824,405.0,7.57E-01
237.4278,407.5,7.60E-01
242.4306,410.0,7.64E-01
247.4064,412.5,7.72E-01
252.3366,415.0,7.76E-01
257.2794,417.5,7.84E-01
262.1742,420.0,7.92E-01
267.0546,422.5,7.99E-01
271.9044,425.0,8.10E-01
276.7392,427.5,8.16E-01
281.5536,430.0,8.27E-01
286.3416,432.5,8.35E-01
291.1428,435.0,8.41E-01
295.9152,437.5,8.50E-01
300.6672,440.0,8.61E-01
305.4246,442.5,8.70E-01
310.1358,445.0,8.81E-01
314.8674,447.5,8.91E-01
319.5588,450.0,9.01E-01
324.2412,452.5,9.11E-01
328.9116,455.0,9.22E-01
333.543,457.5,9.31E-01
338.1702,460.0,9.42E-01
342.774,462.5,9.53E-01
347.3568,465.0,9.62E-01
351.9636,467.5,9.72E-01
356.5494,470.0,9.83E-01
361.122,472.5,9.94E-01
365.6574,475.0,1.01E+00
370.2102,477.5,1.02E+00
374.775,480.0,1.03E+00
379.3218,482.5,1.04E+00
383.856,485.0,1.05E+00
388.3854,487.5,1.06E+00
392.9046,490.0,1.07E+00
397.4304,492.5,1.08E+00
401.9268,495.0,1.09E+00
406.4382,497.5,1.10E+00
410.943,500.0,1.11E+00
415.4388,502.5,1.12E+00
419.9262,505.0,1.13E+00
424.422,507.5,1.14E+00
428.904,510.0,1.14E+00
433.3842,512.5,1.15E+00
437.853,515.0,1.15E+00
442.3314,517.5,1.16E+00
446.7996,520.0,1.16E+00
451.2444,522.5,1.17E+00
455.7318,525.0,1.17E+00
460.1982,527.5,1.18E+00
464.6502,530.0,1.18E+00
469.1148,532.5,1.18E+00
473.565,535.0,1.18E+00
478.0194,537.5,1.18E+00
482.466,540.0,1.18E+00
486.882,542.5,1.18E+00
491.3268,545.0,1.18E+00
495.816,547.5,1.18E+00
500.2668,550.0,1.17E+00
504.7122,552.5,1.17E+00
509.1648,555.0,1.17E+00
513.6114,557.5,1.17E+00
518.0448,560.0,1.17E+00
522.5208,562.5,1.16E+00
526.965,565.0,1.16E+00
531.4134,567.5,1.16E+00
535.8738,570.0,1.16E+00
540.3342,572.5,1.16E+00
544.7856,575.0,1.16E+00
549.2454,577.5,1.16E+00
553.7082,580.0,1.16E+00
558.1704,582.5,1.16E+00
562.632,585.0,1.16E+00
567.0816,587.5,1.17E+00
571.5564,590.0,1.17E+00
576.027,592.5,1.19E+00
580.5024,595.0,1.19E+00
584.9718,597.5,1.21E+00
589.449,600.0,1.22E+00
593.931,602.5,1.23E+00
598.4112,605.0,1.25E+00
602.901,607.5,1.26E+00
607.3752,610.0,1.28E+00
611.8956,612.5,1.30E+00
616.3914,615.0,1.32E+00
620.8884,617.5,1.34E+00
625.3968,620.0,1.35E+00
629.9046,622.5,1.37E+00
634.4154,625.0,1.38E+00
638.9244,627.5,1.40E+00
643.4436,630.0,1.41E+00
647.9784,632.5,1.43E+00
652.5144,635.0,1.45E+00
657.0612,637.5,1.48E+00
661.6122,640.0,1.51E+00
666.1746,642.5,1.55E+00
670.7532,645.0,1.60E+00
675.3414,647.5,1.66E+00
679.953,650.0,1.73E+00
684.5586,652.5,1.80E+00
689.1876,655.0,1.88E+00
693.8148,657.5,1.94E+00
698.4402,660.0,2.00E+00
703.0488,662.5,2.03E+00
707.6406,665.0,2.03E+00
712.1856,667.5,1.97E+00
716.7096,670.0,1.85E+00
721.197,672.5,1.66E+00
725.64,675.0,1.42E+00
730.0548,677.5,1.14E+00
734.4714,680.0,8.49E-01
738.8994,682.5,5.84E-01
743.3478,685.0,3.61E-01
747.8574,687.5,1.94E-01
752.4006,690.0,8.74E-02
756.9864,692.5,2.98E-02
761.5914,695.0,-1.27E-02
766.1982,697.5,-4.66E-02
770.8146,700.0,-6.42E-02
775.4394,702.5,-8.56E-02
780.0876,705.0,-1.00E-01
784.7238,707.5,-1.17E-01
789.3666,710.0,-1.35E-01
794.0124,712.5,-1.49E-01
798.6624,715.0,-1.64E-01
803.3124,717.5,-1.75E-01
807.9636,720.0,-1.83E-01
812.628,722.5,-1.91E-01
817.2882,725.0,-1.97E-01
821.9634,727.5,-1.93E-01
826.641,730.0,-1.96E-01
831.3258,732.5,-1.90E-01
836.0112,735.0,-1.85E-01
840.705,737.5,-1.74E-01
845.403,740.0,-1.59E-01
850.1124,742.5,-1.41E-01
854.8314,745.0,-1.23E-01
859.5444,747.5,-1.02E-01
864.267,750.0,-8.52E-02
868.9836,752.5,-6.33E-02
873.6846,755.0,-4.68E-02
878.436,757.5,-2.78E-02
883.182,760.0,-1.13E-02
887.9196,762.5,-8.13E-04
892.6626,765.0,1.76E-02
897.4086,767.5,3.23E-02
902.1504,770.0,4.20E-02
906.888,772.5,5.45E-02
911.6364,775.0,6.15E-02
916.4166,777.5,6.29E-02
921.1758,780.0,6.33E-02
925.938,782.5,6.72E-02
930.7044,785.0,7.77E-02
935.4594,787.5,7.93E-02
940.2348,790.0,8.25E-02
945.0162,792.5,8.87E-02
949.7958,795.0,8.72E-02
954.558,797.5,9.41E-02
959.3484,800.0,9.04E-02
964.1334,802.5,9.61E-02
968.9202,805.0,9.81E-02
973.7064,807.5,1.01E-01
978.4998,810.0,1.04E-01
983.265,812.5,1.05E-01
988.0668,815.0,1.05E-01
992.8794,817.5,9.95E-02
997.671,820.0,1.07E-01
1002.46,822.5,1.05E-01
1007.26,825.0,9.77E-02
1012.074,827.5,1.05E-01
1016.9,830.0,1.05E-01
1021.7,832.5,1.06E-01
1026.51,835.0,1.03E-01
1031.32,837.5,1.04E-01
1036.14,840.0,1.04E-01
1040.96,842.5,9.95E-02
1045.773,845.0,9.69E-02
1050.58,847.5,9.79E-02
1055.4,850.0,9.46E-02
1060.22,852.5,9.35E-02
1065.04,855.0,9.26E-02
1069.869,857.5,9.33E-02
1074.699,860.0,8.85E-02
1079.52,862.5,9.04E-02
1084.36,865.0,9.16E-02
1089.2,867.5,9.03E-02
1094.02,870.0,8.82E-02
1098.86,872.5,8.91E-02
1103.71,875.0,8.71E-02
1108.54,877.5,8.72E-02
1113.39,880.0,8.36E-02
1118.23,882.5,8.09E-02
1123.09,885.0,7.73E-02
1127.946,887.5,7.36E-02
1132.81,890.0,6.83E-02
1137.66,892.5,6.67E-02
1142.53,895.0,6.52E-02
1147.39,897.5,6.06E-02
1152.258,900.0,5.85E-02
1157.12,902.5,5.59E-02
1162,905.0,5.55E-02
1166.874,907.5,5.35E-02
1171.75,910.0,5.88E-02
1176.63,912.5,4.74E-02
1181.52,915.0,4.16E-02
1186.41,917.5,4.55E-02
1191.3,920.0,4.17E-02
1196.19,922.5,3.50E-02
1201.08,925.0,2.53E-02
1205.97,927.5,2.28E-02
1210.86,930.0,1.85E-02
1215.75,932.5,9.43E-03
1220.65,935.0,2.84E-03
1225.55,937.5,-1.79E-03
1230.48,940.0,-1.00E-02
1235.41,942.5,-1.05E-02
1240.31,945.0,-1.74E-02
1245.23,947.5,-2.12E-02
1250.15,950.0,-2.74E-02
1255.077,952.5,-3.44E-02
1259.997,955.0,-3.91E-02
1264.93,957.5,-4.33E-02
1269.83,960.0,-4.88E-02
1274.77,962.5,-6.16E-02
1279.7,965.0,-6.38E-02
1284.63,967.5,-6.70E-02
1289.57,970.0,-7.28E-02
1294.51,972.5,-8.20E-02
1299.46,975.0,-8.68E-02
1304.37,977.5,-9.73E-02
1309.36,980.0,-1.03E-01
1314.31,982.5,-1.13E-01
1319.268,985.0,-1.24E-01
1324.22,987.5,-1.27E-01
1329.18,990.0,-1.32E-01
1334.151,992.5,-1.42E-01
1339.11,995.0,-1.47E-01
1344.07,997.5,-1.51E-01
1349.03,1000.0,-1.60E-01
1354,1002.5,-1.70E-01
1358.964,1005.0,-1.79E-01
1363.93,1007.5,-1.85E-01
1368.9,1010.0,-1.93E-01
1373.86,1012.5,-2.00E-01
1378.83,1015.0,-2.11E-01
1383.798,1017.5,-2.15E-01
1388.77,1020.0,-2.14E-01
1393.76,1022.5,-2.18E-01
1398.732,1025.0,-2.25E-01
1403.7,1027.5,-2.31E-01
1408.69,1030.0,-2.33E-01
1413.69,1032.5,-2.40E-01
1418.66,1035.0,-2.40E-01
1423.65,1037.5,-2.48E-01
1428.63,1040.0,-2.46E-01
1433.61,1042.5,-2.51E-01
1438.6,1045.0,-2.53E-01
1443.59,1047.5,-2.55E-01
1448.58,1050.0,-2.57E-01
1453.58,1052.5,-2.54E-01
1458.56,1055.0,-2.60E-01
1463.556,1057.5,-2.68E-01
1468.56,1060.0,-2.69E-01
1473.55,1062.5,-2.69E-01
1475.54,1063.5,-2.70E-01