File: Wood/Calibration_Data/FSRI/FSRI_STA_N2_3K_R1.csv
Time (s),Temperature (K),Mass (mg),Heat Flow Rate (W/g)
0.0,324.0,3.9936,0.022
82.764,326.5,3.9914,0.0527
145.864,329.0,3.9905,0.064
203.223,331.5,3.9887,0.0724
257.51,334.0,3.9875,0.0769
309.965,336.5,3.9858,0.0823
361.362,339.0,3.9848,0.0864
412.003,341.5,3.9825,0.0898
461.934,344.0,3.9816,0.0928
511.604,346.5,3.9801,0.091
561.404,349.0,3.9782,0.0882
610.804,351.5,3.9786,0.0878
660.179,354.0,3.977,0.0888
709.386,356.5,3.9752,0.0866
758.664,359.0,3.975,0.0866
807.743,361.5,3.9741,0.0856
856.708,364.0,3.9744,0.0855
905.254,366.5,3.9742,0.0863
954.468,369.0,3.9728,0.0849
1003.43,371.5,3.9729,0.0847
1052.32,374.0,3.9723,0.0836
1101.39,376.5,3.9729,0.0839
1149.96,379.0,3.973,0.0823
1198.88,381.5,3.9707,0.0863
1248.01,384.0,3.9719,0.0871
1297.01,386.5,3.9723,0.0877
1345.58,389.0,3.9711,0.0882
1394.29,391.5,3.9709,0.0907
1443.04,394.0,3.9706,0.0906
1491.81,396.5,3.9695,0.0903
1540.34,399.0,3.9706,0.0904
1588.76,401.5,3.9706,0.0943
1637.2,404.0,3.9712,0.0953
1685.82,406.5,3.9713,0.0975
1734.46,409.0,3.9695,0.0989
1782.96,411.5,3.9698,0.0978
1831.47,414.0,3.9693,0.0991
1879.97,416.5,3.9691,0.102
1928.32,419.0,3.9681,0.1022
1976.85,421.5,3.9665,0.1029
2025.26,424.0,3.9657,0.1036
2073.66,426.5,3.9665,0.1054
2122.02,429.0,3.9651,0.1059
2170.47,431.5,3.9661,0.1061
2218.94,434.0,3.9635,0.1069
2267.38,436.5,3.9598,0.1073
2315.99,439.0,3.9595,0.1063
2364.57,441.5,3.9587,0.1072
2413.1,444.0,3.9575,0.109
2461.63,446.5,3.9542,0.1105
2510.28,449.0,3.9515,0.113
2558.93,451.5,3.9481,0.1119
2607.36,454.0,3.9477,0.1147
2655.69,456.5,3.9436,0.1145
2704.17,459.0,3.9401,0.114
2752.65,461.5,3.9362,0.1148
2801.09,464.0,3.9341,0.1156
2849.19,466.5,3.9284,0.1164
2897.78,469.0,3.9247,0.1183
2946.3,471.5,3.9195,0.1146
2994.65,474.0,3.9148,0.1155
3043.12,476.5,3.9098,0.1161
3091.53,479.0,3.9079,0.1149
3139.89,481.5,3.9037,0.1161
3188.29,484.0,3.8962,0.1171
3236.74,486.5,3.8924,0.1191
3285.29,489.0,3.8871,0.1169
3333.87,491.5,3.8828,0.1164
3382.5,494.0,3.8778,0.1203
3430.99,496.5,3.8721,0.1194
3479.58,499.0,3.8655,0.1202
3528.05,501.5,3.8596,0.1218
3576.61,504.0,3.8518,0.1222
3624.99,506.5,3.8423,0.1214
3673.42,509.0,3.8335,0.1206
3721.99,511.5,3.8239,0.1219
3770.75,514.0,3.8123,0.1229
3819.42,516.5,3.7997,0.1247
3867.96,519.0,3.7867,0.1234
3916.64,521.5,3.7718,0.1204
3965.26,524.0,3.7557,0.1212
4014.07,526.5,3.74,0.1215
4062.59,529.0,3.723,0.125
4111.17,531.5,3.7042,0.1249
4159.76,534.0,3.6858,0.1263
4208.3,536.5,3.6639,0.1261
4256.86,539.0,3.6421,0.1253
4305.58,541.5,3.6178,0.1249
4354.21,544.0,3.5918,0.1251
4402.87,546.5,3.5622,0.1265
4451.74,549.0,3.5336,0.1295
4500.66,551.5,3.5023,0.1296
4549.6,554.0,3.4679,0.1328
4598.6,556.5,3.4318,0.1357
4647.38,559.0,3.391,0.1398
4696.04,561.5,3.3487,0.1416
4744.83,564.0,3.3068,0.1459
4793.54,566.5,3.2605,0.1494
4842.41,569.0,3.2123,0.1524
4891.25,571.5,3.1606,0.1551
4940.23,574.0,3.1081,0.1593
4989.03,576.5,3.0515,0.1622
5037.82,579.0,2.9923,0.1659
5086.73,581.5,2.9298,0.1709
5135.66,584.0,2.8659,0.1771
5184.65,586.5,2.8027,0.1799
5233.51,589.0,2.7348,0.1825
5282.54,591.5,2.6662,0.1844
5331.31,594.0,2.5941,0.1869
5380.43,596.5,2.5211,0.1912
5429.66,599.0,2.448,0.1961
5478.97,601.5,2.3692,0.2003
5528.14,604.0,2.2885,0.2085
5577.13,606.5,2.2046,0.2124
5626.28,609.0,2.1166,0.2244
5675.4,611.5,2.0243,0.2327
5724.84,614.0,1.9264,0.242
5774.34,616.5,1.8246,0.2496
5823.75,619.0,1.7193,0.2508
5872.87,621.5,1.613,0.2514
5922.09,624.0,1.5077,0.2372
5971.19,626.5,1.4064,0.2193
6020.25,629.0,1.3171,0.1835
6069.02,631.5,1.2395,0.1436
6117.78,634.0,1.1801,0.0978
6166.54,636.5,1.1389,0.0558
6215.51,639.0,1.1131,0.0266
6264.7,641.5,1.0968,0.0079
6313.83,644.0,1.0847,0.0028
6363.25,646.5,1.0731,-0.0003
6412.75,649.0,1.0634,-0.001
6462.36,651.5,1.0538,-0.0059
6511.8,654.0,1.0428,-0.0091
6561.22,656.5,1.035,-0.0095
6610.7,659.0,1.028,-0.0135
6660.29,661.5,1.0189,-0.0185
6710.02,664.0,1.0114,-0.0216
6759.73,666.5,1.0019,-0.0235
6809.2,669.0,0.9928,-0.0264
6858.81,671.5,0.9863,-0.033
6908.5,674.0,0.9768,-0.0346
6958.21,676.5,0.9706,-0.0365
7007.96,679.0,0.9611,-0.0403
7057.64,681.5,0.9535,-0.0426
7107.19,684.0,0.9461,-0.0436
7157.21,686.5,0.9391,-0.0468
7206.96,689.0,0.9318,-0.0493
7256.48,691.5,0.922,-0.049
7305.99,694.0,0.9168,-0.0509
7355.69,696.5,0.9091,-0.0496
7405.55,699.0,0.9046,-0.0476
7455.21,701.5,0.897,-0.0461
7504.96,704.0,0.8905,-0.0423
7554.86,706.5,0.8847,-0.0423
7604.8,709.0,0.8792,-0.0401
7654.63,711.5,0.8719,-0.0401
7704.44,714.0,0.8677,-0.0326
7754.32,716.5,0.8639,-0.0318
7804.4,719.0,0.8592,-0.0301
7854.31,721.5,0.8541,-0.0296
7904.17,724.0,0.8497,-0.0254
7954.28,726.5,0.8462,-0.0279
8004.16,729.0,0.843,-0.029
8054.06,731.5,0.8393,-0.0335
8104.05,734.0,0.8348,-0.0323
8153.91,736.5,0.8318,-0.0361
8203.77,739.0,0.8284,-0.0363
8253.81,741.5,0.8264,-0.0371
8303.76,744.0,0.8228,-0.0351
8353.63,746.5,0.8195,-0.0351
8403.46,749.0,0.8156,-0.0381
8453.38,751.5,0.8138,-0.0403
8503.44,754.0,0.8108,-0.0376
8553.55,756.5,0.8072,-0.0354
8603.69,759.0,0.8028,-0.0349
8653.63,761.5,0.8014,-0.0371
8703.81,764.0,0.798,-0.0323
8754.16,766.5,0.7952,-0.0326
8804.43,769.0,0.7933,-0.0286
8854.81,771.5,0.792,-0.0293
8905.37,774.0,0.7885,-0.0301
8955.79,776.5,0.7865,-0.0318
9005.85,779.0,0.7855,-0.0345
9055.8,781.5,0.7827,-0.035
9105.77,784.0,0.7807,-0.0345
9155.7,786.5,0.7783,-0.0368
9205.93,789.0,0.776,-0.0332
9256.13,791.5,0.7735,-0.0345
9306.37,794.0,0.7721,-0.0345
9356.4,796.5,0.7692,-0.0369
9406.68,799.0,0.7693,-0.0367
9456.9,801.5,0.766,-0.0383
9507.09,804.0,0.7658,-0.0395
9557.32,806.5,0.762,-0.0404
9607.54,809.0,0.7619,-0.0416
9657.82,811.5,0.7595,-0.0417
9708.18,814.0,0.7584,-0.0431
9758.41,816.5,0.7553,-0.0436
9808.58,819.0,0.754,-0.0481
9859.05,821.5,0.751,-0.0452
9909.39,824.0,0.7502,-0.0462
9959.66,826.5,0.746,-0.0463
10010.3,829.0,0.7453,-0.0434
10060.9,831.5,0.7437,-0.0439
10111.5,834.0,0.7427,-0.0437
10161.9,836.5,0.7396,-0.0445
10212,839.0,0.7384,-0.0451
10262.1,841.5,0.7356,-0.046
10312.4,844.0,0.7333,-0.0431
10363,846.5,0.732,-0.0437
10413.8,849.0,0.7286,-0.0385
10464.1,851.5,0.7263,-0.0376
10514.5,854.0,0.7252,-0.035
10564.9,856.5,0.7233,-0.0349
10615.4,859.0,0.7223,-0.0366
10665.8,861.5,0.7187,-0.0385
10716.2,864.0,0.7179,-0.0422
10766.7,866.5,0.7169,-0.0435
10817.3,869.0,0.7137,-0.04
10867.8,871.5,0.7115,-0.0374
10918.2,874.0,0.7096,-0.0377
10968.6,876.5,0.7093,-0.0368
11019.1,879.0,0.7074,-0.0404
11069.7,881.5,0.7067,-0.0384
11120.2,884.0,0.7031,-0.0397
11170.6,886.5,0.7027,-0.0375
11221.2,889.0,0.7007,-0.0326
11272.1,891.5,0.6999,-0.0292
11322.9,894.0,0.6993,-0.0297
11373.6,896.5,0.6975,-0.0277
11424.3,899.0,0.6982,-0.027
11475,901.5,0.6976,-0.0274
11525.8,904.0,0.6962,-0.0321
11576.6,906.5,0.6962,-0.0286
11627.3,909.0,0.6938,-0.0323
11677.8,911.5,0.6929,-0.0281
11729,914.0,0.6918,-0.0083
11779.8,916.5,0.6921,-0.0021
11830.5,919.0,0.69,0.0002
11880.8,921.5,0.6874,-0.0116
11931.8,924.0,0.6854,-0.0101
11983.1,926.5,0.6857,-0.0092
12034,929.0,0.6843,-0.0078
12084.9,931.5,0.6826,-0.0085
12135.4,934.0,0.6834,-0.0237
12186,936.5,0.6815,-0.0173
12236.6,939.0,0.6809,-0.0138
12287.5,941.5,0.6784,-0.0082
12338.5,944.0,0.6769,-0.0089
12389.4,946.5,0.6768,-0.0061
12440.3,949.0,0.6765,-0.0057
12490.9,951.5,0.6757,-0.0088
12541.8,954.0,0.6729,-0.0067
12592.8,956.5,0.6743,-0.0078
12643.9,959.0,0.6725,-0.0069
12694.4,961.5,0.6727,-0.0071
12744.9,964.0,0.6701,-0.007
12795.8,966.5,0.6699,-0.0109
12846.8,969.0,0.6675,-0.0214
12897.6,971.5,0.667,-0.0316
12948.2,974.0,0.6656,-0.0304
12999,976.5,0.6648,-0.039
13050.1,979.0,0.6644,-0.038
13101.3,981.5,0.6619,-0.0495
13152.1,984.0,0.6618,-0.0532
13203,986.5,0.6623,-0.0522
13254.2,989.0,0.6582,-0.05
13305.2,991.5,0.6589,-0.0501
13356.3,994.0,0.656,-0.0504
13407.2,996.5,0.6553,-0.051
13458,999.0,0.6541,-0.0531
13508.8,1001.5,0.6524,-0.0506
13559.2,1004.0,0.6531,-0.0521
13610.6,1006.5,0.6522,-0.0488
13661.8,1009.0,0.6509,-0.0482
13713.1,1011.5,0.6497,-0.0467
13764.3,1014.0,0.6495,-0.0371
13815.2,1016.5,0.6474,-0.0353
13866.3,1019.0,0.647,-0.029
13917.4,1021.5,0.6469,-0.0253
13968.2,1024.0,0.6443,-0.0245
14019,1026.5,0.6446,-0.0247
14070,1029.0,0.645,-0.0232
14121,1031.5,0.6447,-0.0277
14171.9,1034.0,0.6415,-0.0319
14222.7,1036.5,0.6417,-0.0343
14273.8,1039.0,0.6411,-0.0284
14325.3,1041.5,0.6394,-0.0299
14376.3,1044.0,0.6398,-0.0258
14427.1,1046.5,0.638,-0.016
14477.1,1049.0,0.6391,-0.0224
14528.2,1051.5,0.6387,-0.0098
14579.7,1054.0,0.6369,-0.0117
14631.1,1056.5,0.6384,-0.0045
14681.8,1059.0,0.6371,-0.0055
14732.5,1061.5,0.6365,0.0008
14783.4,1064.0,0.6354,-0.0113
14834.1,1066.5,0.6346,-0.0004
14885.5,1069.0,0.636,-0.0053
14916.1,1070.5,0.635,-0.0042