File: Wood/Calibration_Data/FSRI/FSRI_Wood_Parallel_Cone_50kW_hor_R3.csv
Time,Mass (g),HRRPUA (kW/m2)
0.0,93.04,4.3
6.0,93.46,10.0
12.0,93.48,12.3
18.0,93.2,7.4
24.0,92.89,2.2
30.0,92.56,1.1
36.0,92.22,0.2
42.0,91.34,2.4
48.0,90.3,3.8
54.0,89.37,182.8
60.0,88.61,286.4
66.0,88.01,263.3
72.0,87.41,217.7
78.0,86.8,193.0
84.0,86.22,174.4
90.0,85.6,164.8
96.0,85.04,162.8
102.0,84.52,155.2
108.0,84.08,147.1
114.0,83.57,142.2
120.0,83.1,139.2
126.0,82.65,132.0
132.0,82.09,129.0
138.0,81.61,130.2
144.0,81.22,126.8
150.0,80.8,126.2
156.0,80.38,121.3
162.0,79.91,121.3
168.0,79.51,121.0
174.0,79.03,117.3
180.0,78.6,117.8
186.0,78.17,116.6
192.0,77.86,118.6
198.0,77.45,118.3
204.0,77.02,115.7
210.0,76.66,114.9
216.0,76.13,114.3
222.0,75.75,113.6
228.0,75.43,112.7
234.0,75.05,110.6
240.0,74.67,110.8
246.0,74.29,110.5
252.0,73.81,108.0
258.0,73.43,104.6
264.0,73.1,105.7
270.0,72.78,105.1
276.0,72.38,104.5
282.0,72.01,105.1
288.0,71.62,103.7
294.0,71.19,102.7
300.0,70.85,103.0
306.0,70.54,104.4
312.0,70.18,101.9
318.0,69.82,100.6
324.0,69.43,101.2
330.0,69.02,100.7
336.0,68.67,101.7
342.0,68.3,100.0
348.0,67.99,98.2
354.0,67.67,95.1
360.0,67.34,95.5
366.0,66.99,95.0
372.0,66.57,96.0
378.0,66.22,94.8
384.0,65.85,93.9
390.0,65.62,91.3
396.0,65.28,92.1
402.0,64.92,91.0
408.0,64.56,91.7
414.0,64.19,92.0
420.0,63.79,90.6
426.0,63.47,88.7
432.0,63.19,89.3
438.0,62.9,92.7
444.0,62.54,90.4
450.0,62.21,90.1
456.0,61.79,89.3
462.0,61.42,88.9
468.0,61.17,87.0
474.0,60.87,87.6
480.0,60.55,87.0
486.0,60.21,89.2
492.0,59.91,87.0
498.0,59.44,88.4
504.0,59.13,88.4
510.0,58.96,85.3
516.0,58.61,85.3
522.0,58.29,84.1
528.0,57.95,86.0
534.0,57.57,85.3
540.0,57.22,85.8
546.0,56.89,84.2
552.0,56.68,85.9
558.0,56.38,85.9
564.0,56.04,84.9
570.0,55.74,85.6
576.0,55.35,86.4
582.0,55.0,88.3
588.0,54.69,86.4
594.0,54.46,84.6
600.0,54.17,85.6
606.0,53.85,87.2
612.0,53.54,87.0
618.0,53.19,86.2
624.0,52.85,84.2
630.0,52.55,84.3
636.0,52.32,86.3
642.0,52.03,86.0
648.0,51.74,87.2
654.0,51.38,87.7
660.0,51.01,86.2
666.0,50.69,87.7
672.0,50.49,85.7
678.0,50.2,89.1
684.0,49.88,88.8
690.0,49.54,87.4
696.0,49.15,88.0
702.0,48.86,87.2
708.0,48.56,88.6
714.0,48.36,87.6
720.0,48.04,87.2
726.0,47.76,88.4
732.0,47.41,88.7
738.0,47.01,90.3
744.0,46.72,92.9
750.0,46.55,93.1
756.0,46.22,93.6
762.0,45.91,93.3
768.0,45.61,94.0
774.0,45.2,92.6
780.0,44.87,91.9
786.0,44.6,92.3
792.0,44.37,91.6
798.0,44.05,93.0
804.0,43.76,93.0
810.0,43.38,92.9
816.0,42.95,93.8
822.0,42.65,92.4
828.0,42.41,93.2
834.0,42.15,95.9
840.0,41.83,96.6
846.0,41.49,96.6
852.0,41.07,96.1
858.0,40.72,95.8
864.0,40.41,96.0
870.0,40.24,95.0
876.0,39.9,96.7
882.0,39.56,97.5
888.0,39.23,96.3
894.0,38.85,96.8
900.0,38.47,94.8
906.0,38.21,98.1
912.0,37.95,96.5
918.0,37.62,96.5
924.0,37.27,95.4
930.0,36.86,97.1
936.0,36.47,99.2
942.0,36.13,99.3
948.0,35.93,98.1
954.0,35.62,97.0
960.0,35.26,101.2
966.0,34.9,99.8
972.0,34.47,100.7
978.0,34.11,98.6
984.0,33.77,102.0
990.0,33.5,104.3
996.0,33.18,104.4
1002.0,32.84,105.4
1008.0,32.45,103.0
1014.0,32.05,103.6
1020.0,31.72,106.1
1026.0,31.4,105.0
1032.0,31.08,105.8
1038.0,30.74,104.3
1044.0,30.41,102.0
1050.0,29.96,103.0
1056.0,29.6,101.3
1062.0,29.33,106.4
1068.0,29.0,106.0
1074.0,28.67,103.6
1080.0,28.33,104.7
1086.0,27.9,105.5
1092.0,27.5,104.6
1098.0,27.13,104.2
1104.0,26.89,107.0
1110.0,26.57,105.8
1116.0,26.23,105.0
1122.0,25.88,105.0
1128.0,25.52,101.4
1134.0,25.11,103.5
1140.0,24.76,102.2
1146.0,24.51,100.9
1152.0,24.24,101.7
1158.0,23.85,101.6
1164.0,23.53,101.5
1170.0,23.11,100.9
1176.0,22.77,102.3
1182.0,22.45,103.0
1188.0,22.23,101.2
1194.0,21.91,102.2
1200.0,21.61,99.4
1206.0,21.25,100.1
1212.0,20.87,98.7
1218.0,20.57,95.5
1224.0,20.38,95.3
1230.0,20.08,93.7
1236.0,19.81,92.3
1242.0,19.54,91.4
1248.0,19.13,92.0
1254.0,18.87,90.0
1260.0,18.59,88.5
1266.0,18.47,86.3
1272.0,18.2,85.9
1278.0,17.98,83.7
1284.0,17.76,80.1
1290.0,17.44,80.3
1296.0,17.15,79.3
1302.0,16.94,74.4
1308.0,16.9,73.4
1314.0,16.72,71.3
1320.0,16.55,69.8
1326.0,16.37,65.4
1332.0,16.11,63.6
1338.0,15.93,62.7
1344.0,15.77,61.3
1350.0,15.75,59.2
1356.0,15.66,59.0
1362.0,15.53,56.0
1368.0,15.4,53.3
1374.0,15.18,51.8
1380.0,15.08,50.7
1386.0,15.04,49.2
1392.0,15.06,47.3
1398.0,14.97,46.8
1404.0,14.88,45.0
1410.0,14.69,42.0
1416.0,14.57,40.5
1422.0,14.5,40.4
1428.0,14.56,41.3
1434.0,14.48,40.1
1440.0,14.41,39.7
1446.0,14.35,40.3
1452.0,14.23,38.8
1458.0,14.08,38.8
1464.0,13.99,37.8
1470.0,14.04,37.7
1476.0,13.99,37.8
1482.0,13.96,39.2
1488.0,13.84,37.5
1494.0,13.66,35.7
1500.0,13.59,36.0
1506.0,13.68,35.5
1512.0,13.62,35.7
1518.0,13.58,35.8
1524.0,13.48,36.5
1530.0,13.31,37.1
1536.0,13.24,35.9
1542.0,13.21,35.7
1548.0,13.26,34.3
1554.0,13.16,34.2
1560.0,13.09,35.3
1566.0,12.91,34.4
1568.0,12.9,34.5