File: Wood/Calibration_Data/FSRI/FSRI_Wood_STA_N2_10K_R3.csv
Time (s),Temperature (K),Mass (mg),Heat Flow Rate (W/g)
0.0,324.5,3.9243,0.0157
74.9878,327.0,3.9227,0.099
101.713,329.5,3.9229,0.1359
123.835,332.0,3.9238,0.1612
143.895,334.5,3.9223,0.1794
162.916,337.0,3.9213,0.1913
181.178,339.5,3.9226,0.2027
198.862,342.0,3.9222,0.212
216.07,344.5,3.9203,0.2195
232.958,347.0,3.9195,0.2295
249.494,349.5,3.9189,0.2372
265.709,352.0,3.9188,0.2448
281.747,354.5,3.9188,0.25
297.524,357.0,3.9174,0.2569
313.187,359.5,3.9175,0.2615
328.594,362.0,3.9167,0.2638
343.824,364.5,3.9162,0.2671
358.909,367.0,3.916,0.2701
373.875,369.5,3.915,0.2721
388.721,372.0,3.9135,0.2719
403.536,374.5,3.912,0.2716
418.254,377.0,3.9147,0.2723
432.944,379.5,3.912,0.2749
447.527,382.0,3.9119,0.2756
462.092,384.5,3.9133,0.2752
476.6,387.0,3.9125,0.2733
491.18,389.5,3.9121,0.2758
505.709,392.0,3.9092,0.2775
520.218,394.5,3.9118,0.2774
534.651,397.0,3.9126,0.2789
549.041,399.5,3.9125,0.2789
563.433,402.0,3.9113,0.2831
577.768,404.5,3.9103,0.2848
592.08,407.0,3.9099,0.2859
606.395,409.5,3.9112,0.2895
620.685,412.0,3.9108,0.2926
634.942,414.5,3.9103,0.2953
649.169,417.0,3.9111,0.2967
663.368,419.5,3.9098,0.2987
677.604,422.0,3.9085,0.3013
691.788,424.5,3.9097,0.3041
705.958,427.0,3.9098,0.3085
720.143,429.5,3.9085,0.3132
734.289,432.0,3.9076,0.3148
748.422,434.5,3.9068,0.3174
762.607,437.0,3.9078,0.3217
776.767,439.5,3.9078,0.3262
790.966,442.0,3.9065,0.3288
805.085,444.5,3.9065,0.3371
819.257,447.0,3.9052,0.3398
833.405,449.5,3.9024,0.3414
847.564,452.0,3.9028,0.3466
861.711,454.5,3.9016,0.3474
875.845,457.0,3.9002,0.3498
889.98,459.5,3.8993,0.3547
904.14,462.0,3.8963,0.3583
918.277,464.5,3.8953,0.3615
932.409,467.0,3.8942,0.3624
946.564,469.5,3.8909,0.3687
960.702,472.0,3.8884,0.3716
974.865,474.5,3.8847,0.3754
988.984,477.0,3.8831,0.3806
1003.1,479.5,3.8792,0.3837
1017.24,482.0,3.8752,0.3843
1031.41,484.5,3.8713,0.391
1045.56,487.0,3.8664,0.395
1059.66,489.5,3.8626,0.3994
1073.8,492.0,3.8587,0.3986
1087.95,494.5,3.8534,0.4013
1102.13,497.0,3.849,0.4024
1116.25,499.5,3.8447,0.4053
1130.45,502.0,3.8381,0.405
1144.6,504.5,3.8342,0.4084
1158.78,507.0,3.8289,0.4111
1172.97,509.5,3.8242,0.4137
1187.16,512.0,3.8183,0.4183
1201.34,514.5,3.8115,0.4163
1215.5,517.0,3.8048,0.414
1229.69,519.5,3.7967,0.4169
1243.87,522.0,3.7906,0.4178
1258.09,524.5,3.7814,0.4207
1272.27,527.0,3.7727,0.4183
1286.46,529.5,3.7618,0.4187
1300.7,532.0,3.7515,0.4189
1314.93,534.5,3.7402,0.4187
1329.17,537.0,3.7282,0.4183
1343.4,539.5,3.7158,0.4212
1357.61,542.0,3.7012,0.4189
1371.86,544.5,3.6878,0.4194
1386.09,547.0,3.6712,0.4192
1400.35,549.5,3.6561,0.4214
1414.6,552.0,3.6374,0.4234
1428.87,554.5,3.6182,0.4228
1443.15,557.0,3.5987,0.4252
1457.45,559.5,3.5769,0.4238
1471.72,562.0,3.5541,0.4253
1486.03,564.5,3.5297,0.4261
1500.34,567.0,3.5049,0.4301
1514.67,569.5,3.4772,0.4293
1528.99,572.0,3.4469,0.4345
1543.29,574.5,3.4157,0.4413
1557.63,577.0,3.3834,0.4453
1571.94,579.5,3.3476,0.4576
1586.25,582.0,3.3093,0.4653
1600.58,584.5,3.2676,0.4725
1614.91,587.0,3.2269,0.4813
1629.26,589.5,3.1813,0.4913
1643.6,592.0,3.1336,0.5017
1657.95,594.5,3.0842,0.5063
1672.31,597.0,3.0326,0.5178
1686.72,599.5,2.9768,0.53
1701.11,602.0,2.9203,0.5361
1715.56,604.5,2.8619,0.5449
1729.99,607.0,2.803,0.5571
1744.43,609.5,2.7408,0.566
1758.88,612.0,2.677,0.5756
1773.29,614.5,2.612,0.5873
1787.76,617.0,2.5439,0.5993
1802.21,619.5,2.4771,0.6158
1816.65,622.0,2.4069,0.6327
1831.15,624.5,2.3334,0.6569
1845.65,627.0,2.2565,0.6815
1860.14,629.5,2.1762,0.7094
1874.74,632.0,2.0935,0.7379
1889.31,634.5,2.0074,0.767
1903.9,637.0,1.9175,0.7978
1918.47,639.5,1.8217,0.8174
1933.01,642.0,1.7254,0.8212
1947.46,644.5,1.6302,0.8125
1961.91,647.0,1.5344,0.7785
1976.28,649.5,1.4451,0.7159
1990.57,652.0,1.3658,0.627
2004.85,654.5,1.2974,0.5134
2019.09,657.0,1.2419,0.39
2033.32,659.5,1.2018,0.2769
2047.66,662.0,1.174,0.1843
2062.02,664.5,1.1538,0.1246
2076.51,667.0,1.1427,0.0945
2091.02,669.5,1.1302,0.0793
2105.62,672.0,1.1246,0.0732
2120.22,674.5,1.1155,0.0646
2134.83,677.0,1.1079,0.052
2149.41,679.5,1.1019,0.0486
2164.06,682.0,1.0924,0.0408
2178.64,684.5,1.0866,0.0377
2193.24,687.0,1.0782,0.0282
2207.84,689.5,1.071,0.0216
2222.48,692.0,1.0658,0.0167
2237.12,694.5,1.0581,0.0131
2251.78,697.0,1.0499,0.0074
2266.43,699.5,1.0429,0.0043
2281.13,702.0,1.0375,0.0049
2295.81,704.5,1.031,0.0061
2310.51,707.0,1.023,0.0058
2325.18,709.5,1.0167,0.005
2339.85,712.0,1.0094,0.0067
2354.59,714.5,1.0045,0.0119
2369.3,717.0,0.9975,0.0206
2384.01,719.5,0.9927,0.0279
2398.73,722.0,0.9874,0.0315
2413.46,724.5,0.9815,0.0371
2428.21,727.0,0.9762,0.0424
2442.97,729.5,0.9722,0.0431
2457.71,732.0,0.9669,0.0475
2472.47,734.5,0.9629,0.0561
2487.28,737.0,0.9563,0.0657
2502.04,739.5,0.9524,0.0687
2516.82,742.0,0.9485,0.071
2531.57,744.5,0.9437,0.0769
2546.36,747.0,0.9402,0.0807
2561.1,749.5,0.9373,0.0871
2575.9,752.0,0.9334,0.0905
2590.68,754.5,0.9287,0.094
2605.47,757.0,0.9268,0.0965
2620.27,759.5,0.9229,0.0981
2635.07,762.0,0.9201,0.0976
2649.89,764.5,0.9168,0.101
2664.73,767.0,0.9153,0.1047
2679.53,769.5,0.9123,0.1057
2694.38,772.0,0.9094,0.105
2709.24,774.5,0.9047,0.1045
2724.11,777.0,0.9033,0.105
2738.95,779.5,0.8995,0.11
2753.82,782.0,0.8968,0.1125
2768.64,784.5,0.8952,0.115
2783.53,787.0,0.8925,0.1139
2798.4,789.5,0.8886,0.1141
2813.24,792.0,0.887,0.1135
2828.13,794.5,0.8843,0.1136
2842.99,797.0,0.8817,0.1166
2857.88,799.5,0.881,0.1198
2872.8,802.0,0.877,0.1155
2887.72,804.5,0.8744,0.1142
2902.61,807.0,0.8725,0.1161
2917.52,809.5,0.8705,0.1145
2932.42,812.0,0.8685,0.1104
2947.33,814.5,0.8685,0.114
2962.25,817.0,0.8654,0.1183
2977.21,819.5,0.862,0.1259
2992.16,822.0,0.8603,0.1255
3007.09,824.5,0.8576,0.1311
3021.97,827.0,0.8573,0.1311
3036.95,829.5,0.8537,0.1291
3051.91,832.0,0.8524,0.1314
3066.83,834.5,0.8497,0.13
3081.83,837.0,0.8484,0.128
3096.81,839.5,0.8464,0.1286
3111.77,842.0,0.8451,0.1293
3126.77,844.5,0.8431,0.1295
3141.78,847.0,0.8409,0.1253
3156.77,849.5,0.8392,0.1256
3171.74,852.0,0.8366,0.1282
3186.74,854.5,0.8352,0.1215
3201.74,857.0,0.8331,0.1172
3216.77,859.5,0.8313,0.1108
3231.77,862.0,0.8285,0.1138
3246.76,864.5,0.8289,0.111
3261.72,867.0,0.8272,0.1085
3276.74,869.5,0.8259,0.1105
3291.75,872.0,0.8249,0.1109
3306.76,874.5,0.8219,0.1079
3321.79,877.0,0.8193,0.1046
3336.81,879.5,0.8183,0.1004
3351.87,882.0,0.8165,0.097
3366.89,884.5,0.8164,0.0984
3381.92,887.0,0.8138,0.0977
3396.93,889.5,0.8112,0.0932
3411.93,892.0,0.8099,0.0926
3426.94,894.5,0.8088,0.093
3441.93,897.0,0.8083,0.0913
3456.95,899.5,0.8059,0.0862
3471.96,902.0,0.8059,0.0859
3487,904.5,0.8036,0.0848
3502.04,907.0,0.8033,0.0811
3517.08,909.5,0.802,0.0832
3532.14,912.0,0.7997,0.0828
3547.17,914.5,0.7997,0.0777
3562.21,917.0,0.7983,0.0794
3577.26,919.5,0.7981,0.0788
3592.42,922.0,0.7954,0.0741
3607.52,924.5,0.7944,0.0793
3622.67,927.0,0.7939,0.0768
3637.82,929.5,0.7931,0.0771
3652.95,932.0,0.7918,0.0783
3668.08,934.5,0.7904,0.08
3683.2,937.0,0.7881,0.0772
3698.3,939.5,0.7882,0.0773
3713.4,942.0,0.7864,0.0737
3728.5,944.5,0.7866,0.0761
3743.59,947.0,0.7856,0.0719
3758.75,949.5,0.784,0.0773
3773.89,952.0,0.7824,0.0746
3789.05,954.5,0.7823,0.0764
3804.22,957.0,0.781,0.0763
3819.38,959.5,0.781,0.0748
3834.53,962.0,0.7785,0.0786
3849.69,964.5,0.7795,0.0768
3864.89,967.0,0.7777,0.0738
3880.1,969.5,0.7767,0.0696
3895.24,972.0,0.7754,0.0723
3910.38,974.5,0.7747,0.0705
3925.56,977.0,0.7743,0.0736
3940.7,979.5,0.7728,0.072
3955.83,982.0,0.7728,0.0722
3971.01,984.5,0.7714,0.0728
3986.13,987.0,0.7715,0.0757
4001.35,989.5,0.7711,0.0779
4016.6,992.0,0.7698,0.0805
4031.83,994.5,0.7705,0.0813
4047,997.0,0.7688,0.0851
4062.21,999.5,0.7671,0.084
4077.42,1002.0,0.7672,0.0821
4092.64,1004.5,0.7658,0.0827
4107.87,1007.0,0.7662,0.0859
4123.07,1009.5,0.7659,0.0876
4138.26,1012.0,0.7632,0.085
4153.48,1014.5,0.7632,0.0895
4168.71,1017.0,0.7645,0.0885
4183.9,1019.5,0.7632,0.0923
4199.06,1022.0,0.7612,0.0926
4214.22,1024.5,0.7612,0.0944
4229.42,1027.0,0.7602,0.098
4244.61,1029.5,0.7602,0.0979
4259.81,1032.0,0.758,0.0924
4274.99,1034.5,0.759,0.1005
4290.22,1037.0,0.759,0.1021
4305.48,1039.5,0.7574,0.1074
4320.77,1042.0,0.7561,0.1151
4336.11,1044.5,0.7547,0.1159
4351.43,1047.0,0.7561,0.1161
4366.69,1049.5,0.7548,0.1199
4382.02,1052.0,0.7541,0.124
4397.31,1054.5,0.7534,0.1206
4412.59,1057.0,0.7521,0.1228
4427.95,1059.5,0.7521,0.129
4443.25,1062.0,0.7511,0.1324
4458.49,1064.5,0.7521,0.1364
4473.76,1067.0,0.7508,0.1338
4489.05,1069.5,0.7495,0.1324
4492.09,1070.0,0.7503,0.132