File: Wood/Calibration_Data/FSRI/FSRI_TGA_N2_10K_R3.csv
Time (s),Temperature (K),Mass (mg)
0,324.5,3.923
49.0644,327,3.924
75.2352,329.5,3.923
97.1592,332,3.924
117.1458,334.5,3.923
136.086,337,3.922
154.2936,339.5,3.921
171.9426,342,3.922
189.1248,344.5,3.92
205.9812,347,3.92
222.4938,349.5,3.92
238.6896,352,3.919
254.6922,354.5,3.919
270.498,357,3.917
286.1202,359.5,3.917
301.5084,362,3.916
316.7358,364.5,3.915
331.8114,367,3.916
346.7694,369.5,3.916
361.5942,372,3.914
376.4154,374.5,3.913
391.1442,377,3.914
405.8088,379.5,3.912
420.3966,382,3.912
434.9604,384.5,3.913
449.4588,387,3.912
464.0508,389.5,3.912
478.5672,392,3.909
493.083,394.5,3.913
507.5106,397,3.913
521.9022,399.5,3.912
536.2884,402,3.91
550.6164,404.5,3.91
564.9354,407,3.91
579.2466,409.5,3.911
593.5392,412,3.911
607.776,414.5,3.91
622.0122,417,3.911
636.2124,419.5,3.909
650.4498,422,3.908
664.6272,424.5,3.908
678.7962,427,3.91
692.9796,429.5,3.908
707.1282,432,3.906
721.2558,434.5,3.907
735.4458,437,3.908
749.6046,439.5,3.908
763.803,442,3.906
777.9288,444.5,3.907
792.0816,447,3.905
806.2476,449.5,3.903
820.4016,452,3.903
834.5466,454.5,3.902
848.6754,457,3.9
862.8102,459.5,3.899
876.978,462,3.896
891.114,464.5,3.895
905.2476,467,3.894
919.3998,469.5,3.89
933.5538,472,3.888
947.6964,474.5,3.884
961.8186,477,3.883
975.9354,479.5,3.879
990.0858,482,3.875
1004.24,484.5,3.871
1018.4,487,3.866
1032.49,489.5,3.863
1046.64,492,3.859
1060.79,494.5,3.853
1074.97,497,3.849
1089.1,499.5,3.843
1103.29,502,3.838
1117.43,504.5,3.834
1131.63,507,3.829
1145.81,509.5,3.823
1160.01,512,3.817
1174.17,514.5,3.81
1188.35,517,3.805
1202.526,519.5,3.797
1216.71,522,3.789
1230.927,524.5,3.78
1245.117,527,3.772
1259.31,529.5,3.76
1273.545,532,3.751
1287.76,534.5,3.739
1302.015,537,3.727
1316.24,539.5,3.715
1330.45,542,3.7
1344.7,544.5,3.687
1358.93,547,3.67
1373.2,549.5,3.654
1387.45,552,3.635
1401.72,554.5,3.617
1416,557,3.597
1430.28,559.5,3.575
1444.57,562,3.552
1458.89,564.5,3.529
1473.18,567,3.502
1487.52,569.5,3.476
1501.836,572,3.445
1516.14,574.5,3.413
1530.48,577,3.38
1544.79,579.5,3.345
1559.1,582,3.307
1573.44,584.5,3.264
1587.76,587,3.224
1602.11,589.5,3.177
1616.45,592,3.131
1630.8,594.5,3.081
1645.17,597,3.029
1659.58,599.5,2.972
1673.97,602,2.916
1688.418,604.5,2.858
1702.848,607,2.799
1717.29,609.5,2.736
1731.74,612,2.672
1746.14,614.5,2.607
1760.62,617,2.539
1775.07,619.5,2.472
1789.51,622,2.401
1804.014,624.5,2.328
1818.51,627,2.25
1833.01,629.5,2.17
1847.61,632,2.086
1862.175,634.5,2
1876.77,637,1.911
1891.34,639.5,1.815
1905.87,642,1.719
1920.32,644.5,1.623
1934.76,647,1.528
1949.14,649.5,1.439
1963.416,652,1.361
1977.69,654.5,1.292
1991.94,657,1.239
2006.169,659.5,1.2
2020.51,662,1.172
2034.87,664.5,1.153
2049.37,667,1.141
2063.88,669.5,1.13
2078.49,672,1.123
2093.082,674.5,1.115
2107.7,677,1.106
2122.27,679.5,1.101
2136.94,682,1.092
2151.5,684.5,1.085
2166.108,687,1.078
2180.7,689.5,1.071
2195.35,692,1.065
2210,694.5,1.058
2224.66,697,1.05
2239.3,699.5,1.043
2254.01,702,1.036
2268.69,704.5,1.03
2283.381,707,1.022
2298.06,709.5,1.016
2312.724,712,1.009
2327.47,714.5,1.003
2342.18,717,0.997
2356.88,719.5,0.993
2371.617,722,0.987
2386.34,724.5,0.981
2401.1,727,0.976
2415.843,729.5,0.972
2430.59,732,0.966
2445.35,734.5,0.963
2460.16,737,0.956
2474.92,739.5,0.952
2489.7,742,0.947
2504.45,744.5,0.943
2519.24,747,0.939
2533.977,749.5,0.937
2548.79,752,0.933
2563.56,754.5,0.929
2578.36,757,0.927
2593.15,759.5,0.923
2607.96,762,0.919
2622.78,764.5,0.917
2637.62,767,0.915
2652.42,769.5,0.912
2667.264,772,0.909
2682.129,774.5,0.905
2697,777,0.903
2711.841,779.5,0.899
2726.7,782,0.897
2741.53,784.5,0.895
2756.42,787,0.893
2771.29,789.5,0.889
2786.136,792,0.887
2801.02,794.5,0.884
2815.88,797,0.882
2830.78,799.5,0.881
2845.69,802,0.878
2860.617,804.5,0.874
2875.503,807,0.872
2890.41,809.5,0.87
2905.31,812,0.869
2920.22,814.5,0.868
2935.14,817,0.863
2950.11,819.5,0.862
2965.06,822,0.86
2979.98,824.5,0.856
2994.87,827,0.856
3009.85,829.5,0.854
3024.8,832,0.852
3039.73,834.5,0.85
3054.73,837,0.849
3069.7,839.5,0.846
3084.675,842,0.845
3099.66,844.5,0.843
3114.67,847,0.841
3129.67,849.5,0.839
3144.63,852,0.837
3159.64,854.5,0.835
3174.64,857,0.833
3189.66,859.5,0.831
3204.67,862,0.829
3219.66,864.5,0.829
3234.62,867,0.827
3249.64,869.5,0.826
3264.64,872,0.825
3279.65,874.5,0.822
3294.69,877,0.819
3309.72,879.5,0.818
3324.771,882,0.816
3339.79,884.5,0.816
3354.82,887,0.814
3369.83,889.5,0.812
3384.83,892,0.81
3399.84,894.5,0.809
3414.83,897,0.809
3429.86,899.5,0.806
3444.87,902,0.806
3459.9,904.5,0.804
3474.94,907,0.803
3489.98,909.5,0.802
3505.04,912,0.8
3520.08,914.5,0.8
3535.113,917,0.798
3550.16,919.5,0.797
3565.32,922,0.796
3580.43,924.5,0.794
3595.58,927,0.793
3610.73,929.5,0.793
3625.86,932,0.792
3640.98,934.5,0.79
3656.11,937,0.788
3671.2,939.5,0.789
3686.31,942,0.785
3701.403,944.5,0.787
3716.51,947,0.786
3731.67,949.5,0.784
3746.8,952,0.781
3761.96,954.5,0.782
3777.126,957,0.781
3792.29,959.5,0.781
3807.44,962,0.778
3822.61,964.5,0.779
3837.807,967,0.776
3853.01,969.5,0.777
3868.149,972,0.775
3883.3,974.5,0.775
3898.47,977,0.774
3913.61,979.5,0.773
3928.74,982,0.772
3943.91,984.5,0.771
3959.04,987,0.771
3974.268,989.5,0.771
3989.52,992,0.77
4004.74,994.5,0.77
4019.92,997,0.769
4035.13,999.5,0.767
4050.333,1002,0.767
4065.555,1004.5,0.766
4080.79,1007,0.766
4095.984,1009.5,0.765
4111.18,1012,0.763
4126.39,1014.5,0.763
4141.62,1017,0.765
4156.81,1019.5,0.763
4171.968,1022,0.761
4187.14,1024.5,0.761
4202.331,1027,0.76
4217.52,1029.5,0.76
4232.727,1032,0.758
4247.9,1034.5,0.759
4263.14,1037,0.759
4278.4,1039.5,0.757
4293.69,1042,0.756
4309.04,1044.5,0.755
4324.35,1047,0.755
4339.61,1049.5,0.755
4354.94,1052,0.754
4370.229,1054.5,0.753
4385.517,1057,0.752
4400.87,1059.5,0.752
4416.17,1062,0.75
4431.41,1064.5,0.752
4446.684,1067,0.751
4461.96,1069.5,0.75