File: Wood/Calibration_Data/FSRI/FSRI_Wood_LFA_N2_Parallel_R1.csv
Temperature (K),Mean Diffusivity (mm^2/s)
298.0,0.143
323.0,0.15
348.0,0.153
373.0,0.149
423.0,0.14
473.0,0.133
523.0,0.128
573.0,0.128