File: Wood/Calibration_Data/FSRI/FSRI_Wood_Parallel_Cone_75kW_hor_R3.csv
Time,Mass (g),HRRPUA (kW/m2)
0.0,99.68,1.3
5.0,99.35,3.8
10.0,98.66,9.5
15.0,97.85,10.8
20.0,96.87,126.8
25.0,96.11,238.3
30.0,95.35,286.7
35.0,94.66,279.9
40.0,94.12,254.5
45.0,93.5,237.6
50.0,92.9,219.2
55.0,92.36,204.3
60.0,91.74,194.6
65.0,91.16,184.9
70.0,90.65,174.2
75.0,90.15,172.4
80.0,89.71,166.9
85.0,89.21,164.6
90.0,88.71,157.7
95.0,88.21,152.8
100.0,87.77,149.7
105.0,87.3,148.0
110.0,86.81,146.7
115.0,86.44,144.3
120.0,85.99,140.7
125.0,85.54,137.7
130.0,85.06,133.1
135.0,84.62,136.0
140.0,84.17,133.8
145.0,83.74,131.8
150.0,83.35,129.9
155.0,83.01,126.7
160.0,82.54,127.4
165.0,82.16,127.0
170.0,81.69,124.4
175.0,81.29,126.1
180.0,80.89,122.0
185.0,80.5,120.2
190.0,80.13,118.3
195.0,79.76,116.0
200.0,79.36,115.3
205.0,78.96,114.8
210.0,78.58,114.6
215.0,78.19,112.8
220.0,77.81,113.6
225.0,77.45,111.8
230.0,77.09,110.0
235.0,76.71,113.4
240.0,76.35,113.1
245.0,75.94,110.6
250.0,75.6,109.9
255.0,75.23,108.7
260.0,74.85,107.4
265.0,74.55,107.8
270.0,74.15,106.8
275.0,73.8,107.7
280.0,73.44,107.4
285.0,73.13,106.2
290.0,72.74,105.5
295.0,72.46,103.8
300.0,72.15,104.7
305.0,71.78,102.8
310.0,71.39,103.9
315.0,71.04,105.3
320.0,70.69,107.7
325.0,70.33,106.0
330.0,69.98,106.4
335.0,69.69,103.4
340.0,69.34,100.3
345.0,68.99,103.3
350.0,68.65,104.3
355.0,68.3,101.9
360.0,67.97,101.2
365.0,67.61,99.1
370.0,67.31,102.0
375.0,67.01,103.8
380.0,66.62,101.7
385.0,66.34,100.9
390.0,65.96,101.5
395.0,65.58,102.8
400.0,65.29,103.2
405.0,65.0,100.0
410.0,64.66,99.4
415.0,64.32,98.3
420.0,63.94,97.0
425.0,63.63,97.6
430.0,63.28,95.7
435.0,62.98,100.1
440.0,62.67,98.7
445.0,62.37,99.8
450.0,62.03,98.5
455.0,61.65,97.5
460.0,61.36,100.3
465.0,61.02,100.3
470.0,60.65,101.7
475.0,60.39,101.8
480.0,60.08,98.9
485.0,59.75,99.1
490.0,59.36,99.8
495.0,59.04,99.3
500.0,58.71,99.6
505.0,58.41,99.6
510.0,58.09,99.0
515.0,57.84,97.2
520.0,57.51,100.0
525.0,57.12,100.6
530.0,56.79,99.0
535.0,56.51,100.6
540.0,56.15,100.4
545.0,55.83,100.5
550.0,55.56,100.1
555.0,55.27,98.7
560.0,54.92,96.3
565.0,54.53,98.9
570.0,54.24,99.8
575.0,53.94,99.5
580.0,53.65,98.0
585.0,53.32,98.3
590.0,53.03,99.0
595.0,52.73,97.8
600.0,52.4,97.2
605.0,52.06,97.9
610.0,51.75,98.2
615.0,51.42,96.7
620.0,51.13,98.7
625.0,50.81,98.9
630.0,50.53,98.7
635.0,50.15,99.2
640.0,49.84,99.7
645.0,49.52,98.6
650.0,49.23,98.4
655.0,48.91,99.2
660.0,48.61,97.7
665.0,48.33,98.9
670.0,48.01,99.9
675.0,47.68,99.6
680.0,47.35,99.2
685.0,47.02,98.3
690.0,46.73,99.1
695.0,46.45,99.0
700.0,46.13,97.3
705.0,45.84,99.2
710.0,45.45,99.1
715.0,45.17,97.3
720.0,44.85,99.9
725.0,44.52,99.1
730.0,44.28,100.5
735.0,44.0,101.0
740.0,43.65,98.9
745.0,43.34,100.7
750.0,43.0,99.2
755.0,42.71,97.8
760.0,42.4,97.5
765.0,42.1,98.0
770.0,41.78,97.3
775.0,41.53,99.4
780.0,41.16,100.4
785.0,40.85,99.4
790.0,40.48,100.1
795.0,40.22,99.8
800.0,39.91,99.7
805.0,39.64,100.5
810.0,39.31,100.4
815.0,39.0,99.6
820.0,38.65,101.5
825.0,38.32,101.9
830.0,37.98,102.9
835.0,37.67,102.3
840.0,37.41,104.1
845.0,37.09,102.0
850.0,36.76,102.4
855.0,36.41,103.4
860.0,36.1,103.7
865.0,35.73,104.1
870.0,35.46,103.3
875.0,35.13,104.6
880.0,34.86,103.2
885.0,34.55,104.4
890.0,34.16,105.4
895.0,33.81,107.6
900.0,33.49,107.4
905.0,33.18,110.1
910.0,32.86,106.8
915.0,32.58,107.5
920.0,32.24,109.7
925.0,31.87,107.8
930.0,31.51,108.7
935.0,31.18,108.3
940.0,30.86,109.1
945.0,30.53,108.6
950.0,30.22,107.8
955.0,29.9,106.6
960.0,29.55,111.7
965.0,29.15,111.5
970.0,28.86,110.3
975.0,28.52,112.6
980.0,28.2,111.9
985.0,27.92,111.3
990.0,27.58,111.8
995.0,27.25,109.1
1000.0,26.87,109.4
1005.0,26.52,109.7
1010.0,26.2,107.6
1015.0,25.92,109.4
1020.0,25.61,107.5
1025.0,25.31,107.5
1030.0,24.94,109.9
1035.0,24.62,108.2
1040.0,24.31,105.6
1045.0,24.04,103.7
1050.0,23.72,105.2
1055.0,23.48,102.9
1060.0,23.2,101.1
1065.0,22.91,98.4
1070.0,22.6,98.4
1075.0,22.35,98.7
1080.0,22.09,96.1
1085.0,21.82,95.0
1090.0,21.6,92.5
1095.0,21.36,91.9
1100.0,21.09,89.2
1105.0,20.84,87.6
1110.0,20.65,85.8
1115.0,20.42,84.2
1120.0,20.2,84.2
1125.0,20.04,81.9
1130.0,19.86,78.9
1135.0,19.68,76.7
1140.0,19.47,74.0
1145.0,19.32,70.9
1150.0,19.17,67.2
1155.0,19.02,66.2
1160.0,18.92,63.6
1165.0,18.85,61.9
1170.0,18.72,57.1
1175.0,18.58,53.8
1180.0,18.48,50.1
1185.0,18.39,46.4
1190.0,18.32,43.3
1195.0,18.29,41.6
1200.0,18.25,40.0
1205.0,18.22,37.9
1210.0,18.09,35.9
1215.0,18.01,35.2
1220.0,17.94,35.0
1225.0,17.87,34.5
1230.0,17.88,33.6
1235.0,17.84,33.8
1240.0,17.79,32.4
1245.0,17.66,32.0
1250.0,17.6,31.3
1255.0,17.53,31.7
1260.0,17.49,32.1
1265.0,17.43,31.9
1270.0,17.43,30.4
1275.0,17.39,30.8
1280.0,17.33,31.0
1285.0,17.28,30.5
1290.0,17.18,30.6
1295.0,17.11,30.3
1300.0,17.08,30.1
1305.0,17.02,31.0
1310.0,17.04,30.6
1315.0,17.02,30.7
1320.0,16.97,30.6
1325.0,16.83,30.3
1330.0,16.78,29.5
1335.0,16.76,29.9
1340.0,16.68,29.5
1345.0,16.65,29.5
1350.0,16.69,30.2
1355.0,16.6,29.8
1360.0,16.48,29.4
1365.0,16.43,28.7
1370.0,16.39,29.4
1375.0,16.34,29.7
1377.0,16.32,29.2