File: Wood/Calibration_Data/FSRI/FSRI_Wood_Perpendicular_Cone_75kW_hor_R1.csv
Time,Mass (g),HRRPUA (kW/m2)
0.0,98.52,4.9
4.0,98.57,6.7
8.0,98.35,8.3
12.0,98.05,8.3
16.0,97.29,7.9
20.0,96.4,7.9
24.0,95.6,60.8
28.0,94.73,182.9
32.0,94.0,288.0
36.0,93.26,330.5
40.0,92.55,348.0
44.0,91.83,330.0
48.0,91.18,323.2
52.0,90.54,297.4
56.0,89.96,284.2
60.0,89.41,262.8
64.0,88.87,254.6
68.0,88.36,239.3
72.0,87.83,231.4
76.0,87.31,225.5
80.0,86.75,214.1
84.0,86.21,206.7
88.0,85.74,201.5
92.0,85.25,200.3
96.0,84.78,192.7
100.0,84.33,187.3
104.0,83.88,186.7
108.0,83.42,174.5
112.0,82.94,175.0
116.0,82.48,172.8
120.0,82.01,163.2
124.0,81.55,165.2
128.0,81.12,160.0
132.0,80.7,158.2
136.0,80.26,158.9
140.0,79.82,155.0
144.0,79.42,149.6
148.0,79.01,150.9
152.0,78.55,147.7
156.0,78.11,145.6
160.0,77.72,144.7
164.0,77.25,145.7
168.0,76.85,144.3
172.0,76.44,143.2
176.0,76.06,138.9
180.0,75.65,140.8
184.0,75.23,139.8
188.0,74.82,137.2
192.0,74.39,134.8
196.0,74.0,136.4
200.0,73.59,132.9
204.0,73.19,127.6
208.0,72.79,129.1
212.0,72.43,129.1
216.0,72.06,127.4
220.0,71.64,125.1
224.0,71.28,125.7
228.0,70.85,125.2
232.0,70.47,125.5
236.0,70.06,124.3
240.0,69.71,120.6
244.0,69.32,123.6
248.0,69.01,123.5
252.0,68.59,119.1
256.0,68.23,118.2
260.0,67.82,121.4
264.0,67.45,120.0
268.0,67.06,119.3
272.0,66.66,120.3
276.0,66.31,120.9
280.0,65.97,121.4
284.0,65.62,122.8
288.0,65.26,121.6
292.0,64.89,122.4
296.0,64.51,119.6
300.0,64.14,121.4
304.0,63.78,118.5
308.0,63.44,120.1
312.0,63.09,120.2
316.0,62.73,119.1
320.0,62.38,119.4
324.0,62.0,117.7
328.0,61.64,120.4
332.0,61.25,119.5
336.0,60.92,120.1
340.0,60.53,121.5
344.0,60.17,119.4
348.0,59.82,121.7
352.0,59.47,123.7
356.0,59.15,123.8
360.0,58.78,125.7
364.0,58.4,121.8
368.0,58.03,122.7
372.0,57.68,122.6
376.0,57.3,123.4
380.0,56.94,125.8
384.0,56.62,126.0
388.0,56.29,125.2
392.0,55.91,124.1
396.0,55.62,124.7
400.0,55.22,126.4
404.0,54.87,126.7
408.0,54.5,127.0
412.0,54.14,126.9
416.0,53.81,128.4
420.0,53.46,126.8
424.0,53.12,127.8
428.0,52.83,128.1
432.0,52.45,130.1
436.0,52.14,130.8
440.0,51.78,128.8
444.0,51.35,131.3
448.0,50.98,129.4
452.0,50.66,131.8
456.0,50.34,134.9
460.0,50.02,134.7
464.0,49.68,133.5
468.0,49.34,134.4
472.0,49.0,136.7
476.0,48.59,137.2
480.0,48.2,132.1
484.0,47.88,133.7
488.0,47.56,134.1
492.0,47.21,137.8
496.0,46.89,137.0
500.0,46.57,138.1
504.0,46.17,138.2
508.0,45.81,138.2
512.0,45.43,139.1
516.0,45.09,138.8
520.0,44.76,142.5
524.0,44.4,143.2
528.0,44.08,141.1
532.0,43.7,140.8
536.0,43.37,143.8
540.0,43.0,141.2
544.0,42.66,142.1
548.0,42.26,142.3
552.0,41.92,143.1
556.0,41.52,143.2
560.0,41.19,144.6
564.0,40.8,145.0
568.0,40.49,147.2
572.0,40.11,147.7
576.0,39.73,147.5
580.0,39.36,148.6
584.0,39.01,148.7
588.0,38.59,149.4
592.0,38.22,151.0
596.0,37.84,153.0
600.0,37.47,151.9
604.0,37.09,152.5
608.0,36.71,156.8
612.0,36.32,156.5
616.0,35.92,155.0
620.0,35.56,156.9
624.0,35.11,156.7
628.0,34.71,160.2
632.0,34.31,163.0
636.0,33.94,165.9
640.0,33.56,164.9
644.0,33.2,164.9
648.0,32.8,165.5
652.0,32.39,169.3
656.0,32.01,168.1
660.0,31.56,168.0
664.0,31.17,168.0
668.0,30.79,166.4
672.0,30.38,164.8
676.0,30.01,162.7
680.0,29.65,160.3
684.0,29.3,160.9
688.0,28.93,161.2
692.0,28.51,158.7
696.0,28.14,159.9
700.0,27.78,158.3
704.0,27.43,161.9
708.0,27.05,158.9
712.0,26.73,158.0
716.0,26.35,153.7
720.0,26.06,154.4
724.0,25.69,150.2
728.0,25.33,150.6
732.0,24.98,148.9
736.0,24.67,148.4
740.0,24.34,147.1
744.0,24.03,144.6
748.0,23.75,142.8
752.0,23.49,142.4
756.0,23.19,140.2
760.0,22.9,136.1
764.0,22.55,131.9
768.0,22.26,132.8
772.0,22.03,127.9
776.0,21.77,125.4
780.0,21.54,128.6
784.0,21.32,121.1
788.0,21.05,123.5
792.0,20.81,120.2
796.0,20.61,118.1
800.0,20.33,116.1
804.0,20.14,111.3
808.0,19.92,108.5
812.0,19.74,106.2
816.0,19.54,105.3
820.0,19.41,100.6
824.0,19.25,97.7
828.0,19.1,95.4
832.0,18.95,91.8
836.0,18.72,89.4
840.0,18.57,87.2
844.0,18.43,83.0
848.0,18.31,80.4
852.0,18.19,77.9
856.0,18.06,77.7
860.0,18.03,74.1
864.0,17.92,72.2
868.0,17.81,71.3
872.0,17.68,68.6
876.0,17.6,64.6
880.0,17.52,62.6
884.0,17.45,60.9
888.0,17.37,58.8
892.0,17.31,57.3
896.0,17.3,56.5
900.0,17.27,55.8
904.0,17.2,52.9
908.0,17.11,50.6
912.0,17.02,48.8
916.0,16.98,48.4
920.0,16.92,46.6
924.0,16.86,45.1
928.0,16.84,44.1
932.0,16.84,43.6
936.0,16.87,42.8
940.0,16.79,42.4
944.0,16.74,41.1
948.0,16.64,39.8
952.0,16.55,41.1
956.0,16.5,40.2
960.0,16.46,39.7
964.0,16.37,39.2
968.0,16.39,39.0
972.0,16.41,40.3
976.0,16.37,40.4
980.0,16.31,39.9
984.0,16.22,40.0
988.0,16.15,40.7
992.0,16.09,41.1
996.0,16.09,41.2
1000.0,16.05,40.3
1004.0,16.03,40.2
1008.0,16.08,39.2
1012.0,16.01,39.9
1016.0,15.94,39.8
1020.0,15.79,41.2
1022.0,15.77,40.4