File: Wood/Calibration_Data/FSRI/FSRI_Wood_Parallel_Cone_25kW_hor_R1.csv
Time,Mass (g),HRRPUA (kW/m2)
0.0,86.22,1.4
8.0,86.49,8.0
16.0,86.36,9.1
24.0,86.3,8.7
32.0,86.27,2.4
40.0,86.21,-0.4
48.0,86.13,-0.9
56.0,85.97,-0.8
64.0,85.87,-0.5
72.0,85.86,-0.5
80.0,85.75,-0.7
88.0,85.2,-1.5
96.0,84.43,20.3
104.0,83.67,135.8
112.0,82.99,161.1
120.0,82.36,151.0
128.0,81.74,134.6
136.0,81.12,123.9
144.0,80.69,116.0
152.0,80.2,103.3
160.0,79.75,97.7
168.0,79.35,89.9
176.0,78.86,84.0
184.0,78.57,79.6
192.0,78.22,74.8
200.0,77.87,68.3
208.0,77.51,67.3
216.0,77.13,63.3
224.0,76.89,62.4
232.0,76.59,61.0
240.0,76.29,60.0
248.0,75.88,57.6
256.0,75.63,60.6
264.0,75.37,57.4
272.0,75.07,57.3
280.0,74.68,58.5
288.0,74.42,61.2
296.0,74.14,63.7
304.0,73.85,59.9
312.0,73.56,59.3
320.0,73.16,54.0
328.0,72.95,55.6
336.0,72.66,54.9
344.0,72.36,52.8
352.0,72.07,52.0
360.0,71.68,52.3
368.0,71.46,53.6
376.0,71.19,53.8
384.0,70.87,53.4
392.0,70.51,58.0
400.0,70.19,55.9
408.0,69.99,53.7
416.0,69.68,54.3
424.0,69.4,53.4
432.0,69.02,52.9
440.0,68.73,51.8
448.0,68.52,50.2
456.0,68.25,49.5
464.0,67.95,50.2
472.0,67.63,50.7
480.0,67.4,50.9
488.0,67.11,50.4
496.0,66.83,51.6
504.0,66.53,52.7
512.0,66.17,53.0
520.0,65.93,53.3
528.0,65.67,50.8
536.0,65.4,53.8
544.0,65.13,54.5
552.0,64.75,54.7
560.0,64.55,54.2
568.0,64.26,52.5
576.0,63.98,52.4
584.0,63.7,54.9
592.0,63.32,56.1
600.0,63.09,54.1
608.0,62.86,54.0
616.0,62.57,54.9
624.0,62.29,56.1
632.0,61.94,56.2
640.0,61.71,53.9
648.0,61.44,54.2
656.0,61.17,51.0
664.0,60.9,52.3
672.0,60.57,54.3
680.0,60.23,55.8
688.0,60.02,55.0
696.0,59.76,53.1
704.0,59.48,53.1
712.0,59.19,54.1
720.0,58.82,54.4
728.0,58.6,55.6
736.0,58.32,55.2
744.0,58.07,54.0
752.0,57.8,53.8
760.0,57.48,54.0
768.0,57.13,56.3
776.0,56.91,57.1
784.0,56.67,54.8
792.0,56.39,55.7
800.0,56.09,58.9
808.0,55.74,56.6
816.0,55.52,54.9
824.0,55.26,55.2
832.0,54.99,56.4
840.0,54.68,56.3
848.0,54.33,55.0
856.0,54.1,53.8
864.0,53.85,53.3
872.0,53.57,53.6
880.0,53.28,53.2
888.0,52.99,55.7
896.0,52.62,55.3
904.0,52.43,56.1
912.0,52.14,55.5
920.0,51.8,57.9
928.0,51.6,56.8
936.0,51.25,57.4
944.0,51.02,59.2
952.0,50.73,56.4
960.0,50.44,54.5
968.0,50.16,55.9
976.0,49.82,54.7
984.0,49.57,55.0
992.0,49.3,55.7
1000.0,49.04,57.9
1008.0,48.75,60.7
1016.0,48.43,59.0
1024.0,48.07,62.0
1032.0,47.86,64.5
1040.0,47.57,61.2
1048.0,47.28,62.1
1056.0,46.99,63.7
1064.0,46.59,64.1
1072.0,46.34,63.9
1080.0,46.09,64.6
1088.0,45.78,62.9
1096.0,45.47,64.9
1104.0,45.1,63.4
1112.0,44.8,66.1
1120.0,44.58,65.5
1128.0,44.29,66.0
1136.0,43.98,65.4
1144.0,43.62,68.8
1152.0,43.26,67.4
1160.0,43.04,67.9
1168.0,42.74,68.0
1176.0,42.42,67.9
1184.0,42.1,69.0
1192.0,41.69,69.3
1200.0,41.46,69.0
1208.0,41.16,70.0
1216.0,40.84,71.7
1224.0,40.48,73.1
1232.0,40.0,73.7
1240.0,39.83,74.4
1248.0,39.52,73.7
1256.0,39.19,77.3
1264.0,38.83,77.3
1272.0,38.4,75.9
1280.0,38.14,75.8
1288.0,37.8,76.7
1296.0,37.47,79.5
1304.0,37.04,80.3
1312.0,36.63,83.4
1320.0,36.36,82.6
1328.0,35.98,81.6
1336.0,35.58,81.8
1344.0,35.13,82.2
1352.0,34.82,83.6
1360.0,34.47,82.7
1368.0,34.09,83.2
1376.0,33.73,81.9
1384.0,33.31,81.1
1392.0,32.86,84.4
1400.0,32.56,85.3
1408.0,32.21,83.2
1416.0,31.81,84.5
1424.0,31.35,84.2
1432.0,30.92,83.6
1440.0,30.61,85.4
1448.0,30.25,84.2
1456.0,29.85,84.0
1464.0,29.45,85.8
1472.0,28.98,84.7
1480.0,28.7,87.0
1488.0,28.32,85.5
1496.0,27.95,84.1
1504.0,27.55,83.9
1512.0,27.09,85.1
1520.0,26.78,83.7
1528.0,26.43,84.1
1536.0,26.06,83.3
1544.0,25.69,80.9
1552.0,25.23,80.9
1560.0,24.97,80.7
1568.0,24.63,79.2
1576.0,24.24,81.0
1584.0,23.9,80.8
1592.0,23.48,81.3
1600.0,23.24,80.2
1608.0,22.92,81.7
1616.0,22.58,82.1
1624.0,22.16,81.3
1632.0,21.82,79.5
1640.0,21.6,77.0
1648.0,21.3,76.2
1656.0,21.0,76.0
1664.0,20.59,74.2
1672.0,20.31,72.7
1680.0,20.11,74.5
1688.0,19.83,71.1
1696.0,19.59,69.3
1704.0,19.3,66.3
1712.0,18.99,65.6
1720.0,18.83,65.0
1728.0,18.59,64.1
1736.0,18.36,60.6
1744.0,18.15,60.2
1752.0,17.84,61.5
1760.0,17.71,60.8
1768.0,17.51,59.0
1776.0,17.33,54.5
1784.0,17.11,55.1
1792.0,16.89,52.7
1800.0,16.8,49.0
1808.0,16.63,48.7
1816.0,16.48,47.2
1824.0,16.33,44.9
1832.0,16.09,43.9
1840.0,16.05,43.6
1848.0,15.9,42.2
1856.0,15.79,42.0
1864.0,15.65,41.3
1872.0,15.43,40.0
1880.0,15.4,39.8
1888.0,15.28,39.1
1896.0,15.18,36.9
1904.0,15.04,37.0
1912.0,14.85,37.8
1920.0,14.83,36.8
1928.0,14.73,36.1
1936.0,14.61,36.7
1944.0,14.5,37.0
1952.0,14.34,37.7
1960.0,14.26,38.4
1968.0,14.2,38.7
1976.0,14.09,35.9
1984.0,13.98,35.9
1992.0,13.8,36.6
2000.0,13.79,35.2
2008.0,13.69,34.5
2016.0,13.63,34.1
2024.0,13.52,33.6
2032.0,13.33,33.9
2040.0,13.32,34.3
2048.0,13.22,33.5
2056.0,13.14,33.9
2064.0,13.02,32.4
2072.0,12.86,33.1
2080.0,12.88,33.0
2088.0,12.78,32.3
2096.0,12.7,31.7
2104.0,12.58,31.0
2112.0,12.47,31.6
2120.0,12.46,32.4
2128.0,12.39,31.9
2136.0,12.29,31.4
2144.0,12.22,32.7
2152.0,12.05,32.1
2160.0,12.07,32.3
2168.0,12.0,30.9
2176.0,11.94,30.2
2184.0,11.84,29.8
2192.0,11.7,29.2
2200.0,11.69,29.2
2208.0,11.62,29.4
2216.0,11.56,30.0
2224.0,11.49,30.9
2232.0,11.37,28.9
2240.0,11.27,29.8
2248.0,11.3,28.6
2256.0,11.21,29.5
2264.0,11.13,30.2
2272.0,11.01,27.8
2280.0,10.93,28.3
2288.0,10.96,27.3
2296.0,10.87,28.8
2304.0,10.82,27.1
2312.0,10.71,25.8
2320.0,10.61,29.0
2328.0,10.63,28.4
2336.0,10.54,26.2
2344.0,10.52,26.5
2352.0,10.44,26.6
2360.0,10.26,26.4
2368.0,10.32,26.3
2376.0,10.25,26.8
2384.0,10.18,26.8
2392.0,10.08,27.5
2399.0,9.99,27.6