File: Wood/Calibration_Data/FSRI/FSRI_Wood_Parallel_Cone_50kW_hor_R2.csv
Time,Mass (g),HRRPUA (kW/m2)
0.0,96.6,2.2
6.0,96.61,5.7
12.0,96.43,12.1
18.0,95.79,12.6
24.0,94.91,26.4
30.0,94.14,144.1
36.0,93.48,197.2
42.0,92.79,210.6
48.0,92.12,201.9
54.0,91.41,201.0
60.0,90.71,193.8
66.0,90.1,186.8
72.0,89.56,176.7
78.0,89.0,169.6
84.0,88.43,159.0
90.0,87.89,151.9
96.0,87.32,149.0
102.0,86.83,142.7
108.0,86.4,137.1
114.0,85.93,133.0
120.0,85.49,128.5
126.0,84.99,121.3
132.0,84.52,122.5
138.0,84.07,121.1
144.0,83.73,116.9
150.0,83.32,112.4
156.0,82.87,111.0
162.0,82.46,109.9
168.0,81.96,109.5
174.0,81.54,107.5
180.0,81.24,107.5
186.0,80.81,104.3
192.0,80.43,104.0
198.0,79.95,105.2
204.0,79.54,105.0
210.0,79.16,103.1
216.0,78.85,101.9
222.0,78.44,102.3
228.0,78.09,102.2
234.0,77.61,101.7
240.0,77.25,102.4
246.0,76.84,102.6
252.0,76.54,103.2
258.0,76.16,102.7
264.0,75.79,100.2
270.0,75.32,97.4
276.0,74.93,96.8
282.0,74.65,96.1
288.0,74.27,96.8
294.0,73.9,98.0
300.0,73.53,100.1
306.0,73.03,100.4
312.0,72.68,100.1
318.0,72.46,100.0
324.0,72.07,99.0
330.0,71.71,99.0
336.0,71.31,97.9
342.0,70.88,97.6
348.0,70.5,95.9
354.0,70.19,95.8
360.0,69.82,94.6
366.0,69.47,99.1
372.0,69.05,99.5
378.0,68.64,99.0
384.0,68.29,98.8
390.0,68.02,96.6
396.0,67.67,95.6
402.0,67.3,97.3
408.0,66.91,97.0
414.0,66.49,95.3
420.0,66.12,93.4
426.0,65.85,92.3
432.0,65.54,91.6
438.0,65.19,92.9
444.0,64.82,93.1
450.0,64.39,95.1
456.0,64.03,94.7
462.0,63.8,93.9
468.0,63.46,92.4
474.0,63.11,93.0
480.0,62.67,91.4
486.0,62.31,90.5
492.0,61.97,89.6
498.0,61.73,90.2
504.0,61.39,88.5
510.0,61.07,89.1
516.0,60.62,89.3
522.0,60.28,89.3
528.0,59.96,88.9
534.0,59.68,91.6
540.0,59.36,89.3
546.0,59.05,87.0
552.0,58.58,87.7
558.0,58.27,87.8
564.0,57.92,89.2
570.0,57.66,90.2
576.0,57.33,92.6
582.0,56.99,90.1
588.0,56.69,90.0
594.0,56.3,90.8
600.0,55.96,89.8
606.0,55.72,91.2
612.0,55.4,94.2
618.0,55.03,95.5
624.0,54.64,94.7
630.0,54.27,91.5
636.0,53.91,91.6
642.0,53.65,89.4
648.0,53.33,91.1
654.0,52.99,90.7
660.0,52.63,94.3
666.0,52.22,94.4
672.0,51.89,95.1
678.0,51.63,93.9
684.0,51.31,93.8
690.0,50.99,95.6
696.0,50.57,94.2
702.0,50.2,93.8
708.0,49.84,91.2
714.0,49.53,91.6
720.0,49.27,93.6
726.0,48.91,93.2
732.0,48.58,93.2
738.0,48.19,92.6
744.0,47.81,90.9
750.0,47.51,93.4
756.0,47.23,92.2
762.0,46.92,91.8
768.0,46.58,93.3
774.0,46.18,93.6
780.0,45.82,93.3
786.0,45.51,94.6
792.0,45.2,94.4
798.0,44.93,93.8
804.0,44.59,94.9
810.0,44.22,95.3
816.0,43.83,93.3
822.0,43.47,93.3
828.0,43.24,96.3
834.0,42.91,96.5
840.0,42.58,97.5
846.0,42.23,98.2
852.0,41.85,97.7
858.0,41.54,98.4
864.0,41.28,99.3
870.0,40.91,100.7
876.0,40.56,100.7
882.0,40.25,97.2
888.0,39.86,98.9
894.0,39.48,99.8
900.0,39.19,101.2
906.0,38.89,101.4
912.0,38.55,103.0
918.0,38.2,100.2
924.0,37.8,100.4
930.0,37.46,100.8
936.0,37.13,99.2
942.0,36.83,98.0
948.0,36.54,100.2
954.0,36.19,101.0
960.0,35.79,102.3
966.0,35.44,100.5
972.0,35.11,100.0
978.0,34.81,102.5
984.0,34.46,102.1
990.0,34.13,102.0
996.0,33.75,103.4
1002.0,33.31,103.7
1008.0,32.95,101.4
1014.0,32.66,103.8
1020.0,32.32,102.4
1026.0,31.97,105.0
1032.0,31.64,105.0
1038.0,31.19,103.7
1044.0,30.86,102.7
1050.0,30.53,105.0
1056.0,30.22,105.0
1062.0,29.85,108.7
1068.0,29.52,107.0
1074.0,29.05,107.5
1080.0,28.69,105.4
1086.0,28.42,106.3
1092.0,28.06,107.6
1098.0,27.69,106.7
1104.0,27.33,106.7
1110.0,26.94,102.7
1116.0,26.55,104.4
1122.0,26.26,104.8
1128.0,25.96,105.9
1134.0,25.62,102.3
1140.0,25.3,102.8
1146.0,24.89,103.2
1152.0,24.43,104.2
1158.0,24.12,102.6
1164.0,23.84,103.1
1170.0,23.57,103.8
1176.0,23.25,101.9
1182.0,22.96,97.8
1188.0,22.56,94.9
1194.0,22.25,97.1
1200.0,21.97,96.5
1206.0,21.75,97.6
1212.0,21.45,93.7
1218.0,21.15,94.8
1224.0,20.78,94.4
1230.0,20.44,94.6
1236.0,20.18,90.3
1242.0,20.04,88.3
1248.0,19.82,89.4
1254.0,19.55,86.0
1260.0,19.24,84.3
1266.0,18.91,82.1
1272.0,18.69,81.9
1278.0,18.57,80.3
1284.0,18.37,79.2
1290.0,18.17,77.1
1296.0,17.95,74.4
1302.0,17.66,74.0
1308.0,17.48,70.4
1314.0,17.44,69.8
1320.0,17.27,64.6
1326.0,17.1,63.5
1332.0,16.93,63.1
1338.0,16.64,60.6
1344.0,16.52,58.6
1350.0,16.52,57.0
1356.0,16.41,54.6
1362.0,16.32,53.1
1368.0,16.08,51.5
1374.0,15.97,49.8
1380.0,15.87,47.8
1386.0,15.93,44.3
1392.0,15.87,41.7
1398.0,15.77,40.9
1404.0,15.69,40.2
1410.0,15.46,39.4
1416.0,15.4,38.3
1422.0,15.47,36.8
1428.0,15.41,37.9
1434.0,15.34,38.3
1440.0,15.25,36.4
1446.0,15.05,36.2
1452.0,14.98,34.8
1458.0,15.05,35.1
1464.0,15.0,34.9
1470.0,14.94,34.3
1476.0,14.78,34.9
1482.0,14.62,34.4
1488.0,14.55,34.8
1494.0,14.64,34.7
1500.0,14.57,33.7
1506.0,14.54,34.2
1512.0,14.4,33.0
1518.0,14.25,33.2
1524.0,14.31,33.7