File: Wood/Calibration_Data/FSRI/FSRI_Wood_LFA_N2_Perpendicular_R3.csv
Temperature (K),Mean Diffusivity (mm^2/s)
298.0,0.377
323.0,0.438
348.0,0.398
373.0,0.365
423.0,0.324
473.0,0.298
523.0,0.284
573.0,0.278