File: Wood/Calibration_Data/FSRI/FSRI_Wood_Perpendicular_Cone_25kW_hor_R1.csv
Time,Mass (g),HRRPUA (kW/m2)
0.0,102.06,-3.5
7.0,101.86,1.7
14.0,101.68,13.4
21.0,101.62,10.9
28.0,101.58,2.0
35.0,101.47,-1.8
42.0,101.37,-1.0
49.0,101.25,-1.2
56.0,101.1,1.7
63.0,101.06,3.1
70.0,101.01,6.8
77.0,100.92,7.5
84.0,100.8,11.1
91.0,100.62,9.9
98.0,100.53,10.5
105.0,100.32,10.8
112.0,99.74,13.4
119.0,99.11,71.1
126.0,98.46,130.6
133.0,97.76,153.1
140.0,97.2,155.0
147.0,96.7,143.9
154.0,96.17,134.0
161.0,95.67,126.5
168.0,95.2,119.7
175.0,94.63,112.5
182.0,94.24,105.7
189.0,93.84,100.8
196.0,93.42,100.3
203.0,93.03,97.6
210.0,92.57,92.0
217.0,92.13,88.4
224.0,91.83,84.3
231.0,91.44,79.7
238.0,91.06,78.0
245.0,90.73,76.9
252.0,90.3,73.0
259.0,89.88,71.0
266.0,89.61,70.9
273.0,89.25,68.3
280.0,88.85,67.6
287.0,88.52,67.9
294.0,88.11,64.1
301.0,87.72,63.3
308.0,87.44,62.7
315.0,87.07,64.6
322.0,86.73,62.2
329.0,86.35,62.2
336.0,85.93,60.2
343.0,85.54,58.5
350.0,85.31,56.4
357.0,84.93,55.5
364.0,84.58,54.5
371.0,84.27,53.1
378.0,83.84,52.3
385.0,83.5,51.7
392.0,83.24,51.7
399.0,82.88,52.2
406.0,82.57,49.7
413.0,82.24,48.2
420.0,81.81,48.6
427.0,81.57,48.3
434.0,81.26,47.0
441.0,80.92,46.5
448.0,80.61,46.0
455.0,80.19,45.1
462.0,79.89,46.0
469.0,79.65,46.3
476.0,79.35,45.4
483.0,79.02,43.8
490.0,78.73,44.7
497.0,78.32,43.4
504.0,78.04,40.8
511.0,77.77,40.4
518.0,77.47,40.4
525.0,77.16,39.7
532.0,76.86,39.2
539.0,76.52,39.9
546.0,76.22,39.1
553.0,75.98,38.9
560.0,75.68,38.1
567.0,75.39,37.4
574.0,75.1,37.8
581.0,74.71,36.7
588.0,74.49,35.2
595.0,74.22,36.4
602.0,73.95,36.2
609.0,73.68,35.6
616.0,73.38,35.3
623.0,73.06,34.8
630.0,72.79,33.6
637.0,72.59,33.5
644.0,72.3,33.5
651.0,72.0,32.4
658.0,71.75,34.5
665.0,71.39,34.9
672.0,71.21,35.1
679.0,70.97,36.3
686.0,70.68,37.1
693.0,70.44,38.4
700.0,70.15,38.8
707.0,69.85,36.7
714.0,69.64,36.1
721.0,69.39,35.1
728.0,69.14,37.2
735.0,68.9,35.3
742.0,68.61,35.2
749.0,68.32,34.4
756.0,68.09,35.4
763.0,67.92,33.8
770.0,67.66,31.5
777.0,67.42,30.9
784.0,67.22,31.0
791.0,66.91,33.0
798.0,66.62,33.7
805.0,66.47,34.5
812.0,66.25,33.7
819.0,65.98,34.5
826.0,65.75,34.4
833.0,65.53,34.8
840.0,65.19,33.9
847.0,65.02,36.0
854.0,64.81,36.3
861.0,64.58,37.8
868.0,64.33,36.5
875.0,64.09,36.8
882.0,63.8,38.5
889.0,63.52,40.4
896.0,63.36,42.3
903.0,63.11,43.4
910.0,62.86,44.3
917.0,62.6,43.8
924.0,62.33,43.3
931.0,62.03,42.8
938.0,61.84,43.2
945.0,61.61,43.4
952.0,61.36,42.7
959.0,61.06,43.0
966.0,60.79,43.2
973.0,60.47,44.6
980.0,60.28,46.8
987.0,60.02,48.9
994.0,59.74,48.7
1001.0,59.48,46.8
1008.0,59.21,49.3
1015.0,58.86,51.2
1022.0,58.67,52.7
1029.0,58.38,54.8
1036.0,58.09,55.3
1043.0,57.79,56.9
1050.0,57.42,58.4
1057.0,57.19,61.4
1064.0,56.9,61.8
1071.0,56.59,60.4
1078.0,56.28,61.2
1085.0,55.98,62.6
1092.0,55.57,65.7
1099.0,55.28,69.5
1106.0,55.02,70.0
1113.0,54.68,72.0
1120.0,54.33,69.0
1127.0,53.99,70.0
1134.0,53.66,70.8
1141.0,53.27,73.2
1148.0,52.96,75.0
1155.0,52.6,74.9
1162.0,52.25,76.3
1169.0,51.87,77.1
1176.0,51.5,78.4
1183.0,51.03,77.6
1190.0,50.74,77.1
1197.0,50.35,81.2
1204.0,49.97,84.1
1211.0,49.58,89.0
1218.0,49.21,86.7
1225.0,48.72,85.5
1232.0,48.43,86.3
1239.0,48.04,87.3
1246.0,47.65,85.9
1253.0,47.26,88.5
1260.0,46.78,87.9
1267.0,46.38,88.3
1274.0,46.03,87.0
1281.0,45.67,86.7
1288.0,45.23,87.9
1295.0,44.88,90.3
1302.0,44.38,91.6
1309.0,43.99,94.7
1316.0,43.64,98.7
1323.0,43.24,95.8
1330.0,42.87,95.4
1337.0,42.45,95.2
1344.0,41.96,97.5
1351.0,41.63,96.9
1358.0,41.25,97.9
1365.0,40.86,97.0
1372.0,40.48,93.6
1379.0,40.08,92.5
1386.0,39.64,92.0
1393.0,39.21,92.3
1400.0,38.91,93.3
1407.0,38.51,92.0
1414.0,38.12,90.9
1421.0,37.76,91.9
1428.0,37.29,94.6
1435.0,36.91,92.9
1442.0,36.65,89.7
1449.0,36.27,89.4
1456.0,35.91,89.9
1463.0,35.56,88.4
1470.0,35.15,87.7
1477.0,34.77,88.7
1484.0,34.52,85.9
1491.0,34.18,85.9
1498.0,33.84,84.5
1505.0,33.51,84.6
1512.0,33.07,84.9
1519.0,32.83,83.5
1526.0,32.54,82.6
1533.0,32.23,81.5
1540.0,31.91,79.6
1547.0,31.59,79.4
1554.0,31.23,78.1
1561.0,30.98,78.6
1568.0,30.69,77.2
1575.0,30.38,76.1
1582.0,30.12,75.6
1589.0,29.83,74.3
1596.0,29.49,76.2
1603.0,29.2,75.1
1610.0,29.0,73.9
1617.0,28.71,74.0
1624.0,28.44,71.8
1631.0,28.14,71.1
1638.0,27.86,70.5
1645.0,27.55,70.6
1652.0,27.35,71.2
1659.0,27.1,70.1
1666.0,26.88,66.8
1673.0,26.61,65.9
1680.0,26.38,66.8
1687.0,26.05,65.7
1694.0,25.92,65.2
1701.0,25.67,63.6
1708.0,25.46,62.3
1715.0,25.24,62.8
1722.0,25.05,61.8
1729.0,24.75,62.0
1736.0,24.58,59.1
1743.0,24.42,58.1
1750.0,24.23,55.8
1757.0,24.07,56.7
1764.0,23.8,60.6
1771.0,23.68,57.2
1778.0,23.55,53.4
1785.0,23.38,51.6
1792.0,23.23,48.9
1799.0,23.04,49.3
1806.0,22.85,48.6
1813.0,22.79,52.1
1820.0,22.63,50.0
1827.0,22.5,47.6
1834.0,22.36,47.3
1841.0,22.18,45.1
1848.0,22.04,42.7
1855.0,22.01,41.9
1862.0,21.88,40.4
1869.0,21.8,39.8
1876.0,21.69,39.6
1883.0,21.58,38.2
1890.0,21.39,36.8
1897.0,21.4,36.2
1904.0,21.31,36.0
1911.0,21.24,35.6
1918.0,21.17,36.9
1925.0,21.0,34.8
1932.0,20.91,38.2
1939.0,20.89,36.8
1946.0,20.83,34.7
1953.0,20.76,34.4
1960.0,20.71,31.4
1967.0,20.54,28.3
1974.0,20.5,25.8
1981.0,20.47,24.7
1988.0,20.42,23.8
1995.0,20.34,25.3
2002.0,20.28,27.2
2009.0,20.14,27.3
2016.0,20.08,26.2
2023.0,20.08,23.8
2030.0,20.01,23.8
2037.0,19.96,24.7
2044.0,19.9,25.1
2051.0,19.81,25.5
2058.0,19.69,24.8
2065.0,19.71,24.8
2072.0,19.64,25.4
2077.0,19.61,24.8