File: Wood/Calibration_Data/FSRI/FSRI_CAPA_N2_40kW_R1.csv
Time [s],Mass [g],Back Surface Temperature [K],Top Surface Temperature [K]
0,12.377,293.104,416.511
4,12.372,293.198,541.077
8,12.2997,293.124,608.889
12,12.2785,293.157,639.497
16,12.246,293.221,
20,12.1757,293.521,
24,12.0802,294.109,
28,11.9837,295.163,
32,11.9461,296.638,
36,11.8427,298.64,
40,11.7725,301.054,
44,11.6645,303.846,
48,11.5579,306.93,
52,11.4844,310.191,
56,11.3846,313.706,
60,11.308,317.257,
64,11.2807,320.848,
68,11.1648,324.352,
72,11.075,327.962,
76,11.0182,331.521,
80,10.9628,334.994,
84,10.877,338.32,
88,10.7624,341.576,
92,10.6813,344.591,
96,10.6279,347.502,
100,10.592,350.279,
104,10.4535,352.958,
108,10.3915,355.498,
112,10.3398,357.667,
116,10.2225,359.478,
120,10.1978,360.831,
124,10.1085,361.82,
128,10.0573,362.311,
132,10.0182,362.017,
136,9.95709,361.869,
140,9.83638,362.089,
144,9.73721,362.479,
148,9.7045,363.08,
152,9.6613,363.853,
156,9.60102,364.726,
160,9.45837,365.734,
164,9.40943,366.912,
168,9.40335,368.234,
172,9.30036,369.66,
176,9.21075,371.458,
180,9.15609,373.328,
184,9.11486,375.513,
188,9.01169,377.841,
192,8.95276,380.296,
196,8.96349,383.051,
200,8.90483,385.895,
204,8.88219,388.8,
208,8.77026,391.674,
212,8.71612,394.638,
216,8.71183,397.65,
220,8.59563,400.596,
224,8.55794,403.496,
228,8.49527,406.513,
232,8.45768,409.257,
236,8.34507,411.961,
240,8.34362,414.646,
244,8.3283,417.23,
248,8.22806,419.817,
252,8.17807,422.207,
256,8.14067,424.419,
260,8.08252,426.726,
264,8.04003,428.854,
268,7.95665,430.929,
272,7.88488,432.921,
276,7.84904,434.871,
280,7.78529,436.7402,
284,7.70266,438.3941,
288,7.63583,440.059,
292,7.60041,441.809,
296,7.53319,443.303,
300,7.5239,444.876,
304,7.36851,446.296,
308,7.34503,447.748,
312,7.3222,449.131,
316,7.18563,450.419,
320,7.1878,451.711,
324,7.12555,452.51,
328,7.07525,453.682,
332,6.98471,454.701,
336,6.95181,455.954,
340,6.85849,457.009,
344,6.80323,457.875,
348,6.74185,458.815,
352,6.70702,459.52,
356,6.61573,460.408,
360,6.61889,461.155,
364,6.49735,462.017,
368,6.49742,462.993,
372,6.44426,463.611,
376,6.38899,464.136,
380,6.30001,464.732,
384,6.33369,465.179,
388,6.226,465.679,
392,6.1908,466.594,
396,6.14946,466.998,
400,6.10939,467.396,
404,6.04425,467.874,
408,6.03318,468.249,
412,5.97511,468.751,
416,5.9331,469.171,
420,5.91011,469.673,
424,5.86533,469.629,
428,5.77904,470.75,
432,5.77987,471.338,
436,5.71343,471.814,
440,5.69197,472.202,
444,5.66561,473.062,
448,5.65928,473.281,
452,5.59995,473.872,
456,5.52606,474.303,
460,5.55976,474.95,
464,5.49675,475.212,
468,5.49592,475.733,
472,5.45994,475.837,
476,5.39199,476.349,
480,5.39577,476.913,
484,5.33645,477.183,
488,5.29164,477.757,
492,5.3053,478.265,
496,5.2581,477.982,
500,5.23659,478.793,
504,5.22331,479.036,
508,5.16297,479.252,
512,5.15412,479.786,
516,5.12641,480.241,
520,5.11738,480.589,
524,5.11665,480.684,
528,5.00717,481.148,
532,5.02616,481.259,
536,5.00191,481.773,
540,4.9945,481.79,
544,4.9422,482.109,
548,4.92875,482.63,
552,4.93372,482.901,
556,4.86194,483.121,
560,4.85251,483.132,
564,4.87556,483.583,
568,4.83254,483.518,
572,4.8389,484.083,
576,4.79885,484.099,
580,4.78081,484.455,
584,4.7854,485.064,
588,4.78148,485.007,
592,4.75211,485.393,
596,4.71192,485.443,
600,4.71589,485.769,
604,4.67995,485.895,
608,4.7023,485.923,
612,4.68239,486.328,
616,4.64897,486.227,
620,4.63834,486.737,
624,4.59373,486.6262,
628,4.61057,486.7027,
632,4.58749,486.9504,
636,4.59134,487.391,
640,4.5386,487.381,
644,4.56312,487.526,
648,4.52202,487.763,
652,4.55178,487.961,
656,4.47866,488.368,
660,4.50524,488.347,
664,4.50361,488.334,
668,4.47947,488.894,
672,4.44958,488.682,
676,4.47979,488.483,
680,4.4625,488.798,
684,4.3865,489.178,
688,4.42608,489.378,
692,4.40678,489.299,
696,4.39104,489.554,
700,4.38239,489.362,
704,4.35986,489.507,
708,4.37264,489.623,
712,4.34596,489.986,
716,4.34334,490.371,
720,4.32464,490.519,
724,4.32176,490.355,
728,4.31551,490.618,
732,4.33183,490.449,
736,4.30951,490.835,
740,4.29888,490.51,
744,4.29105,490.812,
748,4.30711,491.04,
752,4.281,491.362,
756,4.22115,491.443,
760,4.22791,491.694,
764,4.27909,491.825,
768,4.20994,491.89,
772,4.18478,491.962,
776,4.20984,492.01,
780,4.18178,492.104,
784,4.19972,491.889,
788,4.15318,492.002,
792,4.16227,492.264,
796,4.19615,492.229,
800,4.16519,492.226,
804,4.15968,492.482,
808,4.1274,492.347,
812,4.18885,492.632,
816,4.10277,492.649,
820,4.16516,492.826,
824,4.13293,492.539,
828,4.13984,492.936,
832,4.1155,493.019,
836,4.11404,493.368,
840,4.11156,493.078,
844,4.08335,493.201,
848,4.08055,493.264,
852,4.08503,493.148,
856,4.03431,493.341,
860,4.093,493.426,
864,4.07786,492.93,
868,4.0439,493.679,
872,4.05552,493.549,
876,4.04842,493.499,
880,4.00549,493.374,
884,4.08428,493.659,
888,4.05676,493.813,
892,4.03356,494,
896,4.0417,494.107,
900,3.99052,493.967,
904,3.99989,494.022,
908,3.98751,494.246,
912,3.99243,494.086,
916,3.97979,494.047,
920,3.98289,494.515,
924,3.97259,494.449,
928,3.95826,494.64,
932,3.95412,494.683,
936,3.91848,494.793,
940,3.98949,494.629,
944,3.92904,494.827,
948,4.00493,494.571,
952,3.93637,494.885,
956,3.93779,494.817,
960,3.91775,494.825,
964,3.93146,494.807,
968,3.9649,494.846,
972,3.92746,494.9333,
976,3.92858,495.019,
980,3.89704,494.911,
984,3.88528,494.971,
988,3.88295,495.007,
992,3.89152,495.147,
996,3.91921,495.04,
1000,3.89712,495.205,
1004,3.89145,495.285,
1008,3.8547,495.084,
1012,3.90503,495.001,
1016,3.86021,494.977,
1020,3.88799,495.277,
1024,3.82614,495.199,899.704
1028,3.82673,495.406,908.255
1032,3.83144,495.543,909.277
1036,3.87793,495.268,908.276
1040,3.83899,495.553,909.751
1044,3.83752,495.685,908.653
1048,3.79181,495.697,906.849
1052,3.86351,495.751,912.36
1056,3.84919,495.91,909.02
1060,3.82605,496.035,909.597
1064,3.84508,495.829,910.717
1068,3.82796,495.939,914.555
1072,3.83722,496.008,912.639
1076,3.79009,495.959,909.982
1080,3.83668,496.037,911.763
1084,3.81999,495.983,917.439
1088,3.81838,496.121,910.513
1092,3.80848,496.224,912.061
1096,3.796,496.192,916.974
1100,3.81239,496.143,915.257
1104,3.77082,496.303,910.934
1108,3.75277,496.351,911.239
1112,3.76469,496.336,913.907
1113,3.78322,496.343,905.932