File: Wood/Calibration_Data/FSRI/FSRI_Wood_LFA_N2_Parallel_R2.csv
Temperature (K),Mean Diffusivity (mm^2/s)
298.0,0.153
323.0,0.159
348.0,0.16
373.0,0.156
423.0,0.147
473.0,0.14
523.0,0.136
573.0,0.141