File: Wood/Calibration_Data/FSRI/FSRI_Wood_LFA_N2_Perpendicular_R4.csv
Temperature (K),Mean Diffusivity (mm^2/s)
298.0,0.413
323.0,0.452
348.0,0.424
373.0,0.385
423.0,0.342
473.0,0.316
523.0,0.306
573.0,0.305