File: Wood/Calibration_Data/FSRI/FSRI_Wood_Parallel_Cone_75kW_hor_R1.csv
Time,Mass (g),HRRPUA (kW/m2)
0.0,96.84,-2.1
5.0,96.23,-2.0
10.0,95.62,0.5
15.0,94.61,7.0
20.0,93.73,127.3
25.0,92.87,248.8
30.0,92.18,306.5
35.0,91.55,291.6
40.0,90.86,262.1
45.0,90.18,232.8
50.0,89.55,217.8
55.0,88.98,206.6
60.0,88.41,193.1
65.0,87.91,186.9
70.0,87.39,181.7
75.0,86.89,178.0
80.0,86.38,169.5
85.0,85.83,164.6
90.0,85.32,158.3
95.0,84.85,155.9
100.0,84.42,150.1
105.0,83.96,149.1
110.0,83.5,142.6
115.0,83.03,141.1
120.0,82.54,142.1
125.0,82.12,140.9
130.0,81.65,139.0
135.0,81.23,136.7
140.0,80.86,134.2
145.0,80.44,133.1
150.0,79.96,131.6
155.0,79.55,129.4
160.0,79.14,129.8
165.0,78.72,127.5
170.0,78.31,128.0
175.0,77.94,128.6
180.0,77.54,126.3
185.0,77.16,123.5
190.0,76.7,124.2
195.0,76.33,117.5
200.0,75.93,119.9
205.0,75.54,118.4
210.0,75.19,118.6
215.0,74.84,118.5
220.0,74.43,116.3
225.0,74.03,112.7
230.0,73.69,112.8
235.0,73.29,112.3
240.0,72.9,111.2
245.0,72.57,114.6
250.0,72.2,115.9
255.0,71.82,110.7
260.0,71.43,111.0
265.0,71.07,110.7
270.0,70.7,112.2
275.0,70.34,109.7
280.0,69.98,110.8
285.0,69.67,109.0
290.0,69.31,107.3
295.0,68.9,106.6
300.0,68.53,106.8
305.0,68.17,103.9
310.0,67.84,105.1
315.0,67.55,107.5
320.0,67.2,103.2
325.0,66.85,104.4
330.0,66.53,103.4
335.0,66.15,102.1
340.0,65.8,103.2
345.0,65.45,102.3
350.0,65.11,99.7
355.0,64.79,103.5
360.0,64.5,102.5
365.0,64.16,100.3
370.0,63.79,101.7
375.0,63.45,99.6
380.0,63.1,99.2
385.0,62.79,99.3
390.0,62.49,97.9
395.0,62.19,97.0
400.0,61.88,95.9
405.0,61.5,96.7
410.0,61.16,97.3
415.0,60.85,98.0
420.0,60.54,97.1
425.0,60.26,96.2
430.0,59.95,95.1
435.0,59.65,95.2
440.0,59.31,94.7
445.0,58.95,95.3
450.0,58.65,93.6
455.0,58.32,92.4
460.0,58.03,92.2
465.0,57.74,93.3
470.0,57.44,93.1
475.0,57.08,92.9
480.0,56.76,92.4
485.0,56.48,91.7
490.0,56.18,91.7
495.0,55.9,91.0
500.0,55.6,91.3
505.0,55.29,91.4
510.0,54.95,90.9
515.0,54.64,90.8
520.0,54.35,90.6
525.0,54.03,91.2
530.0,53.73,91.1
535.0,53.49,92.8
540.0,53.18,93.2
545.0,52.86,93.3
550.0,52.53,93.1
555.0,52.2,93.4
560.0,51.93,92.9
565.0,51.62,93.0
570.0,51.38,92.3
575.0,51.1,93.6
580.0,50.78,91.8
585.0,50.45,93.0
590.0,50.15,92.3
595.0,49.86,94.7
600.0,49.57,93.6
605.0,49.3,93.4
610.0,48.98,95.5
615.0,48.69,93.2
620.0,48.38,95.5
625.0,48.09,94.0
630.0,47.79,94.8
635.0,47.49,92.6
640.0,47.2,94.0
645.0,46.95,93.3
650.0,46.68,96.2
655.0,46.34,98.6
660.0,46.0,98.0
665.0,45.7,97.6
670.0,45.42,97.3
675.0,45.11,98.7
680.0,44.83,100.4
685.0,44.54,99.4
690.0,44.22,100.5
695.0,43.92,103.4
700.0,43.61,102.4
705.0,43.28,102.3
710.0,42.96,104.6
715.0,42.7,103.7
720.0,42.39,104.2
725.0,42.08,102.9
730.0,41.72,102.4
735.0,41.43,103.0
740.0,41.1,103.8
745.0,40.81,104.6
750.0,40.55,105.7
755.0,40.21,109.5
760.0,39.89,108.0
765.0,39.53,109.3
770.0,39.2,109.5
775.0,38.85,109.3
780.0,38.52,109.0
785.0,38.29,107.9
790.0,37.93,110.2
795.0,37.61,113.8
800.0,37.24,112.4
805.0,36.89,113.9
810.0,36.53,115.0
815.0,36.18,114.5
820.0,35.87,116.2
825.0,35.54,117.5
830.0,35.15,116.3
835.0,34.79,117.0
840.0,34.49,119.3
845.0,34.12,119.9
850.0,33.77,117.6
855.0,33.47,117.6
860.0,33.13,120.6
865.0,32.75,120.2
870.0,32.36,120.7
875.0,31.98,120.2
880.0,31.62,122.0
885.0,31.29,124.6
890.0,30.96,123.5
895.0,30.58,122.8
900.0,30.21,126.0
905.0,29.87,125.4
910.0,29.47,127.2
915.0,29.1,126.4
920.0,28.74,129.3
925.0,28.36,128.4
930.0,28.03,126.0
935.0,27.66,125.0
940.0,27.3,123.1
945.0,26.94,123.7
950.0,26.56,123.6
955.0,26.21,123.0
960.0,25.87,124.3
965.0,25.59,125.7
970.0,25.23,123.4
975.0,24.85,120.6
980.0,24.48,122.3
985.0,24.11,123.3
990.0,23.79,123.1
995.0,23.45,120.4
1000.0,23.15,120.2
1005.0,22.85,120.9
1010.0,22.5,119.2
1015.0,22.15,117.6
1020.0,21.82,120.0
1025.0,21.46,116.0
1030.0,21.2,114.7
1035.0,20.87,114.3
1040.0,20.6,114.5
1045.0,20.31,112.5
1050.0,20.04,115.4
1055.0,19.69,117.0
1060.0,19.39,115.8
1065.0,19.12,108.4
1070.0,18.83,107.4
1075.0,18.63,107.5
1080.0,18.36,104.4
1085.0,18.11,102.1
1090.0,17.83,100.9
1095.0,17.65,95.5
1100.0,17.42,93.7
1105.0,17.17,92.9
1110.0,17.02,91.4
1115.0,16.88,86.6
1120.0,16.64,83.0
1125.0,16.45,80.0
1130.0,16.29,77.3
1135.0,16.12,73.9
1140.0,16.0,72.6
1145.0,15.85,70.3
1150.0,15.73,68.5
1155.0,15.6,66.0
1160.0,15.43,64.9
1165.0,15.3,62.3
1170.0,15.19,59.7
1175.0,15.11,56.1
1180.0,15.01,56.7
1185.0,14.95,57.5
1190.0,14.9,53.6
1195.0,14.79,49.6
1200.0,14.68,47.9
1205.0,14.61,47.2
1210.0,14.53,46.0
1215.0,14.48,44.6
1220.0,14.45,42.9
1225.0,14.42,41.9
1230.0,14.35,41.5
1235.0,14.23,41.7
1240.0,14.14,42.2
1245.0,14.08,41.1
1250.0,14.03,38.9
1255.0,14.04,36.8
1260.0,13.99,36.9
1265.0,13.99,36.8
1270.0,13.91,37.5
1275.0,13.82,38.3
1280.0,13.78,38.3
1285.0,13.7,36.8
1290.0,13.64,35.5
1295.0,13.66,36.0
1300.0,13.65,36.1
1305.0,13.6,35.2
1310.0,13.46,35.3
1315.0,13.4,35.9
1320.0,13.36,35.3
1325.0,13.3,35.2
1330.0,13.3,35.6
1335.0,13.32,35.6
1339.0,13.27,34.9