File: PMMA/Validation_Results/UMD-FSRI/UMD-FSRI_Gasification_q50_Temp_R4.csv
s,K
Time,T_back
0,294
2,294
4,294
6,294.0002
8,294.0029
10,294.0178
12,294.063
14,294.162
16,294.3394
18,294.6158
20,295.0059
22,295.5184
24,296.1571
26,296.9212
28,297.8075
30,298.8103
32,299.9226
34,301.1365
36,302.4437
38,303.8352
40,305.3023
42,306.8371
44,308.432
46,310.0799
48,311.7745
50,313.51
52,315.2808
54,317.0817
56,318.9082
58,320.7561
60,322.6217
62,324.5019
64,326.3936
66,328.2939
68,330.2002
70,332.1104
72,334.0229
74,335.9359
76,337.8483
78,339.7592
80,341.6672
82,343.5716
84,345.4716
86,347.3662
88,349.2551
90,351.1374
92,353.0131
94,354.8821
96,356.7442
98,358.599
100,360.446
102,362.2854
104,364.117
106,365.9407
108,367.7563
110,369.5637
112,371.3634
114,373.1556
116,374.941
118,376.72
120,378.4928
122,380.2594
124,382.0199
126,383.7743
128,385.5227
130,387.2652
132,389.0028
134,390.7374
136,392.4701
138,394.1995
140,395.9245
142,397.6443
144,399.3592
146,401.0691
148,402.774
150,404.4737
152,406.1683
154,407.8591
156,409.5474
158,411.2328
160,412.9148
162,414.5933
164,416.2683
166,417.9404
168,419.6107
170,421.28
172,422.9482
174,424.6141
176,426.2764
178,427.9344
180,429.5892
182,431.2422
184,432.8927
186,434.5421
188,436.191
190,437.8395
192,439.4865
194,441.1305
196,442.7716
198,444.4123
200,446.0548
202,447.7006
204,449.3597
206,451.0141
208,452.6594
210,454.2985
212,455.9359
214,457.5743
216,459.2197
218,460.8745
220,462.5372
222,464.2121
224,465.8939
226,467.5848
228,469.2956
230,471.0555
232,472.9386
234,474.6832
236,476.4587
238,478.2604
240,480.0908
242,481.9506
244,483.8419
246,485.7649
248,487.7105
250,489.6837
252,491.6887
254,493.733
256,495.8026
258,497.9235
260,500.0655
262,502.2177
264,504.3939
266,506.5596
268,508.7275
270,510.9038
272,513.142
274,515.4095
276,517.7198
278,520.0427
280,522.4105
282,524.7886
284,527.159
286,529.5456
288,532.0061
290,534.499
292,537.0084
294,539.3904
296,541.9302
298,544.4682
300,547.1374
302,549.8305
304,552.467
306,555.1585
308,558.1381
310,561.0546
312,563.7555
314,566.9526
316,569.601
318,572.604
320,576.1088
322,578.9548
324,581.8691
326,584.8903
328,587.787
330,590.7459
332,594.5821
334,598.0824
336,601.4897
338,604.5946
340,609.2727
342,612.942
344,617.1799
346,620.4439
348,628.3568
350,629.0988
352,636.9841
354,636.5144
356,644.1032
358,646.627
360,657.7314
362,658.2101
364,670.2274
366,676.6108
368,685.8855
370,688.9832
372,698.213
374,703.2274
376,710.5174
378,719.4731
380,727.7425
382,744.4026
384,743.5786
386,759.1376
388,770.053
390,781.9488
392,937.1881
394,807.2609
396,807.0585
398,808.8756
400,836.48
402,831.9607
404,829.0988
406,827.0847
408,825.6135
410,824.5184
412,823.6937
414,823.0677
416,822.5896
418,822.2228
420,821.9402
422,821.7216
424,821.5519
426,821.4197
428,821.3163
430,821.2351
432,821.171
434,821.1202
436,821.0796
438,821.0469
440,821.0205
442,820.9989
444,820.9811
446,820.9663
448,820.9538
450,820.9432