File: PMMA/Validation_Results/UMD-FSRI/UMD-FSRI_Gasification_q50_Temp_R1.csv
s,K
Time,T_back
0,292
2,292
4,292.0002
6,292.0045
8,292.0309
10,292.1204
12,292.325
14,292.6875
16,293.2363
18,293.9854
20,294.937
22,296.0844
24,297.4149
26,298.9137
28,300.5644
30,302.349
32,304.2495
34,306.2496
36,308.3392
38,310.5299
40,312.772
42,315.057
44,317.3816
46,319.7405
48,322.1274
50,324.5353
52,326.9581
54,329.3904
56,331.8281
58,334.2674
60,336.7052
62,339.1397
64,341.5698
66,343.9938
68,346.4106
70,348.8182
72,351.2146
74,353.598
76,355.9692
78,358.3358
80,360.6871
82,363.018
84,365.3295
86,367.6228
88,369.8979
90,372.1548
92,374.3937
94,376.6155
96,378.8221
98,381.0172
100,383.2048
102,385.3742
104,387.5236
106,389.6542
108,391.7674
110,393.8644
112,395.9458
114,398.0122
116,400.0644
118,402.1034
120,404.1306
122,406.1464
124,408.1511
126,410.1448
128,412.1276
130,414.1012
132,416.0676
134,418.0286
136,419.986
138,421.9422
140,423.8923
142,425.8314
144,427.7584
146,429.6785
148,431.597
150,433.5098
152,435.4129
154,437.3048
156,439.1878
158,441.0655
160,442.9454
162,444.8188
164,446.6804
166,448.5312
168,450.3725
170,452.2077
172,454.0451
174,455.8963
176,457.8581
178,459.7083
180,461.5577
182,463.4126
184,465.2734
186,467.1444
188,469.032
190,470.9439
192,472.8823
194,474.846
196,476.8526
198,478.8509
200,480.8741
202,482.9296
204,485.0162
206,487.1352
208,489.2844
210,491.4576
212,493.6502
214,495.8606
216,498.1196
218,500.3979
220,502.8068
222,505.2096
224,507.638
226,510.0019
228,512.2907
230,514.5797
232,516.9011
234,519.2814
236,521.6918
238,524.1646
240,526.6208
242,529.1263
244,531.9383
246,534.3772
248,537.6422
250,539.9538
252,542.4052
254,545.0036
256,551.7981
258,550.9884
260,553.7419
262,556.514
264,559.4502
266,562.7117
268,565.6952
270,568.3287
272,571.232
274,573.977
276,577.1751
278,579.9413
280,583.9749
282,586.6602
284,589.9812
286,593.4807
288,597.4447
290,600.0856
292,602.8788
294,608.5201
296,609.8634
298,612.7192
300,619.146
302,627.5733
304,627.4893
306,632.7273
308,637.1167
310,639.8146
312,648.2735
314,652.221
316,660.1237
318,663.3994
320,669.9996
322,681.5519
324,700.1696
326,688.5059
328,697.8529
330,715.8573
332,721.9861
334,720.4879
336,747.3488
338,755.7738
340,768.1098
342,768.2339
344,787.2499
346,766.5125
348,801.3464
350,809.6023
352,809.4154
354,808.0197
356,809.1955
358,808.8401
360,809.3355
362,809.0711
364,808.6484
366,826.4054
368,824.5784
370,823.3073
372,822.3701
374,821.6639
376,821.1256
378,820.7123
380,820.3932
382,820.1457
384,819.953
386,819.8026
388,819.6846
390,819.5918
392,819.5185
394,819.4604
396,819.4141
398,819.377
400,819.3471
402,819.3229
404,819.3031
406,819.2868
408,819.2732
410,819.2618
412,819.2522
414,819.2439
416,819.2367
418,819.2305
420,819.2249
422,819.22
424,819.2155
426,819.2114
428,819.2077
430,819.2042
432,819.201
434,819.198
436,819.1952
438,819.1925
440,819.1899
442,819.1875
444,819.1852
446,819.183
448,819.1808
450,819.1788