File: PMMA/Validation_Results/UMD-FSRI/UMD-FSRI_Gasification_q50_Mass_R5.csv
s,g,g/m2/s
Time,Mass,MassLossRate
0,28.126,0
2,28.126,0
4,28.126,0.000429307
6,28.126,0.01114447
8,28.1256,0.1067054
10,28.1232,0.6124776
12,28.1147,1.818893
14,28.0988,2.001507
16,28.0865,1.429356
18,28.0771,1.188942
20,28.0686,1.056275
22,28.0603,1.109467
24,28.0519,1.051013
26,28.0435,1.161874
28,28.0336,1.410082
30,28.0208,1.957242
32,28.0036,2.693506
34,27.979,3.70257
36,27.9458,4.883807
38,27.9034,5.811976
40,27.854,6.892954
42,27.7984,7.216148
44,27.7387,8.693814
46,27.6679,9.136626
48,27.5944,9.657412
50,27.5193,10.32774
52,27.4365,10.78695
54,27.3468,12.21262
56,27.249,12.1012
58,27.156,11.90016
60,27.0576,13.43809
62,26.9542,13.64455
64,26.8471,13.53356
66,26.7431,13.16717
68,26.6397,14.10257
70,26.5325,13.34248
72,26.4258,13.67825
74,26.3135,14.48617
76,26.2033,14.06113
78,26.0929,15.52802
80,25.9753,14.68431
82,25.8548,15.36586
84,25.739,15.23582
86,25.6252,15.12005
88,25.5076,15.47516
90,25.3905,14.71949
92,25.2711,16.03116
94,25.1497,15.77924
96,25.0241,16.27433
98,24.9022,16.34635
100,24.7724,17.20363
102,24.6464,16.57657
104,24.5149,17.54515
106,24.3812,17.67626
108,24.2504,16.63764
110,24.1232,16.60356
112,23.9927,16.43908
114,23.8608,17.35838
116,23.7304,16.13648
118,23.6024,16.96259
120,23.4683,18.0476
122,23.3352,17.38147
124,23.1977,18.27356
126,23.0575,18.12357
128,22.9168,18.12161
130,22.7775,18.08052
132,22.6393,17.94179
134,22.4997,18.9572
136,22.3594,17.81669
138,22.2157,18.67205
140,22.0759,18.42443
142,21.9326,18.47945
144,21.7888,18.9183
146,21.645,18.81202
148,21.5015,18.49174
150,21.3587,18.56584
152,21.2102,19.42802
154,21.0658,19.49125
156,20.9194,17.74058
158,20.7719,19.75733
160,20.624,18.32813
162,20.4792,18.9987
164,20.3282,19.12951
166,20.1797,19.02206
168,20.0305,19.33966
170,19.8836,18.97296
172,19.7384,19.10081
174,19.5919,19.71094
176,19.4385,20.06542
178,19.2819,20.95369
180,19.1227,20.03919
182,18.9711,20.41
184,18.8151,20.16406
186,18.6589,20.89209
188,18.4995,20.20156
190,18.3413,20.09294
192,18.184,19.8687
194,18.0235,20.85632
196,17.867,19.82024
198,17.7148,19.82158
200,17.5631,20.46831
202,17.4076,19.63473
204,17.2522,21.0196
206,17.0925,21.10812
208,16.9328,20.83261
210,16.7721,21.32272
212,16.6096,20.60597
214,16.4496,21.24427
216,16.2839,21.30992
218,16.1192,22.20816
220,15.9495,21.33617
222,15.7836,20.49047
224,15.6285,20.96616
226,15.4731,20.39225
228,15.3137,20.96023
230,15.1445,22.40735
232,14.9769,22.80243
234,14.8096,21.75518
236,14.6415,21.88437
238,14.4805,20.77024
240,14.3152,21.7654
242,14.1457,22.20717
244,13.9778,21.16621
246,13.81,22.36267
248,13.6413,20.95566
250,13.4789,21.02176
252,13.3136,22.2765
254,13.1409,21.96795
256,12.9709,22.39128
258,12.7987,21.32285
260,12.6355,21.94049
262,12.4625,22.75815
264,12.2908,23.11252
266,12.1213,21.31659
268,11.9482,23.40378
270,11.7732,24.32642
272,11.5964,22.80165
274,11.4173,22.77661
276,11.239,23.50077
278,11.0559,24.88923
280,10.8734,23.6108
282,10.6977,22.32491
284,10.5213,23.75581
286,10.3345,24.00973
288,10.1476,24.06399
290,9.96006,23.9756
292,9.77356,24.14966
294,9.58375,24.52834
296,9.3897,24.75248
298,9.19926,24.63441
300,9.01164,24.00722
302,8.822,25.12428
304,8.62708,25.56811
306,8.43393,24.56119
308,8.24253,25.13618
310,8.04405,25.13541
312,7.85114,25.42714
314,7.6588,24.61101
316,7.46504,25.70559
318,7.26465,25.47828
320,7.06643,25.9429
322,6.86249,26.96432
324,6.65405,27.09276
326,6.43947,27.93963
328,6.22446,27.72003
330,6.01256,27.77187
332,5.79664,27.82458
334,5.57881,29.02726
336,5.35911,28.55313
338,5.14113,29.07051
340,4.91619,29.14896
342,4.69653,27.81812
344,4.47168,29.84329
346,4.23856,30.06463
348,4.00955,29.57509
350,3.7746,30.76487
352,3.53873,31.00082
354,3.30642,29.72647
356,3.07038,31.24474
358,2.83447,30.34682
360,2.59496,31.07213
362,2.35398,31.09961
364,2.11716,30.47772
366,1.88097,30.69345
368,1.64675,30.95657
370,1.41481,29.76965
372,1.19088,28.58372
374,0.973781,27.99919
376,0.768813,26.78601
378,0.572176,22.68261
380,0.390337,21.71884
382,0.222587,20.14761
384,0.0854856,15.23118
386,0.0562297,8.08E-05
388,0.0562297,3.24E-21
390,0.0562297,1.26E-43
392,0.0562297,6.94E-46
394,0.0562297,6.94E-46
396,0.0562297,6.94E-46
398,0.0562297,6.94E-46
400,0.0562297,6.94E-46
402,0.0562297,6.94E-46
404,0.0562297,6.94E-46
406,0.0562297,6.94E-46
408,0.0562297,6.94E-46
410,0.0562297,6.94E-46
412,0.0562297,6.94E-46
414,0.0562297,6.94E-46
416,0.0562297,6.94E-46
418,0.0562297,6.94E-46
420,0.0562297,6.94E-46
422,0.0562297,6.94E-46
424,0.0562297,6.94E-46
426,0.0562297,6.94E-46
428,0.0562297,6.94E-46
430,0.0562297,6.94E-46
432,0.0562297,6.94E-46
434,0.0562297,6.94E-46
436,0.0562297,6.94E-46
438,0.0562297,6.94E-46
440,0.0562297,6.94E-46
442,0.0562297,6.94E-46
444,0.0562297,6.94E-46
446,0.0562297,6.94E-46
448,0.0562297,6.94E-46
450,0.0562297,6.94E-46