File: PMMA/Validation_Results/UMD-FSRI/UMD-FSRI_Gasification_q25_Temp_R3.csv
s,K
Time,T_back
0,295
3,295
6,295.0002
9,295.0085
12,295.0656
15,295.2365
18,295.5789
21,296.1298
24,296.9045
27,297.899
30,299.0978
33,300.4818
36,302.0312
39,303.7248
42,305.5412
45,307.4624
48,309.4721
51,311.5562
54,313.7025
57,315.9003
60,318.1398
63,320.4135
66,322.7145
69,325.036
72,327.3726
75,329.7198
78,332.0745
81,334.4323
84,336.789
87,339.142
90,341.4891
93,343.8278
96,346.156
99,348.4727
102,350.7824
105,353.078
108,355.3563
111,357.6172
114,359.86
117,362.0843
120,364.2897
123,366.4761
126,368.6429
129,370.7898
132,372.9163
135,375.022
138,377.1064
141,379.1694
144,381.2107
147,383.2305
150,385.229
153,387.2065
156,389.1633
159,391.0992
162,393.0142
165,394.9081
168,396.7807
171,398.6319
174,400.4619
177,402.271
180,404.0593
183,405.8269
186,407.5739
189,409.3003
192,411.006
195,412.6912
198,414.3559
201,416.0002
204,417.6243
207,419.2287
210,420.8136
213,422.3793
216,423.9258
219,425.4537
222,426.9635
225,428.4554
228,429.9296
231,431.3863
234,432.8258
237,434.2481
240,435.6532
243,437.0409
246,438.4111
249,439.7642
252,441.1006
255,442.4205
258,443.7243
261,445.0125
264,446.2855
267,447.5445
270,448.7898
273,450.0215
276,451.2397
279,452.4448
282,453.6373
285,454.8178
288,455.9871
291,457.1459
294,458.2949
297,459.4351
300,460.5678
303,461.6947
306,462.8169
309,463.935
312,465.0491
315,466.1595
318,467.2669
321,468.372
324,469.4752
327,470.5772
330,471.6782
333,472.7781
336,473.877
339,474.975
342,476.0718
345,477.1672
348,478.2607
351,479.3516
354,480.44
357,481.5249
360,482.6055
363,483.6812
366,484.7512
369,485.8151
372,486.8725
375,487.9231
378,488.9666
381,490.0029
384,491.0324
387,492.0552
390,493.0716
393,494.0822
396,495.0873
399,496.0876
402,497.0834
405,498.0746
408,499.0613
411,500.043
414,501.0189
417,501.9886
420,502.9522
423,503.9095
426,504.8607
429,505.8057
432,506.7454
435,507.6809
438,508.6128
441,509.5412
444,510.4663
447,511.3881
450,512.3062
453,513.2207
456,514.1311
459,515.0366
462,515.937
465,516.8314
468,517.7196
471,518.6019
474,519.479
477,520.3514
480,521.2196
483,522.0835
486,522.9452
489,523.8036
492,524.6563
495,525.5038
498,526.3484
501,527.1908
504,528.0299
507,528.8648
510,529.6958
513,530.5228
516,531.3468
519,532.1698
522,532.9921
525,533.8137
528,534.635
531,535.4562
534,536.2807
537,537.1045
540,537.9207
543,538.7286
546,539.5286
549,540.3224
552,541.1125
555,541.9014
558,542.6895
561,543.4761
564,544.259
567,545.0396
570,545.8209
573,546.6001
576,547.3774
579,548.1571
582,548.9353
585,549.7106
588,550.4833
591,551.2548
594,552.0268
597,552.7937
600,553.5518
603,554.3023
606,555.0523
609,555.7964
612,556.5349
615,557.2693
618,558.0213
621,558.8159
624,559.5971
627,560.3579
630,561.1023
633,561.8436
636,562.578
639,563.3067
642,564.0282
645,564.742
648,565.4505
651,566.1542
654,566.8549
657,567.5588
660,568.2726
663,568.9764
666,569.6829
669,570.4086
672,571.1556
675,571.8889
678,572.6473
681,573.4081
684,574.1568
687,574.9005
690,575.6239
693,576.3561
696,577.0708
699,577.7793
702,578.4899
705,579.2377
708,580.0039
711,580.7725
714,581.5235
717,582.2618
720,583.0139
723,583.8018
726,584.7518
729,585.4139
732,586.1046
735,586.9036
738,587.7251
741,588.4918
744,589.5597
747,590.3698
750,591.0337