File: PMMA/Validation_Results/UMD-FSRI/UMD-FSRI_Gasification_q25_Temp_R1.csv
s,K
Time,T_back
0,295
3,295
6,295.0002
9,295.0046
12,295.0349
15,295.1352
18,295.3566
21,295.7382
24,296.3015
27,297.0531
30,297.9888
33,299.0971
36,300.3628
39,301.7698
42,303.3018
45,304.9426
48,306.677
51,308.4914
54,310.3739
57,312.3139
60,314.3026
63,316.3322
66,318.3961
69,320.4887
72,322.6046
75,324.7381
78,326.884
81,329.0376
84,331.1952
87,333.3533
90,335.5095
93,337.6618
96,339.8088
99,341.9499
102,344.084
105,346.21
108,348.3266
111,350.4325
114,352.5264
117,354.6068
120,356.673
123,358.7243
126,360.7603
129,362.7806
132,364.7848
135,366.7726
138,368.7435
141,370.697
144,372.633
147,374.5513
150,376.4519
153,378.3346
156,380.1993
159,382.046
162,383.8748
165,385.6855
168,387.4781
171,389.2525
174,391.0088
177,392.7466
180,394.4661
183,396.1672
186,397.8498
189,399.5141
192,401.1603
195,402.7884
198,404.3987
201,405.9917
204,407.5678
207,409.127
210,410.6694
213,412.1951
216,413.7045
219,415.1977
222,416.6747
225,418.1353
228,419.5797
231,421.0079
234,422.4201
237,423.8166
240,425.1976
243,426.5633
246,427.9137
249,429.2489
252,430.5689
255,431.8738
258,433.1639
261,434.4397
264,435.7015
267,436.9498
270,438.1851
273,439.4073
276,440.6163
279,441.8122
282,442.9949
285,444.1648
288,445.3223
291,446.4678
294,447.6017
297,448.7243
300,449.8358
303,450.9366
306,452.0269
309,453.1073
312,454.1783
315,455.2405
318,456.2949
321,457.342
324,458.3824
327,459.4165
330,460.4451
333,461.4694
336,462.4899
339,463.5075
342,464.523
345,465.5373
348,466.5509
351,467.5643
354,468.5777
357,469.5917
360,470.6064
363,471.6216
366,472.637
369,473.6523
372,474.6673
375,475.6819
378,476.6957
381,477.7083
384,478.719
387,479.727
390,480.732
393,481.7335
396,482.7312
399,483.7245
402,484.7132
405,485.6968
408,486.6752
411,487.6481
414,488.6156
417,489.5776
420,490.5337
423,491.4841
426,492.4286
429,493.3672
432,494.3003
435,495.2281
438,496.1512
441,497.0695
444,497.9829
447,498.8911
450,499.7941
453,500.6917
456,501.5843
459,502.4718
462,503.3545
465,504.233
468,505.1077
471,505.979
474,506.8471
477,507.7122
480,508.5743
483,509.4335
486,510.2899
489,511.1434
492,511.9941
495,512.8421
498,513.6865
501,514.527
504,515.3635
507,516.1968
510,517.0274
513,517.8553
516,518.6809
519,519.5037
522,520.3235
525,521.1398
528,521.9526
531,522.7621
534,523.5688
537,524.3731
540,525.1748
543,525.9739
546,526.7702
549,527.567
552,528.3627
555,529.1556
558,529.9445
561,530.7288
564,531.5098
567,532.2884
570,533.0655
573,533.8415
576,534.6155
579,535.387
582,536.156
585,536.9305
588,537.7033
591,538.4685
594,539.2291
597,539.9871
600,540.7431
603,541.4981
606,542.2551
609,543.0158
612,543.7752
615,544.5303
618,545.2798
621,546.023
624,546.7604
627,547.4945
630,548.2269
633,548.9573
636,549.6856
639,550.4153
642,551.1456
645,551.8747
648,552.6027
651,553.3261
654,554.0439
657,554.7556
660,555.4637
663,556.1725
666,556.8891
669,557.6059
672,558.3146
675,559.0299
678,559.7434
681,560.4468
684,561.1497
687,561.8614
690,562.5911
693,563.3123
696,564.0309
699,564.7402
702,565.469
705,566.1852
708,566.8912
711,567.5849
714,568.268
717,568.9502
720,569.7727
723,570.3993
726,571.089
729,571.7834
732,572.4842
735,573.1871
738,574.0053
741,574.6849
744,575.489
747,576.2364
750,576.9249