File: PMMA/Validation_Results/UMD-FSRI/UMD-FSRI_Gasification_q50_Temp_R2.csv
s,K
Time,T_back
0,293
2,293
4,293
6,293.0001
8,293.0026
10,293.0165
12,293.0597
14,293.1572
16,293.3348
18,293.6135
20,294.0076
22,294.5246
24,295.1671
26,295.934
28,296.822
30,297.8251
32,298.9362
34,300.1475
36,301.4511
38,302.8388
40,304.302
42,305.833
44,307.4243
46,309.0692
48,310.7614
50,312.4952
52,314.2652
54,316.0663
56,317.8937
58,319.7432
60,321.6108
62,323.4933
64,325.3881
66,327.2924
68,329.2043
70,331.1214
72,333.0416
74,334.9628
76,336.8835
78,338.8029
80,340.7197
82,342.6331
84,344.5422
86,346.446
88,348.3443
90,350.2371
92,352.1244
94,354.0052
96,355.8787
98,357.745
100,359.604
102,361.456
104,363.3011
106,365.139
108,366.969
110,368.7906
112,370.6032
114,372.4066
116,374.2008
118,375.9854
120,377.761
122,379.5284
124,381.2887
126,383.0423
128,384.7894
130,386.5341
132,388.2997
134,390.045
136,391.7742
138,393.4951
140,395.2107
142,396.9219
144,398.6289
146,400.332
148,402.0319
150,403.7308
152,405.4304
154,407.1291
156,408.8231
158,410.5118
160,412.1952
162,413.8732
164,415.5464
166,417.2163
168,418.885
170,420.5528
172,422.2189
174,423.8834
176,425.5468
178,427.2088
180,428.8697
182,430.5294
184,432.1871
186,433.843
188,435.4985
190,437.1545
192,438.8104
194,440.4653
196,442.1198
198,443.7771
200,445.438
202,447.1013
204,448.7666
206,450.4354
208,452.1123
210,453.7884
212,455.4593
214,457.1278
216,458.7993
218,460.4798
220,462.1731
222,463.8698
224,465.5683
226,467.2716
228,468.9796
230,470.7038
232,472.4521
234,474.2275
236,476.0298
238,477.8753
240,479.7349
242,481.5968
244,483.4724
246,485.3728
248,487.3033
250,489.2662
252,491.2714
254,493.3051
256,495.3868
258,497.4803
260,499.5669
262,501.6597
264,503.7571
266,505.892
268,508.1144
270,510.3189
272,512.5534
274,514.8215
276,517.0777
278,519.3311
280,521.6086
282,524.1311
284,526.4547
286,528.7702
288,531.6364
290,533.8487
292,536.225
294,538.6502
296,541.1311
298,543.5941
300,546.1038
302,548.6687
304,551.3889
306,554.3565
308,556.933
310,559.7836
312,562.4791
314,565.1838
316,568.3499
318,571.0766
320,574.0816
322,576.8977
324,580.3678
326,583.7253
328,586.6385
330,589.4489
332,592.1055
334,596.4623
336,599.328
338,602.4556
340,605.7365
342,611.6337
344,614.8276
346,620.908
348,622.3351
350,626.9554
352,632.0809
354,635.199
356,641.6399
358,644.9883
360,652.3194
362,664.1236
364,670.7459
366,676.0283
368,674.6365
370,687.5542
372,693.5374
374,716.489
376,702.7091
378,718.3772
380,734.9368
382,733.5926
384,755.3791
386,756.7837
388,775.3231
390,777.5104
392,764.8815
394,798.518
396,808.8551
398,809.9954
400,809.0402
402,808.2647
404,808.0566
406,809.0416
408,808.2702
410,808.3018
412,808.4096
414,826.2713
416,824.7751
418,823.7259
420,822.9523
422,822.3703
424,821.9274
426,821.5879
428,821.3261
430,821.1234
432,820.9657
434,820.8425
436,820.7459
438,820.6697
440,820.6093
442,820.5613
444,820.5227
446,820.4916
448,820.4663
450,820.4456