File: PMMA/Validation_Results/UMD-FSRI/UMD-FSRI_Gasification_q25_Temp_R2.csv
s,K
Time,T_back
0,295
3,295
6,295.0001
9,295.0036
12,295.0296
15,295.1191
18,295.3204
21,295.6728
24,296.1989
27,296.9078
30,297.798
33,298.8599
36,300.0799
39,301.4412
42,302.9268
45,304.5215
48,306.2119
51,307.9858
54,309.8317
57,311.7392
60,313.6986
63,315.7014
66,317.7406
69,319.8096
72,321.9022
75,324.0127
78,326.1366
81,328.27
84,330.4101
87,332.5542
90,334.6998
93,336.8448
96,338.9873
99,341.1254
102,343.257
105,345.3801
108,347.4933
111,349.5951
114,351.685
117,353.7623
120,355.8266
123,357.8772
126,359.9135
129,361.9348
132,363.9406
135,365.9301
138,367.9031
141,369.8592
144,371.7982
147,373.7199
150,375.6243
153,377.5114
156,379.381
159,381.2326
162,383.066
165,384.8811
168,386.6776
171,388.4556
174,390.2149
177,391.9556
180,393.6781
183,395.3826
186,397.0693
189,398.7384
192,400.3902
195,402.0249
198,403.6425
201,405.243
204,406.8263
207,408.3924
210,409.9415
213,411.4741
216,412.9902
219,414.4896
222,415.9725
225,417.439
228,418.8895
231,420.3239
234,421.7424
237,423.1451
240,424.5322
243,425.9039
246,427.2602
249,428.6013
252,429.9274
255,431.2384
258,432.5349
261,433.817
264,435.0849
267,436.339
270,437.5792
273,438.8056
276,440.0185
279,441.2179
282,442.4042
285,443.5777
288,444.739
291,445.8883
294,447.0258
297,448.1521
300,449.2673
303,450.3719
306,451.4662
309,452.5509
312,453.6266
315,454.6934
318,455.7518
321,456.8023
324,457.8456
327,458.8824
330,459.9137
333,460.9404
336,461.9633
339,462.9835
342,464.0016
345,465.0182
348,466.0336
351,467.048
354,468.0618
357,469.0751
360,470.0882
363,471.1012
366,472.1141
369,473.1267
372,474.1388
375,475.1505
378,476.1614
381,477.1711
384,478.1791
387,479.1857
390,480.1901
393,481.1909
396,482.1875
399,483.1794
402,484.1666
405,485.149
408,486.1262
411,487.0981
414,488.0647
417,489.0263
420,489.9828
423,490.9342
426,491.8801
429,492.8205
432,493.7555
435,494.6854
438,495.6103
441,496.5303
444,497.4456
447,498.3563
450,499.2625
453,500.1645
456,501.0624
459,501.9564
462,502.8466
465,503.7335
468,504.6168
471,505.4956
474,506.3698
477,507.2398
480,508.1064
483,508.97
486,509.832
489,510.6923
492,511.55
495,512.4048
498,513.2565
501,514.1052
504,514.9512
507,515.7946
510,516.6346
513,517.4716
516,518.3059
519,519.1367
522,519.9631
525,520.7847
528,521.6013
531,522.4127
534,523.2189
537,524.0204
540,524.818
543,525.6145
546,526.4096
549,527.2037
552,527.9959
555,528.7848
558,529.569
561,530.3488
564,531.1247
567,531.8978
570,532.6694
573,533.438
576,534.2032
579,534.9671
582,535.7312
585,536.494
588,537.2546
591,538.0124
594,538.7671
597,539.5195
600,540.2717
603,541.0222
606,541.7685
609,542.5094
612,543.2454
615,543.9785
618,544.7099
621,545.4417
624,546.1761
627,546.9132
630,547.651
633,548.3874
636,549.1261
639,549.8652
642,550.6001
645,551.3387
648,552.07
651,552.7932
654,553.5131
657,554.2338
660,554.951
663,555.6635
666,556.3741
669,557.084
672,557.7939
675,558.5128
678,559.2244
681,559.927
684,560.6293
687,561.3539
690,562.0759
693,562.7992
696,563.533
699,564.2761
702,565.0033
705,565.7194
708,566.4763
711,567.1897
714,567.8844
717,568.7098
720,569.3685
723,570.062
726,570.7593
729,571.4667
732,572.1861
735,572.9044
738,573.694
741,574.435
744,575.1704
747,575.902
750,576.6156