File: PMMA/Validation_Results/UMD-FSRI/UMD-FSRI_Gasification_q50_Temp_R5.csv
s,K
Time,T_back
0,294
2,294
4,294
6,294.0001
8,294.0015
10,294.0107
12,294.0428
14,294.1195
16,294.2641
18,294.4966
20,294.8324
22,295.2815
24,295.8484
26,296.5337
28,297.3349
30,298.2474
32,299.2652
34,300.3807
36,301.5864
38,302.8751
40,304.2395
42,305.6726
44,307.1674
46,308.717
48,310.3152
50,311.9561
52,313.6343
54,315.3447
56,317.0828
58,318.8446
60,320.6262
62,322.4243
64,324.2356
66,326.0575
68,327.8877
70,329.7244
72,331.566
74,333.4111
76,335.2583
78,337.1065
80,338.9547
82,340.8018
84,342.6467
86,344.4881
88,346.3252
90,348.1575
92,349.9851
94,351.8075
96,353.6241
98,355.4344
100,357.2383
102,359.036
104,360.8273
106,362.6118
108,364.3893
110,366.1595
112,367.9222
114,369.6776
116,371.4258
118,373.167
120,374.901
122,376.6279
124,378.3477
126,380.0608
128,381.7675
130,383.4689
132,385.1658
134,386.8579
136,388.5445
138,390.2254
140,391.9006
142,393.5708
144,395.236
146,396.8964
148,398.5517
150,400.2025
152,401.8495
154,403.4932
156,405.133
158,406.769
160,408.4014
162,410.031
164,411.6581
166,413.2833
168,414.9069
170,416.5288
172,418.1486
174,419.767
176,421.3846
178,423.0024
180,424.6204
182,426.2389
184,427.8581
186,429.4788
188,431.0999
190,432.7206
192,434.3403
194,435.9609
196,437.5878
198,439.2148
200,440.8393
202,442.4619
204,444.0838
206,445.7065
208,447.3321
210,448.9641
212,450.6006
214,452.2378
216,453.8736
218,455.5095
220,457.1526
222,458.8027
224,460.4573
226,462.1174
228,463.7854
230,465.4553
232,467.1202
234,468.7923
236,470.4853
238,472.2024
240,473.9412
242,475.7181
244,477.5288
246,479.3592
248,481.213
250,483.0893
252,484.9959
254,486.9379
256,488.9176
258,490.9207
260,492.9394
262,494.9955
264,497.0793
266,499.1986
268,501.3032
270,503.4121
272,505.5449
274,507.6879
276,509.8373
278,511.9942
280,514.1648
282,516.4126
284,518.624
286,520.8331
288,523.7138
290,525.5725
292,527.7868
294,530.059
296,532.3615
298,534.7146
300,537.1027
302,539.4862
304,541.9494
306,544.4244
308,547.0843
310,549.5046
312,552.0296
314,554.7087
316,557.8
318,560.3877
320,563.662
322,566.2857
324,569.2288
326,571.8072
328,574.9193
330,578.2187
332,581.7147
334,585.3328
336,588.3466
338,593.027
340,595.9502
342,598.7293
344,601.9936
346,606.1424
348,610.2829
350,613.833
352,617.2684
354,620.5833
356,626.674
358,628.6789
360,633.2103
362,636.8111
364,642.9818
366,650.3701
368,654.055
370,657.1536
372,665.6611
374,670.5626
376,680.753
378,686.6179
380,687.2715
382,694.6621
384,707.856
386,715.8724
388,719.624
390,732.1836
392,736.3821
394,746.1767
396,755.814
398,768.0281
400,784.0789
402,850.9746
404,847.5357
406,851.312
408,845.0026
410,841.1251
412,838.4258
414,836.4893
416,835.0857
418,834.0628
420,833.3143
422,832.7647
424,832.3594
426,832.0594
428,831.8363
430,831.6694
432,831.5438
434,831.4485
436,831.3757
438,831.3194
440,831.2754
442,831.2405
444,831.2125
446,831.1897
448,831.1708
450,831.1549