File: PMMA/Validation_Results/UMD-FSRI/UMD-FSRI_Gasification_q50_Mass_R4.csv
s,g,g/m2/s
Time,Mass,MassLossRate
0,25.658,0
2,25.658,0
4,25.658,0.000160637
6,25.658,0.007950582
8,25.6577,0.08947034
10,25.6558,0.5313281
12,25.6477,1.774743
14,25.6317,1.87394
16,25.6195,1.39407
18,25.6095,1.217869
20,25.6005,1.091017
22,25.5923,1.038936
24,25.5844,1.0479
26,25.5756,1.290803
28,25.565,1.536375
30,25.5518,1.924351
32,25.5351,2.490423
34,25.5112,3.767328
36,25.4772,4.823724
38,25.4361,5.68622
40,25.3871,6.978748
42,25.3267,8.354822
44,25.2606,8.962351
46,25.1932,9.117444
48,25.1203,9.634727
50,25.0394,11.2663
52,24.9559,10.33509
54,24.8693,11.90077
56,24.7776,12.02548
58,24.6838,12.47374
60,24.5876,12.51979
62,24.4875,13.01442
64,24.3871,13.16072
66,24.2833,13.9431
68,24.1744,14.5267
70,24.0655,14.35733
72,23.9525,14.31121
74,23.8391,15.81301
76,23.7263,14.0753
78,23.6175,14.24194
80,23.5036,15.02646
82,23.3842,15.58543
84,23.2622,16.33586
86,23.141,15.27435
88,23.025,15.634
90,22.9039,16.27692
92,22.7776,16.92316
94,22.6512,15.07443
96,22.5316,15.47681
98,22.4073,16.72608
100,22.2775,17.60492
102,22.1524,15.99897
104,22.0278,15.60914
106,21.9027,17.0253
108,21.7673,17.47323
110,21.6353,17.66422
112,21.5021,17.05184
114,21.372,16.82834
116,21.2405,17.23692
118,21.1056,18.4802
120,20.9641,17.91602
122,20.8309,17.93663
124,20.6903,18.0032
126,20.5516,18.13711
128,20.4154,17.67086
130,20.2753,19.33083
132,20.1297,17.81808
134,19.9932,18.66259
136,19.8477,18.63553
138,19.6961,19.86066
140,19.5486,18.95967
142,19.4048,18.8312
144,19.2588,18.52214
146,19.1104,19.20366
148,18.9634,19.34586
150,18.8113,19.90521
152,18.6556,20.22529
154,18.5066,19.06469
156,18.3568,20.36329
158,18.2039,20.19423
160,18.0494,20.1527
162,17.8951,19.07387
164,17.745,19.27403
166,17.595,20.0701
168,17.4419,19.64169
170,17.288,20.32115
172,17.1288,20.0782
174,16.9702,20.883
176,16.8135,20.39773
178,16.6527,21.04393
180,16.4923,20.19737
182,16.3371,20.10678
184,16.1846,20.60985
186,16.0194,21.40237
188,15.8616,20.2234
190,15.706,20.25586
192,15.5462,20.51941
194,15.3865,20.97734
196,15.2226,21.26469
198,15.0593,21.53613
200,14.8874,23.10846
202,14.7224,20.26947
204,14.5674,20.31213
206,14.4083,21.52728
208,14.2484,20.67539
210,14.0842,21.4092
212,13.9156,25.31602
214,13.7439,21.40296
216,13.5827,20.41929
218,13.4201,21.07557
220,13.2594,21.04241
222,13.0961,20.78936
224,12.9343,21.96425
226,12.7624,21.9708
228,12.5906,23.35264
230,12.4193,21.58613
232,12.2542,21.5485
234,12.0825,22.02246
236,11.9097,22.5614
238,11.7315,23.49601
240,11.5529,23.09795
242,11.3767,23.8792
244,11.1955,23.10151
246,11.021,22.28161
248,10.8446,23.13512
250,10.665,24.2809
252,10.4818,23.88819
254,10.2975,23.95741
256,10.1111,24.20224
258,9.92927,23.85707
260,9.74925,22.91973
262,9.56043,24.55984
264,9.37756,23.47683
266,9.19281,23.93996
268,9.0003,25.53972
270,8.809951,23.72003
272,8.61626,25.43176
274,8.42509,25.11257
276,8.2289,25.07817
278,8.03104,26.16032
280,7.83256,26.28668
282,7.63123,25.90402
284,7.42857,27.70405
286,7.21877,26.28247
288,7.01893,25.96693
290,6.81345,26.84778
292,6.60505,27.47042
294,6.39373,27.2124
296,6.1825,27.55945
298,5.97505,27.43903
300,5.76118,27.1714
302,5.55067,27.29251
304,5.33815,27.86546
306,5.11696,28.95876
308,4.89749,28.63186
310,4.6734,29.43798
312,4.44542,29.97945
314,4.21637,29.81748
316,3.98771,29.85756
318,3.75286,30.64686
320,3.51816,30.22248
322,3.28196,30.23262
324,3.04591,30.98283
326,2.80708,31.36084
328,2.5659,30.99653
330,2.32688,31.28208
332,2.08703,31.28789
334,1.85269,30.31004
336,1.62047,30.11061
338,1.39154,29.95554
340,1.16556,28.86387
342,0.948247,28.12796
344,0.738175,26.84507
346,0.547615,24.44184
348,0.365861,21.78391
350,0.20274,19.06399
352,0.0708538,12.46896
354,0.051296,5.19E-06
356,0.051296,2.82E-23
358,0.051296,1.12E-45
360,0.051296,7.68E-46
362,0.051296,7.68E-46
364,0.051296,7.68E-46
366,0.051296,7.68E-46
368,0.051296,7.68E-46
370,0.051296,7.68E-46
372,0.051296,7.68E-46
374,0.051296,7.68E-46
376,0.051296,7.68E-46
378,0.051296,7.68E-46
380,0.051296,7.68E-46
382,0.051296,7.68E-46
384,0.051296,7.68E-46
386,0.051296,7.68E-46
388,0.051296,7.68E-46
390,0.051296,7.68E-46
392,0.051296,7.68E-46
394,0.051296,7.68E-46
396,0.051296,7.68E-46
398,0.051296,7.68E-46
400,0.051296,7.68E-46
402,0.051296,7.68E-46
404,0.051296,7.68E-46
406,0.051296,7.68E-46
408,0.051296,7.68E-46
410,0.051296,7.68E-46
412,0.051296,7.68E-46
414,0.051296,7.68E-46
416,0.051296,7.68E-46
418,0.051296,7.68E-46
420,0.051296,7.68E-46
422,0.051296,7.68E-46
424,0.051296,7.68E-46
426,0.051296,7.68E-46
428,0.051296,7.68E-46
430,0.051296,7.68E-46
432,0.051296,7.68E-46
434,0.051296,7.68E-46
436,0.051296,7.68E-46
438,0.051296,7.68E-46
440,0.051296,7.68E-46
442,0.051296,7.68E-46
444,0.051296,7.68E-46
446,0.051296,7.68E-46
448,0.051296,7.68E-46
450,0.051296,7.68E-46