File: PMMA/Validation_Results/UMD-FSRI/UMD-FSRI_Gasification_q50_Temp_Kaowool.csv
s,K,K,K
Time (s),Temp_5-72mm,Temp_11-44mm,Temp_17-16mm
0,292,292,292
5,292.0017,292,292
10,292.484,292,292
15,296.1938,292.0001,292
20,305.1512,292.0038,291.9998
25,318.7162,292.0339,291.9989
30,335.3021,292.1511,291.9958
35,353.4643,292.4493,291.9886
40,372.1607,293.0303,291.9761
45,390.7149,293.9807,291.9584
50,408.7197,295.3604,291.938
55,425.9492,297.1999,291.92
60,442.295,299.5048,291.9117
65,457.7214,302.2613,291.9229
70,472.2373,305.4421,291.964
75,485.8767,309.0116,292.0464
80,498.6871,312.9299,292.181
85,510.7223,317.1553,292.3781
90,522.0376,321.6465,292.6467
95,532.6874,326.3641,292.9947
100,542.7236,331.2709,293.4285
105,552.1946,336.3328,293.953
110,561.1454,341.5189,294.5717
115,569.6172,346.801,295.2869
120,577.6478,352.1544,296.0998
125,585.2715,357.5568,297.0102
130,592.5196,362.9889,298.0175
135,599.4204,368.4336,299.12
140,605.9997,373.8761,300.3155
145,612.281,379.3036,301.6013
150,618.2856,384.705,302.9743
155,624.0329,390.0708,304.431
160,629.5385,395.3931,305.9679
165,634.8099,400.6651,307.581
170,639.8534,405.8811,309.2666
175,644.6791,411.0361,311.0206
180,649.2986,416.126,312.839
185,653.7243,421.147,314.7181
190,657.9679,426.0957,316.6537
195,662.0409,430.9695,318.6422
200,665.9536,435.7662,320.6799
205,669.7157,440.4841,322.763
210,673.3363,445.1218,324.888
215,676.8235,449.6787,327.0515
220,680.1851,454.1543,329.2503
225,683.4281,458.5486,331.4809
230,686.559,462.8617,333.7405
235,689.5838,467.0942,336.026
240,692.5081,471.2466,338.3347
245,695.3371,475.3199,340.6637
250,698.0757,479.3151,343.0107
255,700.7283,483.2332,345.373
260,703.2992,487.0755,347.7485
265,705.7922,490.8433,350.135
270,708.2111,494.538,352.5304
275,710.5592,498.1609,354.9328
280,712.8399,501.7134,357.3404
285,715.056,505.1972,359.7515
290,717.2105,508.6135,362.1645
295,719.306,511.964,364.5779
300,721.345,515.25,366.9904
305,723.3299,518.4732,369.4006
310,725.263,521.6348,371.8074
315,727.1463,524.7365,374.2096
320,728.9819,527.7796,376.6063
325,730.7715,530.7656,378.9964
330,732.5171,533.6958,381.3791
335,734.2204,536.5717,383.7535
340,735.8828,539.3945,386.119
345,737.506,542.1656,388.4748
350,739.0914,544.8862,390.8202
355,740.6404,547.5577,393.1548
360,742.1543,550.1813,395.4779
365,743.6343,552.7582,397.7892
370,745.0817,555.2895,400.088
375,746.4975,557.7764,402.3742
380,747.8829,560.22,404.6472
385,749.2389,562.6215,406.9068
390,750.5665,564.9818,409.1526
395,751.8666,567.302,411.3845
400,753.1402,569.5831,413.6021
405,754.388,571.8261,415.8053
410,755.6109,574.032,417.9939
415,756.8098,576.2016,420.1678
420,757.9853,578.3359,422.3267
425,759.1383,580.4357,424.4707
430,760.2693,582.5019,426.5995
435,761.3791,584.5353,428.7131
440,762.4683,586.5368,430.8114
445,763.5376,588.507,432.8945
450,764.5875,590.4468,434.9622
455,765.6185,592.3569,437.0145
460,766.6314,594.238,439.0514
465,767.6265,596.0909,441.0729
470,768.6043,597.916,443.079
475,769.5655,599.7143,445.0698
480,770.5104,601.4861,447.0452
485,771.4395,603.2323,449.0052
490,772.3532,604.9533,450.95
495,773.252,606.6498,452.8795
500,774.1363,608.3224,454.7937
505,775.0064,609.9715,456.6929
510,775.8628,611.5977,458.5769
515,776.7058,613.2015,460.4459
520,777.5357,614.7834,462.2998
525,778.3529,616.344,464.1389
530,779.1577,617.8836,465.9631
535,779.9505,619.4028,467.7725
540,780.7315,620.9019,469.5672
545,781.5011,622.3815,471.3473
550,782.2595,623.8419,473.1128
555,783.007,625.2835,474.8639
560,783.7439,626.7067,476.6005
565,784.4704,628.1119,478.3228
570,785.1868,629.4996,480.0308
575,785.8933,630.8699,481.7247
580,786.5901,632.2234,483.4044
585,787.2776,633.5602,485.0702
590,787.9558,634.8808,486.7221
595,788.6251,636.1855,488.3601
600,789.2856,637.4746,489.9843
605,789.9374,638.7484,491.5949
610,790.5809,640.0071,493.1919
615,791.2162,641.2511,494.7753
620,791.8435,642.4806,496.3454
625,792.4629,643.6959,497.9021
630,793.0746,644.8972,499.4455
635,793.6788,646.0849,500.9757
640,794.2756,647.2591,502.4928
645,794.8652,648.4201,503.9969
650,795.4477,649.5681,505.4881
655,796.0233,650.7033,506.9664
660,796.5921,651.826,508.4319
665,797.1543,652.9364,509.8847
670,797.71,654.0346,511.3249
675,798.2592,655.1209,512.7526
680,798.8022,656.1954,514.1677
685,799.3391,657.2584,515.5705
690,799.8699,658.31,516.961
695,800.3947,659.3505,518.3393
700,800.9138,660.3798,519.7054
705,801.4271,661.3984,521.0594
710,801.9348,662.4062,522.4014
715,802.437,663.4035,523.7315
720,802.9338,664.3904,525.0497
725,803.4253,665.367,526.3562
730,803.9115,666.3336,527.651
735,804.3926,667.2902,528.9341
740,804.8686,668.237,530.2057
745,805.3396,669.1741,531.4659
750,805.8057,670.1017,532.7146
755,806.267,671.0198,533.952
760,806.7235,671.9287,535.1782
765,807.1753,672.8283,536.3932
770,807.6225,673.7189,537.5971
775,808.0652,674.6006,538.7899
780,808.5034,675.4734,539.9718
785,808.9372,676.3375,541.1428
790,809.3666,677.1929,542.3031
795,809.7918,678.0399,543.4525
800,810.2127,678.8784,544.5914
805,810.6295,679.7086,545.7196
810,811.0421,680.5306,546.8373
815,811.4507,681.3444,547.9445
820,811.8552,682.1502,549.0414
825,812.2558,682.9481,550.128
830,812.6525,683.7381,551.2044
835,813.0453,684.5203,552.2706
840,813.4344,685.2948,553.3267
845,813.8196,686.0618,554.3728
850,814.2011,686.8212,555.4089
855,814.579,687.5732,556.4352
860,814.9532,688.3178,557.4517
865,815.3239,689.0551,558.4584
870,815.6909,689.7851,559.4555
875,816.0545,690.5081,560.443
880,816.4146,691.224,561.4209
885,816.7713,691.9328,562.3895
890,817.1245,692.6348,563.3486
895,817.4744,693.3299,564.2984
900,817.821,694.0181,565.239
905,818.1643,694.6997,566.1704
910,818.5044,695.3746,567.0928
915,818.8412,696.0429,568.0061
920,819.1748,696.7046,568.9104
925,819.5052,697.3599,569.8058
930,819.8326,698.0088,570.6924
935,820.1568,698.6513,571.5703
940,820.478,699.2875,572.4394
945,820.7961,699.9174,573.3
950,821.1112,700.5412,574.152
955,821.4234,701.1589,574.9955
960,821.7326,701.7705,575.8306
965,822.0388,702.3761,576.6574
970,822.3422,702.9757,577.4759
975,822.6427,703.5694,578.2861
980,822.9404,704.1573,579.0882
985,823.2352,704.7394,579.8823
990,823.5272,705.3157,580.6683
995,823.8165,705.8863,581.4464
1000,824.103,706.4513,582.2166
1005,824.3868,707.0107,582.979
1010,824.6679,707.5646,583.7336
1015,824.9464,708.1129,584.4806
1020,825.2221,708.6559,585.22
1025,825.4953,709.1934,585.9517
1030,825.7659,709.7255,586.676
1035,826.0338,710.2524,587.3929
1040,826.2992,710.774,588.1024
1045,826.5621,711.2904,588.8047
1050,826.8224,711.8017,589.4996
1055,827.0803,712.3078,590.1874
1060,827.3357,712.8088,590.8682
1065,827.5886,713.3049,591.5418
1070,827.8391,713.7959,592.2085
1075,828.0872,714.282,592.8682
1080,828.3328,714.7632,593.5211
1085,828.5762,715.2396,594.1672
1090,828.8171,715.7111,594.8066
1095,829.0557,716.1779,595.4393
1100,829.292,716.6399,596.0654
1105,829.5261,717.0973,596.6849
1110,829.7578,717.55,597.2979
1115,829.9873,717.9982,597.9045
1120,830.2145,718.4417,598.5047
1125,830.4395,718.8808,599.0985
1130,830.6624,719.3154,599.6861
1135,830.883,719.7455,600.2676
1140,831.1015,720.1712,600.8428
1145,831.3178,720.5926,601.412
1150,831.532,721.0097,601.9751
1155,831.7441,721.4225,602.5323
1160,831.9541,721.831,603.0836
1165,832.162,722.2353,603.6289
1170,832.3679,722.6355,604.1685
1175,832.5717,723.0315,604.7023
1180,832.7735,723.4235,605.2305
1185,832.9733,723.8114,605.7529
1190,833.1711,724.1953,606.2698
1195,833.3669,724.5752,606.7812
1200,833.5608,724.9511,607.2871