File: PMMA/Validation_Results/UMD-FSRI/UMD-FSRI_Gasification_q50_Mass_R3.csv
s,g,g/m2/s
Time,Mass,MassLossRate
0,26.729,0
2,26.729,0
4,26.729,0.000139782
6,26.729,0.007978064
8,26.7287,0.1158652
10,26.7263,0.5446245
12,26.7178,1.625932
14,26.7027,2.141798
16,26.6904,1.379703
18,26.6805,1.209751
20,26.6719,1.16903
22,26.6633,1.030695
24,26.6554,1.050319
26,26.6468,1.193267
28,26.6368,1.515971
30,26.6238,1.905692
32,26.6065,2.475941
34,26.5843,3.46922
36,26.5527,4.857919
38,26.5118,5.779411
40,26.4653,6.185531
42,26.4099,7.83069
44,26.3455,8.579303
46,26.2748,9.646254
48,26.1971,10.68229
50,26.1163,10.80392
52,26.0265,11.55416
54,25.9364,11.27887
56,25.8462,11.9119
58,25.7567,11.91739
60,25.659,12.88915
62,25.5578,13.09725
64,25.4574,13.42615
66,25.3549,13.09638
68,25.252,14.06883
70,25.1415,14.07131
72,25.03,14.19563
74,24.9233,14.2001
76,24.8145,14.42614
78,24.6977,15.68232
80,24.5784,15.0155
82,24.4596,15.59216
84,24.3393,15.66963
86,24.2205,15.6159
88,24.1027,15.18863
90,23.9872,15.22878
92,23.8655,16.3905
94,23.7404,15.96326
96,23.6153,16.4493
98,23.4923,16.29151
100,23.3701,15.52698
102,23.2537,15.09631
104,23.1302,17.16476
106,22.9979,17.13008
108,22.866,16.3655
110,22.7335,17.4673
112,22.5983,17.48368
114,22.4675,17.53082
116,22.3319,17.94157
118,22.1983,17.11133
120,22.0669,16.79992
122,21.9349,17.5954
124,21.7957,17.91555
126,21.6567,18.02172
128,21.5141,18.68417
130,21.3665,19.53074
132,21.2201,18.56718
134,21.0775,18.26188
136,20.9408,17.77464
138,20.7978,19.48576
140,20.6521,18.83489
142,20.5021,20.11236
144,20.3576,18.75175
146,20.2089,18.71806
148,20.0686,18.15492
150,19.9281,18.49045
152,19.7795,19.48361
154,19.6304,19.01608
156,19.478,20.77299
158,19.3218,19.64351
160,19.1718,19.53955
162,19.0244,18.96071
164,18.8769,19.3833
166,18.725,20.07415
168,18.5706,19.8645
170,18.4157,20.71057
172,18.2571,19.53066
174,18.106,19.20371
176,17.9598,19.38556
178,17.8045,21.72413
180,17.6446,20.10381
182,17.4882,20.00838
184,17.3338,20.55156
186,17.1748,19.91184
188,17.02,20.20844
190,16.8591,21.37456
192,16.6989,20.74381
194,16.5411,20.85031
196,16.3779,21.2993
198,16.2188,20.5327
200,16.0583,20.24495
202,15.8977,20.81831
204,15.7359,21.43585
206,15.573,20.8496
208,15.4119,20.25736
210,15.2524,21.09893
212,15.0937,20.6873
214,14.9311,21.98266
216,14.7641,21.29265
218,14.6005,21.84538
220,14.4361,22.36715
222,14.2686,21.33723
224,14.1016,21.91811
226,13.9352,20.99102
228,13.7709,21.59052
230,13.6031,21.34476
232,13.4438,20.96044
234,13.27492,22.73458
236,13.1109,21.22073
238,12.9486,21.06351
240,12.7852,21.37348
242,12.6129,22.74102
244,12.4389,22.91973
246,12.2627,22.84937
248,12.0867,22.28371
250,11.9152,23.08486
252,11.7298,24.36297
254,11.5529,22.38535
256,11.3761,23.43258
258,11.1936,23.77283
260,11.0149,23.16352
262,10.8344,24.16916
264,10.6529,23.01164
266,10.4774,22.99886
268,10.2935,23.48486
270,10.1085,24.3401
272,9.92222,24.02047
274,9.74088,24.15153
276,9.55612,24.77393
278,9.36867,24.58985
280,9.17911,24.57173
282,8.98785,24.89228
284,8.79837,24.3156
286,8.60742,24.52209
288,8.41264,25.47366
290,8.21278,25.67616
292,8.01026,26.60947
294,7.80914,25.79362
296,7.61215,25.66152
298,7.4118,26.07357
300,7.21026,26.75834
302,7.01017,26.83489
304,6.80876,26.29444
306,6.60524,27.26269
308,6.39443,28.47186
310,6.18441,27.13299
312,5.97189,28.07334
314,5.75552,27.69886
316,5.54093,27.37617
318,5.32817,27.38158
320,5.11292,28.0607
322,4.89127,28.94232
324,4.66353,30.12769
326,4.43436,29.41605
328,4.20621,29.79942
330,3.9766,29.89543
332,3.73932,30.14181
334,3.50859,29.79861
336,3.27297,30.29407
338,3.03747,30.38696
340,2.79981,31.25013
342,2.5572,31.39999
344,2.31622,31.41393
346,2.07935,30.39428
348,1.84285,30.13062
350,1.61112,29.96284
352,1.3818,29.76136
354,1.1565,29.30344
356,0.937614,27.13662
358,0.731263,27.19958
360,0.535843,23.22361
362,0.353515,21.01312
364,0.19101,18.75278
366,0.0647194,9.36895
368,0.0534357,1.14E-07
370,0.0534357,3.61E-25
372,0.0534357,7.39E-46
374,0.0534357,7.35E-46
376,0.0534357,7.35E-46
378,0.0534357,7.35E-46
380,0.0534357,7.35E-46
382,0.0534357,7.35E-46
384,0.0534357,7.35E-46
386,0.0534357,7.35E-46
388,0.0534357,7.35E-46
390,0.0534357,7.35E-46
392,0.0534357,7.35E-46
394,0.0534357,7.35E-46
396,0.0534357,7.35E-46
398,0.0534357,7.35E-46
400,0.0534357,7.35E-46
402,0.0534357,7.35E-46
404,0.0534357,7.35E-46
406,0.0534357,7.35E-46
408,0.0534357,7.35E-46
410,0.0534357,7.35E-46
412,0.0534357,7.35E-46
414,0.0534357,7.35E-46
416,0.0534357,7.35E-46
418,0.0534357,7.35E-46
420,0.0534357,7.35E-46
422,0.0534357,7.35E-46
424,0.0534357,7.35E-46
426,0.0534357,7.35E-46
428,0.0534357,7.35E-46
430,0.0534357,7.35E-46
432,0.0534357,7.35E-46
434,0.0534357,7.35E-46
436,0.0534357,7.35E-46
438,0.0534357,7.35E-46
440,0.0534357,7.35E-46
442,0.0534357,7.35E-46
444,0.0534357,7.35E-46
446,0.0534357,7.35E-46
448,0.0534357,7.35E-46
450,0.0534357,7.35E-46