File: PMMA/Calibration_Data/FSRI/FSRI_TGA_N2_10K_1.csv
Temp,time,mass
[K],[s],[mg]
323,28.4,3.9791
325,67.3,3.9813
327,87.3,3.9798
329,103.7,3.9797
331,118.6,3.9784
333,132.7,3.9803
335,146.2,3.9803
337,159.7,3.9777
339,172.8,3.9803
341,185.8,3.9804
343,198.7,3.9789
345,211.5,3.979
347,224.2,3.979
349,236.8,3.9803
351,249.3,3.9777
353,261.7,3.9803
355,274,3.9792
357,286.3,3.979
359,298.5,3.98
361,310.7,3.9776
363,322.7,3.979
365,334.7,3.9767
367,346.7,3.9791
369,358.6,3.9777
371,370.5,3.979
373,382.4,3.9787
375,394.2,3.979
377,406,3.979
379,417.8,3.9765
381,429.5,3.9784
383,441.3,3.9766
385,453,3.9752
387,464.7,3.9766
389,476.4,3.9766
391,488.2,3.9766
393,499.9,3.9753
395,511.6,3.9753
397,523.2,3.9756
399,534.9,3.9759
401,546.6,3.9753
403,558.2,3.9739
405,569.9,3.973
407,581.4,3.9726
409,593.2,3.971
411,604.7,3.9713
413,616.4,3.9713
415,628,3.9723
417,639.6,3.971
419,651.2,3.9685
421,662.8,3.9698
423,674.3,3.9685
425,685.9,3.9679
427,697.4,3.9671
429,708.9,3.9658
431,720.5,3.9657
433,732,3.9629
435,743.6,3.9609
437,755.1,3.9584
439,766.6,3.9597
441,778.2,3.9554
443,789.7,3.9543
445,801.2,3.9514
447,812.7,3.9491
449,824.3,3.9469
451,835.8,3.9433
453,847.3,3.9408
455,858.8,3.9393
457,870.3,3.9336
459,881.8,3.9311
461,893.3,3.9251
463,904.7,3.9212
465,916.2,3.9172
467,927.7,3.9134
469,939.2,3.9092
471,950.7,3.9053
473,962.2,3.9013
475,973.6,3.8985
477,985.1,3.8941
479,996.6,3.8901
481,1008.1,3.8868
483,1019.6,3.8827
485,1031.1,3.879
487,1042.5,3.8724
489,1054,3.8701
491,1065.4,3.8674
493,1076.9,3.8651
495,1088.3,3.8638
497,1099.8,3.8612
499,1111.2,3.8586
501,1122.6,3.8582
503,1134,3.8582
505,1145.5,3.8559
507,1156.9,3.8556
509,1168.4,3.8559
511,1179.9,3.8559
513,1191.3,3.853
515,1202.8,3.852
517,1214.2,3.8507
519,1225.7,3.8494
521,1237.2,3.8494
523,1248.6,3.8487
525,1260.1,3.849
527,1271.5,3.8451
529,1282.9,3.8431
531,1294.4,3.8431
533,1305.9,3.8418
535,1317.3,3.8404
537,1328.8,3.8392
539,1340.3,3.8338
541,1351.8,3.8325
543,1363.3,3.8298
545,1374.7,3.8285
547,1386.3,3.8232
549,1397.7,3.8176
551,1409.2,3.8151
553,1420.7,3.8095
555,1432.1,3.8057
557,1443.6,3.8004
559,1455.2,3.7947
561,1466.7,3.7866
563,1478.2,3.7798
565,1489.7,3.7728
567,1501.2,3.7669
569,1512.7,3.7586
571,1524.2,3.7497
573,1535.7,3.7423
575,1547.3,3.7309
577,1558.8,3.7217
579,1570.3,3.7098
581,1581.8,3.6991
583,1593.3,3.6872
585,1604.7,3.6717
587,1616.2,3.6613
589,1627.7,3.6459
591,1639.2,3.6294
593,1650.8,3.6085
595,1662.4,3.5884
597,1674,3.5616
599,1685.6,3.5365
601,1697.2,3.5057
603,1708.9,3.4703
605,1720.5,3.4312
607,1732.2,3.3871
609,1743.9,3.3374
611,1755.5,3.2819
613,1767.2,3.2174
615,1779,3.15
617,1790.6,3.0712
619,1802.3,2.9868
621,1814.1,2.8933
623,1825.9,2.7933
625,1837.7,2.684
627,1849.5,2.5677
629,1861.2,2.4418
631,1872.9,2.3116
633,1884.7,2.1773
635,1896.4,2.0361
637,1908.2,1.8986
639,1919.9,1.7559
641,1931.6,1.6163
643,1943.3,1.4806
645,1954.9,1.346
647,1966.6,1.213
649,1978.2,1.0855
651,1989.8,0.9689
653,2001.4,0.8576
655,2013,0.7555
657,2024.6,0.6609
659,2036.2,0.5714
661,2047.7,0.4948
663,2059.2,0.4242
665,2070.8,0.3642
667,2082.4,0.31
669,2094.1,0.2636
671,2105.7,0.2238
673,2117.3,0.1926
675,2128.9,0.1619
677,2140.6,0.1371
679,2152.2,0.1211
681,2163.9,0.1049
683,2175.6,0.0919
685,2187.2,0.0801
687,2198.8,0.0722
689,2210.5,0.0654
691,2222.2,0.0599
693,2233.9,0.056
695,2245.6,0.053
697,2257.3,0.0488
699,2269.2,0.0481
701,2281,0.0456
703,2292.8,0.0454
705,2304.6,0.0441
707,2316.5,0.0428
709,2328.4,0.0429
711,2340.2,0.0454
713,2352.1,0.0421
715,2363.9,0.0421
717,2375.8,0.0427
719,2387.6,0.0418
721,2399.5,0.0395
723,2411.3,0.0415
725,2423.1,0.0415
727,2434.9,0.0428
729,2446.7,0.0415
731,2458.6,0.0415
733,2470.4,0.0405
735,2482.2,0.0425
737,2494.1,0.0425
739,2505.9,0.0404
741,2517.7,0.0406
743,2529.5,0.0421
745,2541.4,0.0408
747,2553.2,0.0395
749,2565,0.0385
751,2576.8,0.0424
753,2588.7,0.0412
755,2600.5,0.0405
757,2612.3,0.0398
759,2624.1,0.0398
761,2635.9,0.0398
763,2647.8,0.0412
765,2659.7,0.0402
767,2671.6,0.0379
769,2683.5,0.0403
771,2695.3,0.0414
773,2707.2,0.0402
775,2719.1,0.0389
777,2731.1,0.0365
779,2743,0.0379
781,2754.9,0.0392
783,2766.8,0.0405
785,2778.7,0.0397
787,2790.7,0.0379
789,2802.6,0.0395
791,2814.5,0.0395
793,2826.3,0.0395
795,2838.2,0.0395
797,2850.1,0.0395
799,2862.1,0.0395
801,2873.9,0.0382
803,2885.8,0.0386
805,2897.7,0.0392
807,2909.6,0.0382
809,2921.5,0.0408
811,2933.4,0.0388
813,2945.4,0.0402
815,2957.3,0.0375
817,2969.3,0.0385
819,2981.4,0.0385
821,2993.4,0.0385
822,2999.4,0.0372