File: PMMA/Calibration_Data/FSRI/FSRI_DSC_N2_20K_3.csv
Temp,time ,Heat Flow Rate
[K],[s],[mW/mg]
322.5,30.7,0.08064
324.5,54.2,0.20305
326.5,67.1,0.27234
328.5,77.4,0.3213
330.5,86.3,0.35334
332.5,94.5,0.37926
334.5,102.1,0.40468
336.5,109.4,0.42256
338.5,116.5,0.43639
340.5,123.3,0.4484
342.5,130,0.456
344.5,136.7,0.47124
346.5,143.2,0.48336
348.5,149.7,0.47895
350.5,156.2,0.49454
352.5,162.6,0.49926
354.5,168.9,0.504
356.5,175.3,0.51037
358.5,181.6,0.50402
360.5,187.8,0.5088
362.5,194,0.5024
364.5,200.2,0.5005
366.5,206.4,0.5053
368.5,212.5,0.50685
370.5,218.6,0.50643
372.5,224.7,0.51496
374.5,230.7,0.51982
376.5,236.8,0.52298
378.5,242.8,0.52788
380.5,248.9,0.53106
382.5,254.9,0.54116
384.5,260.8,0.54768
386.5,266.8,0.55611
388.5,272.8,0.55778
390.5,278.7,0.56953
392.5,284.7,0.59136
394.5,290.6,0.60164
396.5,296.5,0.612
398.5,302.4,0.63393
400.5,308.3,0.646
402.5,314.1,0.65895
404.5,319.9,0.66971
406.5,325.7,0.67768
408.5,331.5,0.6831
410.5,337.3,0.68904
412.5,343.1,0.69546
414.5,348.8,0.69768
416.5,354.6,0.70644
418.5,360.4,0.70847
420.5,366.1,0.714
422.5,371.8,0.71955
424.5,377.5,0.71894
426.5,383.2,0.72512
428.5,388.9,0.73424
430.5,394.6,0.73568
432.5,400.3,0.74763
434.5,406,0.74763
436.5,411.6,0.75328
438.5,417.3,0.76041
440.5,423,0.7735
442.5,428.6,0.78044
444.5,434.3,0.79572
446.5,440,0.79875
448.5,445.7,0.81753
450.5,451.3,0.82948
452.5,456.9,0.83661
454.5,462.6,0.85668
456.5,468.2,0.8662
458.5,473.8,0.87685
460.5,479.4,0.88644
462.5,485.1,0.89105
464.5,490.7,0.91749
466.5,496.3,0.89712
468.5,501.9,0.90216
470.5,507.5,0.89815
472.5,513.1,0.895
474.5,518.7,0.88784
476.5,524.3,0.89105
478.5,529.9,0.88426
480.5,535.5,0.88068
482.5,541.1,0.87932
484.5,546.7,0.88179
486.5,552.3,0.88068
488.5,557.9,0.88179
490.5,563.5,0.88893
492.5,569.1,0.8946
494.5,574.7,0.90678
496.5,580.2,0.895
498.5,585.8,0.8975
500.5,591.4,0.895
502.5,597,0.88536
504.5,602.6,0.8712
506.5,608.2,0.85204
508.5,613.7,0.84113
510.5,619.3,0.82698
512.5,624.9,0.8352
514.5,630.5,0.8257
516.5,636,0.8208
518.5,641.6,0.82264
520.5,647.1,0.8188
522.5,652.8,0.82211
524.5,658.3,0.82929
526.5,663.9,0.82467
528.5,669.5,0.8316
530.5,675,0.84006
532.5,680.6,0.83538
534.5,686.2,0.8496
536.5,691.8,0.84966
538.5,697.3,0.8568
540.5,702.9,0.86878
542.5,708.5,0.86519
544.5,714.1,0.87822
546.5,719.6,0.88314
548.5,725.2,0.8892
550.5,730.8,0.90216
552.5,736.4,0.90932
554.5,742,0.91848
556.5,747.6,0.93438
558.5,753.1,0.94417
560.5,758.7,0.95944
562.5,764.3,0.9585
564.5,769.9,0.99084
566.5,775.5,1.008
568.5,781.1,1.03104
570.5,786.7,1.04536
572.5,792.3,1.07616
574.5,797.9,1.08832
576.5,803.5,1.1067
578.5,809.1,1.1098
580.5,814.6,1.12852
582.5,820.3,1.14202
584.5,825.9,1.13564
586.5,831.5,1.14597
588.5,837.1,1.157
590.5,842.7,1.1715
592.5,848.4,1.18236
594.5,854,1.2002
596.5,859.6,1.2354
598.5,865.2,1.27448
600.5,870.9,1.33144
602.5,876.5,1.39082
604.5,882.2,1.47798
606.5,887.8,1.562
608.5,893.5,1.6544
610.5,899.1,1.78265
612.5,904.8,1.90452
614.5,910.5,2.02878
616.5,916.2,2.18944
618.5,921.9,2.36896
620.5,927.6,2.54124
622.5,933.3,2.74833
624.5,939,2.94905
626.5,944.7,3.19684
628.5,950.5,3.42432
630.5,956.2,3.66779
632.5,962,3.8976
634.5,967.7,4.14
636.5,973.5,4.3942
638.5,979.3,4.59708
640.5,985,4.7748
642.5,990.8,4.89461
644.5,996.6,5.00374
646.5,1002.3,5.08702
648.5,1008.1,5.0954
650.5,1013.8,5.1156
652.5,1019.6,5.08493
654.5,1025.3,5.00815
656.5,1031.1,4.91741
658.5,1036.8,4.76036
660.5,1042.5,4.5056
662.5,1048.2,4.21696
664.5,1053.8,3.91776
666.5,1059.5,3.6352
668.5,1065.1,3.30505
670.5,1070.8,2.97579
672.5,1076.4,2.6483
674.5,1082,2.34392
676.5,1087.7,2.06836
678.5,1093.3,1.79571
680.5,1098.9,1.56996
682.5,1104.6,1.32327
684.5,1110.3,1.11548
686.5,1115.9,0.94164
688.5,1121.6,0.78144
690.5,1127.3,0.65472
692.5,1133,0.53703
694.5,1138.7,0.44763
696.5,1144.4,0.36645
698.5,1150.1,0.31061
700.5,1155.8,0.25752
702.5,1161.6,0.21638
704.5,1167.3,0.18444
706.5,1173.1,0.1566
708.5,1178.8,0.13533
710.5,1184.6,0.12456
712.5,1190.4,0.11136
714.5,1196.1,0.1047
716.5,1201.9,0.10757
718.5,1207.6,0.10757
720.5,1213.4,0.1035
722.5,1219.2,0.08304
724.5,1225,0.0621
726.5,1230.8,0.04128
728.5,1236.6,0.03806
730.5,1242.4,0.0552
732.5,1248.2,0.07889
734.5,1254,0.10571
736.5,1259.8,0.1311
738.5,1265.7,0.1518
740.5,1271.5,0.16168
742.5,1277.3,0.1715
744.5,1283.2,0.17732
746.5,1289,0.18179
748.5,1294.8,0.18468
750.5,1300.7,0.18468
752.5,1306.5,0.18522
754.5,1312.4,0.18126
756.5,1318.2,0.18755
758.5,1324.1,0.18755
760.5,1329.9,0.1881
762.5,1335.8,0.19437
764.5,1341.6,0.18865
766.5,1347.5,0.19437
768.5,1353.4,0.19778
770.5,1359.2,0.1972
772.5,1365.1,0.19778
774.5,1371,0.204
776.5,1376.8,0.2058
778.5,1382.7,0.2058
780.5,1388.5,0.20801
782.5,1394.4,0.2108
784.5,1400.3,0.21142
786.5,1406.2,0.21204
788.5,1412,0.21483
790.5,1417.9,0.221
792.5,1423.8,0.221
794.5,1429.6,0.22374
796.5,1435.5,0.2244
798.5,1441.4,0.22572
800.5,1447.2,0.2278
802.5,1453.1,0.23188
804.5,1459,0.23052
806.5,1464.9,0.23322
808.5,1470.7,0.2346
810.5,1476.6,0.238
812.5,1482.5,0.24211
814.5,1488.4,0.24192
816.5,1494.4,0.24455
817.5,1497.3,0.24408