File: PMMA/Calibration_Data/FSRI/FSRI_STA_N2_10K_1.csv
Temp,time,TGA,DSC
[K],[s],[mg],[mW/mg]
322.8,0.0,3.9785,-3.57E-03
324.5,61.2,3.9805,7.56E-02
326.2,79.9,3.9799,0.12494
327.9,95.0,3.9807,0.15659
329.6,108.3,3.9785,0.17923
331.3,120.7,3.9780,0.19537
333.0,132.7,3.9803,0.20721
334.7,144.2,3.9794,0.21748
336.4,155.6,3.9776,0.22559
338.1,166.9,3.9795,0.23258
339.8,178.0,3.9797,0.23873
341.5,189.1,3.9802,0.24133
343.2,200.0,3.9790,0.2442
344.9,210.9,3.9790,0.25032
346.6,221.6,3.9784,0.25572
348.3,232.4,3.9790,0.26017
350.0,243.0,3.9790,0.26468
351.7,253.6,3.9790,0.2672
353.4,264.2,3.9802,0.27074
355.1,274.6,3.9789,0.2701
356.8,285.1,3.9790,0.26716
358.5,295.5,3.9795,0.26707
360.2,305.8,3.9787,0.26841
361.9,316.1,3.9790,0.26773
363.6,326.3,3.9777,0.2722
365.3,336.5,3.9767,0.27352
367.0,346.7,3.9791,0.27778
368.7,356.8,3.9778,0.2807
370.4,367.0,3.9777,0.28082
372.1,377.0,3.9781,0.28463
373.8,387.1,3.9791,0.28613
375.5,397.2,3.9790,0.29245
377.2,407.2,3.9790,0.29499
378.9,417.2,3.9763,0.29883
380.6,427.1,3.9792,0.30503
382.3,437.1,3.9766,0.3082
384.0,447.1,3.9739,0.31364
385.7,457.1,3.9758,0.31882
387.4,467.1,3.9773,0.32226
389.1,477.0,3.9766,0.32809
390.8,487.0,3.9765,0.33457
392.5,496.9,3.9753,0.3428
394.2,506.9,3.9752,0.35063
395.9,516.8,3.9753,0.35808
397.6,526.8,3.9759,0.36807
399.3,536.7,3.9759,0.37235
401.0,546.6,3.9753,0.379
402.7,556.5,3.9740,0.38432
404.4,566.4,3.9743,0.38615
406.1,576.2,3.9738,0.38999
407.8,586.1,3.9726,0.3884
409.5,596.1,3.9710,0.39074
411.2,605.9,3.9713,0.39183
412.9,615.8,3.9713,0.39473
414.6,625.7,3.9719,0.39714
416.3,635.5,3.9710,0.39909
418.0,645.4,3.9697,0.40239
419.7,655.2,3.9711,0.40122
421.4,665.1,3.9698,0.40448
423.1,674.9,3.9685,0.4057
424.8,684.7,3.9671,0.40907
426.5,694.5,3.9671,0.4142
428.2,704.3,3.9672,0.41693
429.9,714.1,3.9658,0.42139
431.6,723.9,3.9638,0.42665
433.3,733.8,3.9616,0.4265
435.0,743.6,3.9609,0.43501
436.7,753.4,3.9586,0.43788
438.4,763.2,3.9584,0.44433
440.1,773.0,3.9575,0.44923
441.8,782.8,3.9558,0.45717
443.5,792.6,3.9534,0.46198
445.2,802.4,3.9508,0.46725
446.9,812.2,3.9493,0.47504
448.6,822.0,3.9478,0.48425
450.3,831.7,3.9451,0.48787
452.0,841.5,3.9423,0.49269
453.7,851.3,3.9391,0.49807
455.4,861.1,3.9369,0.50281
457.1,870.9,3.9338,0.50732
458.8,880.7,3.9317,0.5114
460.5,890.4,3.9265,0.5124
462.2,900.2,3.9225,0.5113
463.9,909.9,3.9194,0.50755
465.6,919.7,3.9173,0.5067
467.3,929.4,3.9128,0.5011
469.0,939.2,3.9092,0.49793
470.7,949.0,3.9066,0.49476
472.4,958.7,3.9027,0.4958
474.1,968.5,3.9000,0.49779
475.8,978.2,3.8961,0.50104
477.5,988.0,3.8928,0.50129
479.2,997.7,3.8901,0.5045
480.9,1007.5,3.8869,0.50864
482.6,1017.3,3.8833,0.5114
484.3,1027.0,3.8795,0.51423
486.0,1036.8,3.8763,0.51419
487.7,1046.5,3.8724,0.51358
489.4,1056.3,3.8701,0.51176
491.1,1066.0,3.8675,0.50665
492.8,1075.7,3.8651,0.49981
494.5,1085.5,3.8644,0.49031
496.2,1095.2,3.8625,0.48247
497.9,1104.9,3.8599,0.47767
499.6,1114.6,3.8586,0.47505
501.3,1124.3,3.8582,0.47309
503.0,1134.0,3.8582,0.47
504.7,1143.8,3.8559,0.46697
506.4,1153.5,3.8556,0.46861
508.1,1163.2,3.8546,0.46622
509.8,1173.0,3.8559,0.47145
511.5,1182.7,3.8546,0.47088
513.2,1192.5,3.8530,0.47368
514.9,1202.2,3.8520,0.47476
516.6,1211.9,3.8507,0.48054
518.3,1221.7,3.8493,0.4849
520.0,1231.4,3.8494,0.48845
521.7,1241.2,3.8494,0.48969
523.4,1250.9,3.8480,0.49366
525.1,1260.6,3.8490,0.49764
526.8,1270.4,3.8451,0.50178
528.5,1280.1,3.8431,0.50676
530.2,1289.8,3.8437,0.50992
531.9,1299.5,3.8425,0.51191
533.6,1309.3,3.8418,0.52035
535.3,1319.0,3.8405,0.52203
537.0,1328.8,3.8392,0.5316
538.7,1338.6,3.8338,0.53613
540.4,1348.3,3.8337,0.54279
542.1,1358.1,3.8308,0.55014
543.8,1367.8,3.8299,0.55792
545.5,1377.6,3.8262,0.56371
547.2,1387.4,3.8218,0.57444
548.9,1397.1,3.8176,0.58181
550.6,1406.9,3.8161,0.59205
552.3,1416.7,3.8111,0.60003
554.0,1426.4,3.8076,0.61079
555.7,1436.2,3.8045,0.61756
557.4,1446.0,3.7998,0.62204
559.1,1455.8,3.7938,0.62757
560.8,1465.5,3.7874,0.63633
562.5,1475.3,3.7812,0.64226
564.2,1485.1,3.7755,0.65114
565.9,1494.9,3.7706,0.65779
567.6,1504.7,3.7639,0.66828
569.3,1514.5,3.7569,0.67039
571.0,1524.2,3.7497,0.67598
572.7,1534.0,3.7441,0.68273
574.4,1543.8,3.7340,0.68948
576.1,1553.6,3.7263,0.69457
577.8,1563.4,3.7173,0.69373
579.5,1573.2,3.7079,0.68016
581.2,1582.9,3.6980,0.6684
582.9,1592.7,3.6883,0.672
584.6,1602.4,3.6746,0.69308
586.3,1612.2,3.6665,0.72415
588.0,1622.0,3.6539,0.76212
589.7,1631.7,3.6426,0.80439
591.4,1641.5,3.6250,0.84766
593.1,1651.4,3.6075,0.89541
594.8,1661.2,3.5907,0.9393
596.5,1671.1,3.5687,0.98443
598.2,1680.9,3.5496,1.03659
599.9,1690.8,3.5218,1.08925
601.6,1700.7,3.4964,1.14702
603.3,1710.6,3.4644,1.2109
605.0,1720.5,3.4312,1.28458
606.7,1730.5,3.3933,1.36233
608.4,1740.4,3.3526,1.44701
610.1,1750.3,3.3060,1.54329
611.8,1760.2,3.2572,1.64338
613.5,1770.1,3.2018,1.75062
615.2,1780.1,3.1435,1.86234
616.9,1790.0,3.0760,1.97774
618.6,1800.0,3.0046,2.09532
620.3,1810.0,2.9262,2.21814
622.0,1820.0,2.8436,2.33938
623.7,1830.1,2.7567,2.45744
625.4,1840.1,2.6592,2.56998
627.1,1850.0,2.5617,2.67658
628.8,1860.0,2.4546,2.77432
630.5,1870.0,2.3444,2.85226
632.2,1880.0,2.2298,2.91219
633.9,1890.0,2.1163,2.94801
635.6,1900.0,1.9960,2.96652
637.3,1910.0,1.8776,2.95104
639.0,1919.9,1.7559,2.9183
640.7,1929.9,1.6357,2.89593
642.4,1939.8,1.5183,2.84162
644.1,1949.7,1.4045,2.79531
645.8,1959.5,1.2928,2.72332
647.5,1969.5,1.1797,2.62493
649.2,1979.4,1.0746,2.50362
650.9,1989.2,0.9751,2.37724
652.6,1999.1,0.8796,2.22971
654.3,2008.9,0.7885,2.10172
656.0,2018.8,0.7044,1.94859
657.7,2028.6,0.6273,1.80251
659.4,2038.5,0.5549,1.64814
661.1,2048.3,0.4915,1.48829
662.8,2058.0,0.4301,1.33267
664.5,2067.9,0.3788,1.19608
666.2,2077.8,0.3310,1.06652
667.9,2087.7,0.2885,0.94386
669.6,2097.5,0.2494,0.83024
671.3,2107.4,0.2187,0.72645
673.0,2117.3,0.1926,0.62995
674.7,2127.2,0.1665,0.54907
676.4,2137.1,0.1435,0.4708
678.1,2147.0,0.1275,0.40412
679.8,2156.9,0.1140,0.3457
681.5,2166.8,0.1016,0.29484
683.2,2176.7,0.0905,0.25616
684.9,2186.6,0.0811,0.23264
686.6,2196.5,0.0736,0.22318
688.3,2206.4,0.0682,0.20777
690.0,2216.4,0.0628,0.20294
691.7,2226.3,0.0586,0.19874
693.4,2236.2,0.0546,0.19945
695.1,2246.2,0.0522,0.19193
696.8,2256.2,0.0494,0.17064
698.5,2266.2,0.0481,0.14467
700.2,2276.2,0.0467,0.12074
701.9,2286.3,0.0441,9.23E-02
703.6,2296.4,0.0441,6.15E-02
705.3,2306.4,0.0441,1.67E-02
707.0,2316.5,0.0428,-2.51E-02
708.7,2326.6,0.0418,-3.59E-02
710.4,2336.7,0.0454,-1.45E-02
712.1,2346.7,0.0441,1.23E-02
713.8,2356.8,0.0421,2.91E-02
715.5,2366.9,0.0421,3.34E-02
717.2,2376.9,0.0428,3.63E-02
718.9,2387.0,0.0422,3.82E-02
720.6,2397.1,0.0395,3.76E-02
722.3,2407.1,0.0415,4.06E-02
724.0,2417.2,0.0415,4.01E-02
725.7,2427.3,0.0410,4.32E-02
727.4,2437.3,0.0441,4.39E-02
729.1,2447.3,0.0415,4.59E-02
730.8,2457.4,0.0415,4.61E-02
732.5,2467.4,0.0416,5.06E-02
734.2,2477.5,0.0412,4.78E-02
735.9,2487.6,0.0412,4.60E-02
737.6,2497.6,0.0425,4.85E-02
739.3,2507.7,0.0399,5.17E-02
741.0,2517.7,0.0406,5.09E-02
742.7,2527.8,0.0421,5.11E-02
744.4,2537.8,0.0421,5.18E-02
746.1,2547.8,0.0409,5.73E-02
747.8,2557.9,0.0398,5.58E-02
749.5,2568.0,0.0391,5.64E-02
751.2,2578.0,0.0425,6.23E-02
752.9,2588.1,0.0411,5.80E-02
754.6,2598.1,0.0405,6.42E-02
756.3,2608.2,0.0398,6.35E-02
758.0,2618.2,0.0398,6.60E-02
759.7,2628.2,0.0411,6.83E-02
761.4,2638.3,0.0406,6.44E-02
763.1,2648.4,0.0412,6.78E-02
764.8,2658.5,0.0402,6.92E-02
766.5,2668.6,0.0388,7.04E-02
768.2,2678.7,0.0384,7.18E-02
769.9,2688.8,0.0425,7.19E-02
771.6,2698.9,0.0402,7.68E-02
773.3,2709.0,0.0402,7.38E-02
775.0,2719.1,0.0389,7.85E-02
776.7,2729.3,0.0365,7.97E-02
778.4,2739.4,0.0379,8.00E-02
780.1,2749.5,0.0392,8.07E-02
781.8,2759.7,0.0392,8.37E-02
783.5,2769.8,0.0405,8.33E-02
785.2,2779.9,0.0392,8.37E-02
786.9,2790.1,0.0379,8.92E-02
788.6,2800.2,0.0395,8.82E-02
790.3,2810.3,0.0387,9.30E-02
792.0,2820.4,0.0395,9.84E-02
793.7,2830.5,0.0384,9.65E-02
795.4,2840.6,0.0395,9.82E-02
797.1,2850.7,0.0395,0.10176
798.8,2860.9,0.0395,0.10474
800.5,2871.0,0.0382,0.10666
802.2,2881.0,0.0383,0.10769
803.9,2891.2,0.0378,0.10971
805.6,2901.3,0.0392,0.10928
807.3,2911.4,0.0394,0.1086
809.0,2921.5,0.0408,0.10817
810.7,2931.6,0.0375,0.11085
812.4,2941.8,0.0402,0.10791
814.1,2952.0,0.0389,0.11173
815.8,2962.1,0.0389,0.10867
817.5,2972.3,0.0386,0.11216
819.2,2982.6,0.0398,0.1121
820.9,2992.8,0.0385,0.11253
822.0,2999.4,0.0372,0.11372