File: PMMA/Calibration_Data/FSRI/FSRI_STA_N2_30K_2.csv
Temp,time,TGA,DSC
[K],[s],[mg],[mW/mg]
322.1,0.0,4.0669,-4.80E-03
323.8,42.4,4.0643,8.69E-02
325.5,53.0,4.0623,0.16202
327.2,60.8,4.0626,0.22575
328.9,67.3,4.0636,0.2798
330.6,73.1,4.0635,0.32871
332.3,78.4,4.0628,0.37183
334.0,83.3,4.0623,0.41022
335.7,88.0,4.0632,0.44409
337.4,92.4,4.0620,0.47515
339.1,96.8,4.0620,0.50479
340.8,100.9,4.0616,0.53173
342.5,105.0,4.0625,0.55737
344.2,109.0,4.0622,0.57958
345.9,112.9,4.0626,0.59841
347.6,116.7,4.0636,0.62074
349.3,120.6,4.0640,0.6399
351.0,124.3,4.0633,0.65929
352.7,128.0,4.0623,0.67834
354.4,131.7,4.0639,0.69659
356.1,135.3,4.0644,0.70933
357.8,139.0,4.0638,0.72194
359.5,142.6,4.0632,0.72983
361.2,146.1,4.0630,0.7326
362.9,149.7,4.0629,0.73466
364.6,153.2,4.0629,0.73422
366.3,156.7,4.0620,0.73562
368.0,160.2,4.0608,0.73509
369.7,163.7,4.0607,0.73747
371.4,167.2,4.0613,0.74312
373.1,170.6,4.0618,0.74902
374.8,174.1,4.0613,0.75573
376.5,177.5,4.0618,0.76291
378.2,181.0,4.0625,0.7714
379.9,184.4,4.0625,0.78156
381.6,187.9,4.0611,0.78864
383.3,191.3,4.0611,0.79763
385.0,194.7,4.0613,0.80603
386.7,198.1,4.0608,0.81377
388.4,201.6,4.0602,0.82618
390.1,205.0,4.0598,0.8378
391.8,208.4,4.0585,0.85238
393.5,211.8,4.0585,0.86705
395.2,215.2,4.0585,0.88377
396.9,218.6,4.0598,0.90422
398.6,221.9,4.0599,0.9233
400.3,225.3,4.0585,0.94024
402.0,228.7,4.0585,0.95724
403.7,232.0,4.0598,0.97662
405.4,235.4,4.0598,0.99099
407.1,238.7,4.0598,1.00621
408.8,242.1,4.0598,1.01677
410.5,245.4,4.0596,1.02869
412.2,248.7,4.0585,1.03973
413.9,252.0,4.0582,1.04914
415.6,255.3,4.0582,1.05898
417.3,258.6,4.0582,1.06471
419.0,261.9,4.0572,1.07236
420.7,265.2,4.0556,1.08016
422.4,268.4,4.0556,1.08863
424.1,271.7,4.0529,1.09463
425.8,274.9,4.0529,1.10324
427.5,278.2,4.0526,1.10979
429.2,281.5,4.0526,1.11729
430.9,284.7,4.0516,1.12665
432.6,288.0,4.0510,1.13478
434.3,291.2,4.0516,1.14195
436.0,294.4,4.0503,1.15014
437.7,297.7,4.0489,1.16135
439.4,300.9,4.0476,1.16924
441.1,304.1,4.0450,1.18299
442.8,307.3,4.0450,1.19238
444.5,310.5,4.0450,1.20556
446.2,313.7,4.0437,1.2209
447.9,316.9,4.0424,1.23716
449.6,320.1,4.0421,1.25319
451.3,323.3,4.0411,1.26962
453.0,326.5,4.0410,1.28747
454.7,329.7,4.0382,1.30563
456.4,332.8,4.0355,1.32437
458.1,336.0,4.0338,1.34646
459.8,339.2,4.0301,1.36726
461.5,342.3,4.0262,1.38388
463.2,345.5,4.0230,1.39938
464.9,348.6,4.0205,1.41495
466.6,351.8,4.0186,1.42849
468.3,354.9,4.0145,1.44071
470.0,358.0,4.0099,1.44958
471.7,361.2,4.0052,1.45741
473.4,364.3,4.0017,1.46011
475.1,367.4,3.9991,1.46316
476.8,370.6,3.9956,1.46162
478.5,373.7,3.9910,1.45805
480.2,376.8,3.9871,1.45355
481.9,379.9,3.9836,1.44942
483.6,383.0,3.9806,1.44301
485.3,386.2,3.9777,1.44144
487.0,389.3,3.9740,1.43846
488.7,392.4,3.9704,1.43795
490.4,395.5,3.9658,1.44156
492.1,398.6,3.9632,1.44523
493.8,401.7,3.9597,1.4528
495.5,404.8,3.9564,1.46159
497.2,407.9,3.9555,1.4696
498.9,411.0,3.9523,1.47725
500.6,414.1,3.9489,1.48324
502.3,417.2,3.9454,1.4895
504.0,420.3,3.9419,1.49476
505.7,423.4,3.9387,1.49422
507.4,426.5,3.9338,1.49098
509.1,429.6,3.9308,1.48447
510.8,432.7,3.9283,1.47399
512.5,435.8,3.9266,1.45644
514.2,438.9,3.9234,1.44118
515.9,441.9,3.9228,1.4229
517.6,445.0,3.9205,1.40803
519.3,448.1,3.9192,1.39336
521.0,451.2,3.9179,1.38267
522.7,454.3,3.9166,1.37725
524.4,457.4,3.9153,1.36927
526.1,460.5,3.9153,1.36532
527.8,463.6,3.9153,1.36122
529.5,466.6,3.9140,1.35901
531.2,469.7,3.9140,1.3576
532.9,472.8,3.9140,1.36017
534.6,475.9,3.9142,1.36221
536.3,479.0,3.9140,1.36403
538.0,482.1,3.9126,1.36885
539.7,485.1,3.9100,1.37452
541.4,488.2,3.9098,1.37918
543.1,491.3,3.9085,1.38295
544.8,494.4,3.9071,1.38858
546.5,497.5,3.9057,1.39966
548.2,500.6,3.9031,1.40546
549.9,503.6,3.9018,1.41429
551.6,506.7,3.9003,1.41993
553.3,509.8,3.8989,1.42995
555.0,512.9,3.8975,1.44101
556.7,516.0,3.8950,1.4533
558.4,519.1,3.8942,1.4633
560.1,522.1,3.8913,1.4764
561.8,525.2,3.8882,1.48864
563.5,528.3,3.8863,1.50552
565.2,531.4,3.8828,1.52307
566.9,534.5,3.8786,1.54676
568.6,537.6,3.8744,1.56974
570.3,540.7,3.8693,1.59217
572.0,543.8,3.8672,1.61997
573.7,546.8,3.8630,1.64078
575.4,549.9,3.8585,1.66212
577.1,553.0,3.8532,1.68543
578.8,556.1,3.8482,1.70543
580.5,559.2,3.8425,1.72573
582.2,562.3,3.8368,1.74458
583.9,565.4,3.8301,1.76344
585.6,568.5,3.8236,1.7787
587.3,571.6,3.8160,1.79868
589.0,574.7,3.8092,1.81592
590.7,577.8,3.8019,1.83394
592.4,581.0,3.7936,1.85103
594.1,584.1,3.7858,1.86876
595.8,587.2,3.7771,1.88984
597.5,590.3,3.7691,1.91472
599.2,593.4,3.7587,1.9496
600.9,596.5,3.7484,1.98408
602.6,599.6,3.7375,2.03184
604.3,602.7,3.7255,2.08466
606.0,605.8,3.7107,2.14862
607.7,609.0,3.6961,2.21966
609.4,612.1,3.6817,2.3004
611.1,615.2,3.6651,2.39165
612.8,618.3,3.6461,2.49691
614.5,621.5,3.6251,2.61654
616.2,624.6,3.6019,2.74659
617.9,627.7,3.5751,2.89136
619.6,630.9,3.5435,3.0534
621.3,634.0,3.5127,3.2311
623.0,637.1,3.4780,3.42447
624.7,640.3,3.4379,3.63986
626.4,643.4,3.3973,3.86965
628.1,646.6,3.3538,4.11517
629.8,649.8,3.3002,4.37768
631.5,653.0,3.2466,4.64708
633.2,656.1,3.1855,4.93614
634.9,659.3,3.1183,5.23114
636.6,662.5,3.0499,5.53553
638.3,665.7,2.9757,5.84973
640.0,668.9,2.8925,6.16419
641.7,672.1,2.8075,6.47406
643.4,675.3,2.7173,6.77798
645.1,678.5,2.6167,7.05676
646.8,681.7,2.5183,7.30086
648.5,684.9,2.4137,7.50131
650.2,688.1,2.2992,7.68695
651.9,691.3,2.1906,7.83964
653.6,694.5,2.0766,7.97871
655.3,697.7,1.9563,8.06916
657.0,701.0,1.8421,8.05991
658.7,704.2,1.7250,8.03257
660.4,707.4,1.6020,8.01079
662.1,710.6,1.4898,7.99013
663.8,713.7,1.3751,7.79739
665.5,716.9,1.2563,7.63043
667.2,720.1,1.1494,7.46088
668.9,723.3,1.0415,7.25709
670.6,726.5,0.9316,6.99381
672.3,729.6,0.8329,6.66368
674.0,732.8,0.7378,6.28224
675.7,735.9,0.6461,5.84641
677.4,739.1,0.5598,5.37532
679.1,742.2,0.4848,4.89834
680.8,745.3,0.4141,4.42294
682.5,748.5,0.3504,3.97235
684.2,751.6,0.2983,3.53644
685.9,754.7,0.2485,3.12579
687.6,757.8,0.2043,2.74413
689.3,760.9,0.1678,2.38456
691.0,764.0,0.1352,2.05072
692.7,767.2,0.1044,1.74483
694.4,770.3,0.0807,1.47181
696.1,773.4,0.0605,1.23447
697.8,776.5,0.0430,1.01807
699.5,779.7,0.0300,0.83618
701.2,782.8,0.0162,0.68054
702.9,786.0,0.0062,0.54637
704.6,789.1,-0.0023,0.43274
706.3,792.3,-0.0082,0.34002
708.0,795.4,-0.0149,0.25993
709.7,798.6,-0.0206,0.1936
711.4,801.8,-0.0238,0.13848
713.1,804.9,-0.0275,9.41E-02
714.8,808.1,-0.0290,5.45E-02
716.5,811.3,-0.0322,2.38E-02
718.2,814.5,-0.0349,1.04E-04
719.9,817.7,-0.0362,-2.17E-02
721.6,820.9,-0.0383,-3.26E-02
723.3,824.1,-0.0383,-4.81E-02
725.0,827.3,-0.0396,-5.92E-02
726.7,830.5,-0.0396,-6.42E-02
728.4,833.7,-0.0396,-5.95E-02
730.1,836.9,-0.0396,-5.05E-02
731.8,840.1,-0.0398,-5.12E-02
733.5,843.3,-0.0396,-5.93E-02
735.2,846.5,-0.0409,-7.07E-02
736.9,849.7,-0.0433,-8.42E-02
738.6,853.0,-0.0435,-0.10264
740.3,856.2,-0.0435,-0.11617
742.0,859.4,-0.0435,-0.12302
743.7,862.7,-0.0430,-0.12867
745.4,865.9,-0.0422,-0.12597
747.1,869.2,-0.0421,-0.12799
748.8,872.4,-0.0435,-0.12546
750.5,875.7,-0.0435,-0.12267
752.2,878.9,-0.0435,-0.12033
753.9,882.2,-0.0435,-0.11347
755.6,885.4,-0.0445,-0.1086
757.3,888.7,-0.0455,-0.10581
759.0,891.9,-0.0455,-9.85E-02
760.7,895.2,-0.0455,-9.34E-02
762.4,898.4,-0.0455,-8.89E-02
764.1,901.7,-0.0455,-8.78E-02
765.8,904.9,-0.0468,-8.54E-02
767.5,908.2,-0.0464,-8.22E-02
769.2,911.5,-0.0455,-7.92E-02
770.9,914.7,-0.0442,-8.08E-02
772.6,918.0,-0.0442,-7.60E-02
774.3,921.3,-0.0439,-7.15E-02
776.0,924.5,-0.0433,-6.80E-02
777.7,927.8,-0.0426,-6.57E-02
779.4,931.1,-0.0412,-5.89E-02
781.1,934.3,-0.0409,-5.62E-02
782.8,937.6,-0.0409,-5.02E-02
784.5,940.9,-0.0422,-4.63E-02
786.2,944.2,-0.0422,-4.06E-02
787.9,947.4,-0.0422,-4.03E-02
789.6,950.7,-0.0436,-3.70E-02
791.3,954.0,-0.0435,-3.34E-02
793.0,957.3,-0.0445,-3.08E-02
794.7,960.6,-0.0445,-2.93E-02
796.4,963.9,-0.0445,-2.82E-02
798.1,967.1,-0.0448,-2.07E-02
799.8,970.4,-0.0448,-2.34E-02
801.5,973.7,-0.0461,-2.23E-02
803.2,977.0,-0.0449,-1.98E-02
804.9,980.3,-0.0448,-1.64E-02
806.6,983.6,-0.0435,-1.55E-02
808.3,986.9,-0.0448,-1.31E-02
810.0,990.2,-0.0461,-1.22E-02
811.7,993.5,-0.0461,-1.12E-02
813.4,996.8,-0.0447,-8.73E-03
273.2,-600.6,0.0000,
273.2,-600.6,0.0000,
273.2,-600.6,0.0000,
273.2,-600.6,0.0000,
273.2,-600.6,0.0000,