File: PMMA/Calibration_Data/FSRI/FSRI_STA_N2_30K_3.csv
Temp,time,TGA,DSC
[K],[s],[mg],[mW/mg]
322.2,0.0,3.9307,-3.73E-03
323.9,42.3,3.9288,9.71E-02
325.6,52.9,3.9302,0.17376
327.3,60.7,3.9297,0.23814
329.0,67.3,3.9313,0.29306
330.7,73.2,3.9302,0.3439
332.4,78.4,3.9290,0.38705
334.1,83.4,3.9307,0.42805
335.8,88.1,3.9285,0.46426
337.5,92.5,3.9308,0.49735
339.2,96.8,3.9298,0.52641
340.9,101.0,3.9296,0.55581
342.6,105.1,3.9299,0.58016
344.3,109.1,3.9303,0.60647
346.0,113.0,3.9299,0.63053
347.7,116.8,3.9312,0.65097
349.4,120.6,3.9312,0.6734
351.1,124.4,3.9301,0.69446
352.8,128.1,3.9307,0.71519
354.5,131.8,3.9305,0.73236
356.2,135.4,3.9288,0.75153
357.9,139.0,3.9307,0.76479
359.6,142.6,3.9306,0.77508
361.3,146.2,3.9303,0.77964
363.0,149.7,3.9291,0.78177
364.7,153.2,3.9291,0.78212
366.4,156.7,3.9291,0.78364
368.1,160.2,3.9291,0.78511
369.8,163.7,3.9290,0.78903
371.5,167.2,3.9289,0.79455
373.2,170.6,3.9298,0.80273
374.9,174.1,3.9289,0.8091
376.6,177.5,3.9290,0.81685
378.3,181.0,3.9290,0.82317
380.0,184.4,3.9278,0.83234
381.7,187.8,3.9276,0.84258
383.4,191.3,3.9285,0.85007
385.1,194.7,3.9285,0.85994
386.8,198.1,3.9284,0.87293
388.5,201.5,3.9276,0.88632
390.2,205.0,3.9275,0.89571
391.9,208.4,3.9276,0.90931
393.6,211.8,3.9266,0.92279
395.3,215.2,3.9276,0.94355
397.0,218.5,3.9263,0.96213
398.7,221.9,3.9263,0.98168
400.4,225.3,3.9274,1.00234
402.1,228.6,3.9263,1.02511
403.8,232.0,3.9269,1.04314
405.5,235.3,3.9276,1.05863
407.2,238.7,3.9262,1.07479
408.9,242.0,3.9257,1.09084
410.6,245.3,3.9256,1.10436
412.3,248.6,3.9256,1.11733
414.0,251.9,3.9263,1.13144
415.7,255.2,3.9257,1.13848
417.4,258.5,3.9256,1.14994
419.1,261.7,3.9257,1.15721
420.8,265.0,3.9247,1.16691
422.5,268.2,3.9233,1.17743
424.2,271.5,3.9230,1.18317
425.9,274.7,3.9230,1.19105
427.6,278.0,3.9230,1.20209
429.3,281.2,3.9217,1.21092
431.0,284.5,3.9207,1.2173
432.7,287.7,3.9190,1.22619
434.4,290.9,3.9191,1.23602
436.1,294.1,3.9191,1.24711
437.8,297.4,3.9192,1.25631
439.5,300.6,3.9177,1.26658
441.2,303.8,3.9176,1.28166
442.9,307.0,3.9164,1.29534
444.6,310.2,3.9151,1.30985
446.3,313.4,3.9151,1.32547
448.0,316.6,3.9138,1.34356
449.7,319.8,3.9129,1.36201
451.4,322.9,3.9112,1.38248
453.1,326.1,3.9096,1.40048
454.8,329.3,3.9077,1.42068
456.5,332.5,3.9062,1.4412
458.2,335.6,3.9044,1.45852
459.9,338.8,3.9026,1.481
461.6,341.9,3.8990,1.49694
463.3,345.1,3.8964,1.51465
465.0,348.2,3.8918,1.52945
466.7,351.4,3.8892,1.5443
468.4,354.5,3.8859,1.55413
470.1,357.6,3.8826,1.56206
471.8,360.7,3.8805,1.57001
473.5,363.9,3.8784,1.57754
475.2,367.0,3.8729,1.57524
476.9,370.1,3.8687,1.57634
478.6,373.2,3.8659,1.57404
480.3,376.4,3.8631,1.56917
482.0,379.5,3.8603,1.56513
483.7,382.6,3.8568,1.56128
485.4,385.7,3.8539,1.55751
487.1,388.8,3.8505,1.5564
488.8,392.0,3.8483,1.55424
490.5,395.1,3.8447,1.55549
492.2,398.2,3.8407,1.5563
493.9,401.3,3.8379,1.56237
495.6,404.4,3.8344,1.56774
497.3,407.5,3.8320,1.5719
499.0,410.6,3.8273,1.57888
500.7,413.7,3.8257,1.58671
502.4,416.9,3.8215,1.58892
504.1,420.0,3.8208,1.59417
505.8,423.1,3.8171,1.59056
507.5,426.2,3.8134,1.58605
509.2,429.3,3.8113,1.57781
510.9,432.4,3.8099,1.56729
512.6,435.5,3.8086,1.55292
514.3,438.6,3.8063,1.53921
516.0,441.7,3.8046,1.52685
517.7,444.8,3.8032,1.51547
519.4,447.9,3.8019,1.50607
521.1,451.0,3.8019,1.49708
522.8,454.1,3.8006,1.49341
524.5,457.1,3.7993,1.48963
526.2,460.2,3.7993,1.4869
527.9,463.3,3.7980,1.48577
529.6,466.4,3.7980,1.48817
531.3,469.5,3.7967,1.48886
533.0,472.6,3.7965,1.49114
534.7,475.7,3.7954,1.49241
536.4,478.8,3.7953,1.49421
538.1,481.9,3.7946,1.4989
539.8,484.9,3.7940,1.50355
541.5,488.0,3.7927,1.50649
543.2,491.1,3.7913,1.51476
544.9,494.2,3.7911,1.52106
546.6,497.3,3.7898,1.5281
548.3,500.4,3.7884,1.53584
550.0,503.4,3.7877,1.54562
551.7,506.5,3.7871,1.55306
553.4,509.6,3.7850,1.56466
555.1,512.7,3.7834,1.57516
556.8,515.8,3.7821,1.58981
558.5,518.9,3.7806,1.6022
560.2,521.9,3.7789,1.61458
561.9,525.0,3.7759,1.62589
563.6,528.1,3.7745,1.64662
565.3,531.2,3.7701,1.66334
567.0,534.3,3.7672,1.68157
568.7,537.4,3.7641,1.70124
570.4,540.5,3.7613,1.72661
572.1,543.5,3.7569,1.75233
573.8,546.6,3.7530,1.77928
575.5,549.7,3.7499,1.80424
577.2,552.8,3.7451,1.82686
578.9,555.9,3.7395,1.85127
580.6,559.0,3.7341,1.8697
582.3,562.1,3.7297,1.8896
584.0,565.2,3.7235,1.91222
585.7,568.3,3.7173,1.93074
587.4,571.3,3.7111,1.95088
589.1,574.4,3.7039,1.97247
590.8,577.5,3.6961,1.99125
592.5,580.6,3.6896,2.01078
594.2,583.7,3.6823,2.03062
595.9,586.8,3.6744,2.05442
597.6,589.9,3.6648,2.08172
599.3,593.0,3.6553,2.11324
601.0,596.1,3.6465,2.15131
602.7,599.2,3.6362,2.19805
604.4,602.3,3.6251,2.25321
606.1,605.5,3.6136,2.31703
607.8,608.6,3.6000,2.38919
609.5,611.7,3.5856,2.47546
611.2,614.8,3.5692,2.57077
612.9,617.9,3.5511,2.68239
614.6,621.0,3.5316,2.80622
616.3,624.1,3.5105,2.93889
618.0,627.3,3.4876,3.08789
619.7,630.4,3.4606,3.25333
621.4,633.5,3.4296,3.43414
623.1,636.7,3.3984,3.62973
624.8,639.8,3.3621,3.83863
626.5,642.9,3.3238,4.06853
628.2,646.1,3.2816,4.31418
629.9,649.3,3.2339,4.57589
631.6,652.4,3.1831,4.8564
633.3,655.6,3.1308,5.14374
635.0,658.8,3.0694,5.44483
636.7,662.0,3.0005,5.76064
638.4,665.1,2.9350,6.08273
640.1,668.3,2.8577,6.40692
641.8,671.5,2.7751,6.7322
643.5,674.7,2.6937,7.05616
645.2,677.9,2.6063,7.37063
646.9,681.1,2.5083,7.67748
648.6,684.3,2.4118,7.92782
650.3,687.5,2.3084,8.12713
652.0,690.7,2.1961,8.25327
653.7,693.9,2.0904,8.38858
655.4,697.1,1.9790,8.5197
657.1,700.3,1.8631,8.61281
658.8,703.5,1.7543,8.59291
660.5,706.7,1.6390,8.52858
662.2,709.9,1.5227,8.41565
663.9,713.1,1.4170,8.24383
665.6,716.3,1.3062,8.08189
667.3,719.4,1.1955,7.84456
669.0,722.6,1.0958,7.49834
670.7,725.8,0.9979,7.21756
672.4,729.0,0.8985,7.04887
674.1,732.1,0.8113,6.76826
675.8,735.3,0.7231,6.40681
677.5,738.4,0.6361,5.97981
679.2,741.6,0.5603,5.509
680.9,744.7,0.4919,5.01288
682.6,747.8,0.4262,4.52035
684.3,751.0,0.3702,4.04504
686.0,754.1,0.3202,3.59901
687.7,757.2,0.2747,3.18533
689.4,760.4,0.2346,2.79517
691.1,763.5,0.2013,2.42972
692.8,766.6,0.1716,2.09329
694.5,769.7,0.1426,1.79094
696.2,772.9,0.1221,1.52091
697.9,776.0,0.1062,1.28224
699.6,779.2,0.0913,1.07685
701.3,782.3,0.0805,0.90181
703.0,785.5,0.0695,0.75267
704.7,788.6,0.0589,0.62805
706.4,791.8,0.0523,0.52368
708.1,794.9,0.0468,0.43304
709.8,798.1,0.0424,0.36295
711.5,801.3,0.0387,0.30347
713.2,804.5,0.0354,0.25387
714.9,807.7,0.0330,0.21157
716.6,810.8,0.0307,0.17975
718.3,814.0,0.0287,0.14954
720.0,817.2,0.0273,0.13379
721.7,820.4,0.0256,0.11337
723.4,823.7,0.0245,9.90E-02
725.1,826.9,0.0233,8.45E-02
726.8,830.1,0.0228,7.66E-02
728.5,833.3,0.0228,6.85E-02
730.2,836.5,0.0228,6.38E-02
731.9,839.7,0.0215,6.61E-02
733.6,843.0,0.0215,7.17E-02
735.3,846.2,0.0215,7.06E-02
737.0,849.4,0.0231,6.81E-02
738.7,852.6,0.0231,5.75E-02
740.4,855.9,0.0231,5.05E-02
742.1,859.1,0.0231,4.01E-02
743.8,862.4,0.0228,4.07E-02
745.5,865.6,0.0228,4.24E-02
747.2,868.9,0.0225,4.79E-02
748.9,872.1,0.0225,5.67E-02
750.6,875.4,0.0225,6.55E-02
752.3,878.6,0.0221,7.99E-02
754.0,881.9,0.0215,9.02E-02
755.7,885.1,0.0228,9.79E-02
757.4,888.4,0.0228,0.10511
759.1,891.7,0.0229,0.11558
760.8,894.9,0.0238,0.12386
762.5,898.2,0.0238,0.13186
764.2,901.4,0.0238,0.13755
765.9,904.7,0.0238,0.14546
767.6,908.0,0.0238,0.15031
769.3,911.3,0.0225,0.1553
771.0,914.5,0.0225,0.15673
772.7,917.8,0.0225,0.16314
774.4,921.1,0.0225,0.16907
776.1,924.3,0.0211,0.16659
777.8,927.6,0.0202,0.17496
779.5,930.9,0.0226,0.17665
781.2,934.2,0.0229,0.17954
782.9,937.5,0.0229,0.18196
784.6,940.7,0.0240,0.18229
786.3,944.0,0.0229,0.18523
788.0,947.3,0.0216,0.18806
789.7,950.6,0.0216,0.18515
791.4,953.9,0.0216,0.18394
793.1,957.2,0.0216,0.18641
794.8,960.5,0.0205,0.18686
796.5,963.7,0.0216,0.18688
798.2,967.0,0.0229,0.19061
799.9,970.3,0.0216,0.19442
801.6,973.6,0.0226,0.19092
803.3,976.9,0.0226,0.19542
805.0,980.2,0.0213,0.19596
806.7,983.5,0.0213,0.19883
808.4,986.8,0.0226,0.19777
810.1,990.1,0.0226,0.20231
811.8,993.4,0.0226,0.20556
813.5,996.7,0.0212,0.20874
273.2,-600.6,0.0000,
273.2,-600.6,0.0000,
273.2,-600.6,0.0000,
273.2,-600.6,0.0000,
273.2,-600.6,0.0000,