File: PMMA/Calibration_Data/FSRI/FSRI_DSC_N2_30K_3.csv
Temp,time,Heat Flow Rate
[K],[s],[mW/mg]
322.5,24.9,1.60E-02
324.5,46.6,0.12514
326.5,57.3,0.20854
328.5,65.5,0.27981
330.5,72.5,0.33772
332.5,78.7,0.38921
334.5,84.5,0.43731
336.5,89.9,0.47582
338.5,95.1,0.51412
340.5,100.1,0.54906
342.5,104.8,0.57885
344.5,109.5,0.60994
346.5,114.1,0.63604
348.5,118.6,0.66135
350.5,123.1,0.68559
352.5,127.4,0.71097
354.5,131.8,0.73236
356.5,136.1,0.75406
358.5,140.3,0.76963
360.5,144.5,0.77782
362.5,148.7,0.78205
364.5,152.8,0.7823
366.5,156.9,0.78403
368.5,161,0.78526
370.5,165.1,0.79412
372.5,169.2,0.79882
374.5,173.3,0.80652
376.5,177.3,0.8169
378.5,181.4,0.82239
380.5,185.4,0.83498
382.5,189.5,0.84464
384.5,193.5,0.85742
386.5,197.5,0.87085
388.5,201.5,0.88632
390.5,205.6,0.89836
392.5,209.6,0.91507
394.5,213.6,0.93353
396.5,217.5,0.95423
398.5,221.5,0.97913
400.5,225.5,1.00417
402.5,229.4,1.02742
404.5,233.4,1.04755
406.5,237.3,1.06859
408.5,241.2,1.08591
410.5,245.1,1.10351
412.5,249,1.11897
414.5,252.9,1.13001
416.5,256.7,1.1442
418.5,260.6,1.15581
420.5,264.4,1.16798
422.5,268.2,1.17743
424.5,272.1,1.1856
426.5,275.9,1.19575
428.5,279.7,1.20489
430.5,283.5,1.21599
432.5,287.3,1.22509
434.5,291.1,1.23673
436.5,294.9,1.25045
438.5,298.7,1.26258
440.5,302.5,1.27526
442.5,306.2,1.28923
444.5,310,1.30848
446.5,313.8,1.32759
448.5,317.5,1.34802
450.5,321.3,1.37206
452.5,325,1.39328
454.5,328.7,1.41675
456.5,332.5,1.4412
458.5,336.2,1.4636
460.5,339.9,1.48489
462.5,343.6,1.50671
464.5,347.3,1.52535
466.5,351,1.54194
468.5,354.7,1.55536
470.5,358.3,1.56707
472.5,362,1.57603
474.5,365.7,1.57844
476.5,369.4,1.57676
478.5,373.1,1.57476
480.5,376.7,1.56802
482.5,380.4,1.56326
484.5,384.1,1.55812
486.5,387.7,1.5556
488.5,391.4,1.55387
490.5,395.1,1.55549
492.5,398.7,1.55679
494.5,402.4,1.56354
496.5,406.1,1.57044
498.5,409.7,1.57856
500.5,413.4,1.58736
502.5,417,1.5893
504.5,420.7,1.592
506.5,424.3,1.59028
508.5,428,1.58265
510.5,431.6,1.56715
512.5,435.3,1.55355
514.5,438.9,1.53775
516.5,442.6,1.52463
518.5,446.2,1.51169
520.5,449.9,1.50029
522.5,453.5,1.49407
524.5,457.1,1.48963
526.5,460.8,1.48922
528.5,464.4,1.48489
530.5,468,1.48681
532.5,471.7,1.48755
534.5,475.3,1.49186
536.5,479,1.49419
538.5,482.6,1.49929
540.5,486.2,1.505
542.5,489.8,1.51226
544.5,493.5,1.51862
546.5,497.1,1.52765
548.5,500.7,1.53825
550.5,504.4,1.54803
552.5,508,1.56163
554.5,511.6,1.57128
556.5,515.2,1.58637
558.5,518.9,1.6022
560.5,522.5,1.61487
562.5,526.1,1.63655
564.5,529.7,1.65493
566.5,533.4,1.67497
568.5,537,1.69857
570.5,540.6,1.72818
572.5,544.3,1.76001
574.5,547.9,1.78849
576.5,551.5,1.81809
578.5,555.2,1.84548
580.5,558.8,1.8683
582.5,562.4,1.89289
584.5,566.1,1.91685
586.5,569.7,1.94102
588.5,573.4,1.96466
590.5,577,1.98736
592.5,580.6,2.01078
594.5,584.3,2.03566
596.5,587.9,2.06355
598.5,591.6,2.09703
600.5,595.2,2.1391
602.5,598.9,2.19525
604.5,602.5,2.25722
606.5,606.2,2.33532
608.5,609.8,2.42385
610.5,613.5,2.53147
612.5,617.2,2.65533
614.5,620.8,2.7979
616.5,624.5,2.95737
618.5,628.2,3.13682
620.5,631.9,3.33747
622.5,635.6,3.55951
624.5,639.2,3.80082
626.5,642.9,4.06853
628.5,646.6,4.35919
630.5,650.4,4.67505
632.5,654.1,5.00586
634.5,657.8,5.3574
636.5,661.6,5.72358
638.5,665.3,6.10185
640.5,669.1,6.48421
642.5,672.8,6.86667
644.5,676.6,7.24473
646.5,680.3,7.60966
648.5,684.1,7.91469
650.5,687.8,8.14919
652.5,691.6,8.29361
654.5,695.4,8.45293
656.5,699.2,8.57727
658.5,702.9,8.6084
660.5,706.7,8.52858
662.5,710.5,8.3938
664.5,714.2,8.16273
666.5,717.9,7.96733
668.5,721.7,7.59287
670.5,725.4,7.25807
672.5,729.1,7.039
674.5,732.9,6.66929
676.5,736.6,6.25349
678.5,740.3,5.71303
680.5,744,5.14287
682.5,747.7,4.55188
684.5,751.4,3.9928
686.5,755,3.47706
688.5,758.7,2.9975
690.5,762.4,2.55794
692.5,766.1,2.15091
694.5,769.7,1.79094
696.5,773.4,1.47559
698.5,777.1,1.20855
700.5,780.8,0.9824
702.5,784.5,0.79223
704.5,788.2,0.64004
706.5,792,0.51785
708.5,795.7,0.41599
710.5,799.4,0.33593
712.5,803.2,0.2738
714.5,806.9,0.2197
716.5,810.7,0.18204
718.5,814.4,0.14712
720.5,818.2,0.12378
722.5,822,0.10414
724.5,825.7,8.84E-02
726.5,829.5,7.89E-02
728.5,833.3,6.85E-02
730.5,837.1,6.29E-02
732.5,840.9,6.85E-02
734.5,844.7,6.97E-02
736.5,848.5,6.72E-02
738.5,852.3,5.77E-02
740.5,856.1,5.02E-02
742.5,859.9,4.17E-02
744.5,863.7,3.95E-02
746.5,867.5,4.31E-02
748.5,871.4,5.28E-02
750.5,875.2,6.54E-02
752.5,879,7.96E-02
754.5,882.8,8.98E-02
756.5,886.7,0.103
758.5,890.5,0.11356
760.5,894.3,0.1218
762.5,898.2,0.13186
764.5,902,0.13855
766.5,905.9,0.14562
768.5,909.7,0.15177
770.5,913.6,0.15875
772.5,917.4,0.16335
774.5,921.3,0.16912
776.5,925.1,0.17028
778.5,929,0.17354
780.5,932.8,0.17569
782.5,936.7,0.18007
784.5,940.6,0.18196
786.5,944.4,0.18426
788.5,948.3,0.18459
790.5,952.1,0.18527
792.5,956,0.18599
794.5,959.9,0.18757
796.5,963.7,0.18688
798.5,967.6,0.19118
800.5,971.4,0.19247
802.5,975.3,0.19446
804.5,979.2,0.19499
806.5,983.1,0.19618
808.5,987,0.19788
810.5,990.8,0.20018
812.5,994.7,0.20522
814.5,998.7,0.20763