File: PMMA/Calibration_Data/FSRI/FSRI_STA_N2_Sapphire_20K_1.csv
Temp,time,DSC,Heat Capacity,Heating Rate,Sensitivity
[K],[s],[uV/mg],[J/g/K],[K/s],[mW/uV]
321.9,0,1.71E-03,0.8233,0.0049,2.361
323.9,51,6.20E-02,0.827,0.1176,1.568
325.9,65,0.10663,0.8307,0.1706,1.329
327.9,75.7,0.14135,0.8343,0.205,1.21
329.9,84.8,0.16886,0.8379,0.2278,1.131
331.9,93.1,0.1923,0.8415,0.2497,1.093
333.9,100.9,0.21139,0.845,0.2641,1.056
335.9,108.3,0.22775,0.8485,0.2778,1.035
337.9,115.4,0.24133,0.852,0.2849,1.006
339.9,122.3,0.2531,0.8554,0.2921,0.987
341.9,129.1,0.26311,0.8588,0.2982,0.973
343.9,135.8,0.27102,0.8622,0.3008,0.957
345.9,142.4,0.27836,0.8655,0.3047,0.947
347.9,148.8,0.28439,0.8688,0.3072,0.938
349.9,155.3,0.28997,0.872,0.3121,0.939
351.9,161.8,0.29452,0.8752,0.313,0.93
353.9,168.1,0.29894,0.8784,0.3148,0.925
355.9,174.5,0.30252,0.8816,0.3151,0.918
357.9,180.8,0.30592,0.8847,0.3178,0.919
359.9,187.1,0.30888,0.8878,0.3202,0.92
361.9,193.3,0.31251,0.8908,0.3218,0.917
363.9,199.5,0.31524,0.8938,0.3205,0.909
365.9,205.7,0.31818,0.8968,0.3262,0.919
367.9,211.8,0.32095,0.8998,0.3278,0.919
369.9,218,0.32358,0.9027,0.3246,0.905
371.9,224.1,0.32663,0.9056,0.3294,0.913
373.9,230.2,0.32951,0.9085,0.3294,0.908
375.9,236.2,0.33262,0.9114,0.3304,0.905
377.9,242.3,0.33528,0.9142,0.331,0.903
379.9,248.3,0.33746,0.917,0.3323,0.903
381.9,254.3,0.34043,0.9197,0.332,0.897
383.9,260.3,0.3435,0.9224,0.332,0.892
385.9,266.3,0.34599,0.9251,0.3353,0.897
387.9,272.3,0.34873,0.9278,0.336,0.894
389.9,278.2,0.35067,0.9305,0.3388,0.899
391.9,284.1,0.35335,0.9331,0.3384,0.894
393.9,290.1,0.35583,0.9357,0.3412,0.897
395.9,295.9,0.35811,0.9383,0.3415,0.895
397.9,301.8,0.36001,0.9408,0.3412,0.892
399.9,307.7,0.36175,0.9433,0.3394,0.885
401.9,313.5,0.36364,0.9458,0.3444,0.896
403.9,319.4,0.36578,0.9483,0.3408,0.884
405.9,325.2,0.3675,0.9507,0.3461,0.895
407.9,331,0.36978,0.9531,0.3469,0.894
409.9,336.8,0.37182,0.9555,0.3469,0.891
411.9,342.5,0.37314,0.9579,0.3483,0.894
413.9,348.3,0.37528,0.9602,0.3465,0.887
415.9,354,0.37714,0.9626,0.3498,0.893
417.9,359.8,0.37845,0.9649,0.3505,0.894
419.9,365.5,0.38041,0.9671,0.3505,0.891
421.9,371.2,0.3818,0.9694,0.3479,0.883
423.9,376.9,0.38339,0.9716,0.3505,0.888
425.9,382.6,0.38436,0.9738,0.3505,0.888
427.9,388.3,0.38586,0.976,0.3531,0.893
429.9,394,0.38778,0.9782,0.3527,0.89
431.9,399.7,0.38933,0.9803,0.3512,0.884
433.9,405.4,0.39055,0.9825,0.3535,0.889
435.9,411,0.39212,0.9846,0.3527,0.886
437.9,416.7,0.39337,0.9867,0.3516,0.882
439.9,422.4,0.39471,0.9887,0.3535,0.885
441.9,428,0.39595,0.9908,0.3546,0.887
443.9,433.7,0.39739,0.9928,0.3546,0.886
445.9,439.4,0.39856,0.9948,0.3546,0.885
447.9,445,0.39951,0.9968,0.3531,0.881
449.9,450.7,0.40049,0.9987,0.358,0.893
451.9,456.3,0.40129,1.0007,0.3546,0.884
453.9,462,0.40194,1.0026,0.3557,0.887
455.9,467.6,0.40301,1.0045,0.3569,0.89
457.9,473.2,0.40341,1.0064,0.3546,0.885
459.9,478.8,0.40392,1.0083,0.355,0.886
461.9,484.4,0.40485,1.0101,0.3569,0.89
463.9,490.1,0.40516,1.012,0.3565,0.89
465.9,495.7,0.40637,1.0138,0.3542,0.884
467.9,501.3,0.40686,1.0156,0.3565,0.89
469.9,506.9,0.40734,1.0174,0.3557,0.889
471.9,512.5,0.40873,1.0192,0.3573,0.891
473.9,518.1,0.40886,1.0209,0.3569,0.891
475.9,523.7,0.40931,1.0227,0.3554,0.888
477.9,529.3,0.4102,1.0244,0.3561,0.889
479.9,534.9,0.41071,1.0261,0.3573,0.893
481.9,540.5,0.41214,1.0278,0.3573,0.891
483.9,546.1,0.41243,1.0294,0.3588,0.896
485.9,551.7,0.41276,1.0311,0.3619,0.904
487.9,557.3,0.41298,1.0327,0.3539,0.885
489.9,562.9,0.41404,1.0344,0.3569,0.892
491.9,568.5,0.4151,1.036,0.3577,0.893
493.9,574.1,0.41536,1.0376,0.3565,0.891
495.9,579.7,0.41594,1.0392,0.3569,0.892
497.9,585.3,0.41679,1.0407,0.3596,0.898
499.9,590.8,0.41715,1.0423,0.3588,0.897
501.9,596.4,0.41752,1.0438,0.3584,0.896
503.9,602,0.41806,1.0454,0.3577,0.894
505.9,607.6,0.41824,1.0469,0.3588,0.898
507.9,613.2,0.41883,1.0484,0.3623,0.907
509.9,618.7,0.41906,1.0499,0.3588,0.899
511.9,624.3,0.41896,1.0513,0.358,0.898
513.9,629.9,0.41902,1.0528,0.3577,0.899
515.9,635.5,0.41978,1.0543,0.358,0.899
517.9,641.1,0.41938,1.0557,0.3569,0.898
519.9,646.6,0.4199,1.0571,0.36,0.906
521.9,652.2,0.41929,1.0585,0.3577,0.903
523.9,657.8,0.41936,1.0599,0.358,0.905
525.9,663.4,0.42005,1.0613,0.3565,0.901
527.9,669,0.4196,1.0627,0.358,0.907
529.9,674.5,0.41991,1.0641,0.3592,0.91
531.9,680.1,0.41966,1.0654,0.3569,0.906
533.9,685.7,0.41922,1.0668,0.3588,0.913
535.9,691.3,0.41945,1.0681,0.3588,0.914
537.9,696.9,0.41931,1.0694,0.3565,0.909
539.9,702.4,0.41969,1.0707,0.3569,0.91
541.9,708,0.41925,1.072,0.358,0.916
543.9,713.6,0.41962,1.0733,0.3596,0.92
545.9,719.2,0.41938,1.0746,0.3592,0.92
547.9,724.7,0.41916,1.0759,0.3596,0.923
549.9,730.3,0.41891,1.0771,0.3577,0.92
551.9,735.9,0.41984,1.0784,0.358,0.92
553.9,741.5,0.41921,1.0796,0.3592,0.925
555.9,747.1,0.41894,1.0808,0.3584,0.925
557.9,752.7,0.41887,1.082,0.3565,0.921
559.9,758.3,0.41848,1.0832,0.36,0.932
561.9,763.9,0.41784,1.0844,0.358,0.929
563.9,769.5,0.41747,1.0856,0.3561,0.926
565.9,775.1,0.41748,1.0868,0.3557,0.926
567.9,780.7,0.4174,1.088,0.3592,0.936
569.9,786.3,0.41707,1.0891,0.3542,0.925
571.9,791.9,0.41684,1.0903,0.3569,0.933
573.9,797.5,0.41658,1.0914,0.3561,0.933
575.9,803.1,0.41609,1.0926,0.3554,0.933
577.9,808.7,0.41564,1.0937,0.3554,0.935
579.9,814.3,0.41555,1.0948,0.3565,0.939
581.9,819.9,0.41491,1.0959,0.3557,0.94
583.9,825.5,0.41492,1.097,0.355,0.939
585.9,831.1,0.41462,1.0981,0.3554,0.941
587.9,836.8,0.41374,1.0992,0.3554,0.944
589.9,842.4,0.41323,1.1003,0.3535,0.941
591.9,848,0.41329,1.1014,0.3557,0.948
593.9,853.6,0.41252,1.1024,0.3554,0.95
595.9,859.2,0.41242,1.1035,0.3557,0.952
597.9,864.9,0.41167,1.1045,0.3557,0.954
599.9,870.5,0.41123,1.1056,0.3546,0.953
601.9,876.1,0.41082,1.1066,0.355,0.956
603.9,881.8,0.40985,1.1076,0.3554,0.96
605.9,887.4,0.40926,1.1086,0.3542,0.96
607.9,893.1,0.40923,1.1096,0.3542,0.961
609.9,898.7,0.40857,1.1106,0.3542,0.963
611.9,904.4,0.40798,1.1116,0.3527,0.961
613.9,910,0.40754,1.1126,0.3546,0.968
615.9,915.6,0.40687,1.1136,0.3531,0.966
617.9,921.3,0.40637,1.1146,0.3535,0.97
619.9,926.9,0.40562,1.1156,0.3546,0.975
621.9,932.6,0.40543,1.1165,0.3554,0.979
623.9,938.3,0.40503,1.1175,0.355,0.979
625.9,943.9,0.40397,1.1184,0.3539,0.98
627.9,949.6,0.40319,1.1194,0.3527,0.979
629.9,955.3,0.40278,1.1203,0.3539,0.984
631.9,960.9,0.40229,1.1212,0.3539,0.986
633.9,966.6,0.40121,1.1222,0.352,0.984
635.9,972.3,0.401,1.1231,0.3524,0.987
637.9,977.9,0.40113,1.124,0.3531,0.989
639.9,983.6,0.4005,1.1249,0.3509,0.986
641.9,989.3,0.39962,1.1258,0.3509,0.988
643.9,995,0.39935,1.1267,0.3524,0.994
645.9,1000.6,0.3989,1.1276,0.3535,0.999
647.9,1006.3,0.39833,1.1285,0.3512,0.995
649.9,1012,0.39809,1.1293,0.3505,0.994
651.9,1017.7,0.39739,1.1302,0.3505,0.997
653.9,1023.4,0.39655,1.1311,0.3498,0.998
655.9,1029.1,0.39588,1.132,0.352,1.006
657.9,1034.8,0.39537,1.1328,0.3509,1.005
659.9,1040.5,0.39473,1.1337,0.3498,1.005
661.9,1046.2,0.39434,1.1345,0.3512,1.011
663.9,1051.9,0.39289,1.1354,0.3483,1.007
665.9,1057.6,0.39255,1.1362,0.3498,1.012
667.9,1063.4,0.39167,1.137,0.349,1.013
669.9,1069.1,0.39062,1.1378,0.3498,1.019
671.9,1074.8,0.38995,1.1387,0.3487,1.018
673.9,1080.5,0.3895,1.1395,0.3498,1.023
675.9,1086.3,0.38833,1.1403,0.349,1.025
677.9,1092,0.38778,1.1411,0.3479,1.024
679.9,1097.8,0.387,1.1419,0.3472,1.025
681.9,1103.5,0.38678,1.1427,0.3472,1.026
683.9,1109.3,0.38582,1.1435,0.3483,1.032
685.9,1115,0.38509,1.1443,0.3476,1.033
687.9,1120.8,0.38394,1.1451,0.3476,1.037
689.9,1126.5,0.38348,1.1459,0.3469,1.036
691.9,1132.3,0.38294,1.1466,0.3458,1.035
693.9,1138,0.38246,1.1474,0.3476,1.043
695.9,1143.8,0.38175,1.1482,0.3476,1.045
697.9,1149.6,0.38099,1.1489,0.3472,1.047
699.9,1155.3,0.38051,1.1497,0.3454,1.044
701.9,1161.1,0.37963,1.1505,0.3458,1.048
703.9,1166.9,0.37943,1.1512,0.3454,1.048
705.9,1172.6,0.37852,1.1519,0.3454,1.051
707.9,1178.4,0.37776,1.1527,0.3454,1.054
709.9,1184.2,0.37695,1.1534,0.3472,1.062
711.9,1190,0.37656,1.1542,0.3451,1.058
713.9,1195.8,0.37604,1.1549,0.3461,1.063
715.9,1201.5,0.37582,1.1556,0.3465,1.065
717.9,1207.3,0.37529,1.1563,0.3465,1.068
719.9,1213.1,0.37473,1.1571,0.3461,1.069
721.9,1218.9,0.37426,1.1578,0.3447,1.066
723.9,1224.7,0.37369,1.1585,0.3465,1.074
725.9,1230.4,0.37324,1.1592,0.3447,1.071
727.9,1236.2,0.37296,1.1599,0.3454,1.074
729.9,1242,0.3719,1.1606,0.3465,1.081
731.9,1247.8,0.37143,1.1613,0.3458,1.081
733.9,1253.6,0.37008,1.162,0.3444,1.081
735.9,1259.4,0.36948,1.1627,0.3444,1.084
737.9,1265.2,0.36784,1.1634,0.3447,1.09
739.9,1271.1,0.36735,1.164,0.3461,1.097
741.9,1276.9,0.36613,1.1647,0.3426,1.09
743.9,1282.7,0.36515,1.1654,0.3426,1.093
745.9,1288.5,0.36457,1.1661,0.3444,1.101
747.9,1294.4,0.36363,1.1667,0.3426,1.099
749.9,1300.2,0.36336,1.1674,0.3426,1.101
751.9,1306,0.36295,1.1681,0.3408,1.097
753.9,1311.8,0.36194,1.1687,0.3433,1.108
755.9,1317.7,0.36133,1.1694,0.344,1.113
757.9,1323.5,0.36027,1.17,0.344,1.117
759.9,1329.4,0.35977,1.1707,0.3426,1.115
761.9,1335.2,0.35868,1.1713,0.3454,1.128
763.9,1341,0.35832,1.172,0.3412,1.116
765.9,1346.9,0.35714,1.1726,0.3405,1.118
767.9,1352.8,0.35673,1.1732,0.3401,1.119
769.9,1358.6,0.35618,1.1739,0.3401,1.121
771.9,1364.5,0.3555,1.1745,0.3415,1.128
773.9,1370.3,0.35456,1.1751,0.3391,1.124
775.9,1376.2,0.35409,1.1757,0.3405,1.131
777.9,1382,0.35377,1.1764,0.3408,1.133
779.9,1387.9,0.35299,1.177,0.344,1.147
781.9,1393.7,0.35219,1.1776,0.3394,1.135
783.9,1399.6,0.35129,1.1782,0.3405,1.142
785.9,1405.5,0.35105,1.1788,0.3412,1.146
787.9,1411.3,0.35041,1.1794,0.3405,1.146
789.9,1417.2,0.34907,1.18,0.3401,1.15
791.9,1423.1,0.34847,1.1806,0.3429,1.162
793.9,1428.9,0.34814,1.1812,0.3412,1.158
795.9,1434.8,0.34749,1.1818,0.3394,1.154
797.9,1440.7,0.3466,1.1824,0.3412,1.164
799.9,1446.6,0.34558,1.183,0.3412,1.168
801.9,1452.4,0.34484,1.1836,0.3391,1.164
803.9,1458.3,0.34415,1.1842,0.3388,1.166
805.9,1464.2,0.34317,1.1847,0.3398,1.173
807.9,1470.1,0.34261,1.1853,0.336,1.163
809.9,1476,0.34124,1.1859,0.3401,1.182
811.9,1481.9,0.34102,1.1865,0.3391,1.18
813.9,1487.8,0.33989,1.187,0.3391,1.184
815.9,1493.7,0.33942,1.1876,0.3388,1.185
817.8,1499.3,0.33834,1.1881,0.332,1.166