File: PMMA/Calibration_Data/FSRI/FSRI_DSC_N2_10K_3.csv
Temp,time,Heat Flow Rate
[K],[s],[mW/mg]
323,0,-2.16E-03
325,65.4,8.73E-02
327,85.8,0.13626
329,102.4,0.16735
331,117.3,0.18869
333,131.4,0.20271
335,145.2,0.21451
337,158.6,0.22054
339,171.7,0.23007
341,184.6,0.2349
343,197.5,0.24107
345,210.4,0.24633
347,223.1,0.25097
349,235.7,0.25751
351,248.2,0.26457
353,260.7,0.26424
355,273.1,0.26534
357,285.5,0.266
359,297.7,0.26361
361,309.9,0.26388
363,322,0.26711
365,334.1,0.26719
367,346.1,0.26853
369,358.1,0.27557
371,370,0.27688
373,381.8,0.28047
375,393.7,0.28478
377,405.6,0.28956
379,417.4,0.29087
381,429.1,0.29669
383,440.9,0.29993
385,452.6,0.30594
387,464.4,0.3088
389,476.1,0.31517
391,487.8,0.32238
393,499.5,0.33257
395,511.2,0.34273
397,522.9,0.3506
399,534.6,0.36001
401,546.3,0.36719
403,558,0.37254
405,569.7,0.3775
407,581.3,0.37952
409,593,0.38281
411,604.6,0.38435
413,616.2,0.38872
415,627.8,0.39082
417,639.4,0.39502
419,650.9,0.39495
421,662.4,0.39663
423,674.1,0.40101
425,685.7,0.4034
427,697.2,0.40768
429,708.7,0.4116
431,720.2,0.41993
433,731.8,0.42495
435,743.3,0.43094
437,754.9,0.43821
439,766.4,0.44429
441,777.8,0.45243
443,789.4,0.45785
445,800.9,0.46687
447,812.5,0.47613
449,823.9,0.48359
451,835.4,0.4941
453,846.9,0.49737
455,858.5,0.5008
457,870,0.50218
459,881.5,0.50502
461,893,0.50433
463,904.5,0.50035
465,915.9,0.50032
467,927.4,0.49649
469,938.8,0.4886
471,950.3,0.48728
473,961.7,0.48584
475,973.2,0.48417
477,984.6,0.4838
479,996.1,0.48665
481,1007.6,0.48526
483,1019.1,0.4903
485,1030.6,0.49302
487,1042,0.49302
489,1053.5,0.48939
491,1065,0.48504
493,1076.4,0.4759
495,1087.8,0.46954
497,1099.3,0.46265
499,1110.7,0.45683
501,1122.2,0.45407
503,1133.7,0.45378
505,1145.1,0.45299
507,1156.5,0.45174
509,1168,0.45508
511,1179.4,0.45542
513,1190.9,0.45561
515,1202.3,0.45875
517,1213.7,0.46054
519,1225.2,0.46317
521,1236.6,0.4648
523,1248.1,0.46292
525,1259.6,0.46768
527,1271.1,0.47018
529,1282.6,0.47153
531,1294.1,0.47682
533,1305.5,0.47933
535,1317,0.48377
537,1328.5,0.48814
539,1340.1,0.49412
541,1351.6,0.50104
543,1363.1,0.50565
545,1374.6,0.51377
547,1386.2,0.52213
549,1397.7,0.53178
551,1409.2,0.54144
553,1420.7,0.55375
555,1432.2,0.56463
557,1443.8,0.57324
559,1455.2,0.58175
561,1466.7,0.58957
563,1478.2,0.59653
565,1489.7,0.60214
567,1501.2,0.60846
569,1512.7,0.6117
571,1524.3,0.61274
573,1535.8,0.61295
575,1547.3,0.61622
577,1558.8,0.62564
579,1570.3,0.63747
581,1581.9,0.65217
583,1593.4,0.67049
585,1605,0.68858
587,1616.5,0.71014
589,1628.1,0.73717
591,1639.7,0.77127
593,1651.2,0.80975
595,1662.7,0.85435
597,1674.3,0.90272
599,1685.9,0.959
601,1697.5,1.02817
603,1709,1.10323
605,1720.6,1.18423
607,1732.2,1.27868
609,1743.8,1.38034
611,1755.5,1.49639
613,1767.2,1.61992
615,1778.9,1.74891
617,1790.6,1.89062
619,1802.3,2.03492
621,1814.1,2.17965
623,1825.8,2.32664
625,1837.6,2.46811
627,1849.4,2.59923
629,1861.2,2.71623
631,1873,2.81844
633,1884.8,2.89347
635,1896.5,2.94007
637,1908.2,2.94421
639,1919.9,2.9237
641,1931.6,2.87631
643,1943.2,2.84259
645,1954.8,2.77597
647,1966.5,2.66712
649,1978.1,2.51901
651,1989.6,2.35328
653,2001.2,2.17742
655,2012.7,1.99377
657,2024.2,1.8106
659,2035.7,1.63476
661,2047.2,1.45833
663,2058.8,1.27956
665,2070.3,1.12215
667,2081.9,0.96921
669,2093.5,0.82983
671,2105.1,0.70479
673,2116.8,0.59349
675,2128.4,0.49529
677,2140.1,0.40829
679,2151.8,0.33582
681,2163.4,0.27404
683,2175.1,0.21969
685,2186.8,0.17965
687,2198.5,0.14119
689,2210.2,0.11413
691,2221.9,9.39E-02
693,2233.6,7.45E-02
695,2245.3,6.14E-02
697,2257,5.18E-02
699,2268.8,4.53E-02
701,2280.5,4.53E-02
703,2292.2,4.85E-02
705,2303.9,4.76E-02
707,2315.6,4.20E-02
709,2327.5,3.06E-02
711,2339.2,9.74E-03
713,2351.1,-2.24E-02
715,2362.9,-3.53E-02
717,2374.8,-2.18E-02
719,2386.6,-1.28E-03
721,2398.5,1.04E-02
723,2410.2,2.36E-02
725,2422.1,2.60E-02
727,2433.9,3.07E-02
729,2445.7,2.73E-02
731,2457.4,2.54E-02
733,2469.2,2.82E-02
735,2481,2.91E-02
737,2492.9,3.16E-02
739,2504.7,3.06E-02
741,2516.5,3.16E-02
743,2528.3,3.54E-02
745,2540.2,3.54E-02
747,2552,3.50E-02
749,2563.9,3.63E-02
751,2575.7,3.56E-02
753,2587.6,3.62E-02
755,2599.5,3.77E-02
757,2611.3,3.72E-02
759,2623.2,3.95E-02
761,2635.1,4.23E-02
763,2646.9,4.06E-02
765,2658.8,4.33E-02
767,2670.6,4.23E-02
769,2682.5,4.46E-02
771,2694.4,4.56E-02
773,2706.3,4.30E-02
775,2718.3,4.83E-02
777,2730.2,4.62E-02
779,2742.1,5.24E-02
781,2754,5.19E-02
783,2765.9,5.47E-02
785,2777.9,5.53E-02
787,2789.7,5.49E-02
789,2801.6,5.71E-02
791,2813.5,6.05E-02
793,2825.4,6.24E-02
795,2837.3,6.50E-02
797,2849.2,6.59E-02
799,2861.1,6.90E-02
801,2873,6.66E-02
803,2885,6.61E-02
805,2897,7.02E-02
807,2908.9,7.10E-02
809,2920.8,7.35E-02
811,2932.8,7.16E-02
813,2944.7,6.95E-02
815,2956.6,7.56E-02
817,2968.6,7.27E-02
819,2980.6,7.48E-02
821,2992.6,7.52E-02
822,2998.6,7.50E-02