File: PMMA/Calibration_Data/FSRI/FSRI_STA_N2_10K_2.csv
Temp,time,TGA,DSC
[K],[s],[mg],[mW/mg]
323,0,3.9537,8.92E-04
324.7,61.4,3.9529,7.71E-02
326.4,80,3.9528,0.11872
328.1,95.1,3.9534,0.14763
329.8,108.4,3.9533,0.16961
331.5,120.9,3.9531,0.18339
333.2,132.8,3.9511,0.19618
334.9,144.4,3.9511,0.20689
336.6,155.8,3.9511,0.21139
338.3,167.1,3.9497,0.21771
340,178.2,3.9497,0.22327
341.7,189.3,3.9511,0.2294
343.4,200.2,3.9517,0.23242
345.1,211.1,3.9511,0.23688
346.8,221.9,3.9508,0.24301
348.5,232.6,3.9499,0.24453
350.2,243.3,3.9482,0.24783
351.9,253.8,3.9495,0.25317
353.6,264.4,3.9494,0.25493
355.3,274.9,3.9482,0.25454
357,285.3,3.9482,0.25358
358.7,295.7,3.9482,0.25178
360.4,306,3.9482,0.25328
362.1,316.3,3.9495,0.25306
363.8,326.5,3.9483,0.25436
365.5,336.7,3.9494,0.25274
367.2,346.9,3.9474,0.25601
368.9,357,3.9465,0.25819
370.6,367.2,3.9482,0.25879
372.3,377.4,3.9465,0.26217
374,387.4,3.9459,0.26656
375.7,397.5,3.9456,0.26621
377.4,407.5,3.9456,0.27048
379.1,417.6,3.9442,0.27381
380.8,427.6,3.9455,0.27554
382.5,437.6,3.9455,0.28172
384.2,447.6,3.9446,0.28486
385.9,457.6,3.9455,0.28871
387.6,467.6,3.9442,0.29395
389.3,477.6,3.9442,0.29845
391,487.6,3.9442,0.3043
392.7,497.5,3.9429,0.31228
394.4,507.5,3.9429,0.31997
396.1,517.4,3.9442,0.32692
397.8,527.3,3.943,0.3358
399.5,537.3,3.9429,0.33986
401.2,547.2,3.9429,0.34567
402.9,557.1,3.9406,0.35063
404.6,567,3.9416,0.35315
406.3,576.9,3.9406,0.3576
408,586.8,3.9403,0.35852
409.7,596.7,3.9403,0.36187
411.4,606.5,3.939,0.36254
413.1,616.4,3.937,0.3648
414.8,626.2,3.937,0.36531
416.5,636.1,3.937,0.36678
418.2,645.9,3.9361,0.37094
419.9,655.7,3.9357,0.37114
421.6,665.5,3.9354,0.37813
423.3,675.3,3.934,0.37609
425,685.1,3.9327,0.37927
426.7,694.9,3.9317,0.38446
428.4,704.8,3.9317,0.38546
430.1,714.6,3.9304,0.38763
431.8,724.4,3.9292,0.39057
433.5,734.2,3.9278,0.39317
435.2,744,3.9278,0.39937
436.9,753.8,3.926,0.40637
438.6,763.6,3.924,0.41202
440.3,773.4,3.9212,0.41962
442,783.2,3.9198,0.42662
443.7,793,3.9195,0.43346
445.4,802.8,3.9159,0.44043
447.1,812.6,3.9143,0.44663
448.8,822.4,3.9117,0.44981
450.5,832.2,3.91,0.45882
452.2,842,3.9058,0.46448
453.9,851.8,3.9025,0.46676
455.6,861.6,3.8999,0.47042
457.3,871.3,3.8945,0.47287
459,881.1,3.8911,0.47442
460.7,890.9,3.8872,0.47195
462.4,900.7,3.8835,0.4697
464.1,910.5,3.8786,0.46707
465.8,920.3,3.8752,0.45914
467.5,930.1,3.8699,0.45764
469.2,939.8,3.8672,0.45259
470.9,949.6,3.8644,0.45456
472.6,959.4,3.8607,0.45049
474.3,969.2,3.856,0.4519
476,978.9,3.8538,0.45329
477.7,988.7,3.851,0.45574
479.4,998.5,3.8475,0.45999
481.1,1008.2,3.8459,0.46245
482.8,1018,3.8397,0.46381
484.5,1027.7,3.8373,0.46552
486.2,1037.5,3.8347,0.46548
487.9,1047.2,3.8327,0.46123
489.6,1057,3.8314,0.45626
491.3,1066.7,3.8288,0.44773
493,1076.5,3.8261,0.44167
494.7,1086.2,3.8221,0.43925
496.4,1096,3.8222,0.43234
498.1,1105.7,3.8195,0.42763
499.8,1115.4,3.8208,0.42623
501.5,1125.2,3.8195,0.42275
503.2,1134.9,3.8195,0.42481
504.9,1144.6,3.8185,0.42221
506.6,1154.4,3.8173,0.42381
508.3,1164.1,3.8172,0.42319
510,1173.9,3.8186,0.42452
511.7,1183.6,3.8159,0.42464
513.4,1193.4,3.8159,0.42777
515.1,1203.1,3.8133,0.42788
516.8,1212.9,3.8126,0.42986
518.5,1222.7,3.8119,0.4307
520.2,1232.4,3.812,0.43334
521.9,1242.2,3.8106,0.43753
523.6,1252,3.8093,0.43976
525.3,1261.7,3.8093,0.44129
527,1271.5,3.8067,0.44725
528.7,1281.2,3.8067,0.45729
530.4,1290.9,3.8068,0.46452
532.1,1300.7,3.8041,0.47043
533.8,1310.4,3.8035,0.47273
535.5,1320.1,3.8028,0.48036
537.2,1329.8,3.8001,0.48367
538.9,1339.6,3.7975,0.489
540.6,1349.3,3.7948,0.49257
542.3,1359.1,3.7935,0.49797
544,1368.8,3.7909,0.50249
545.7,1378.5,3.7892,0.50815
547.4,1388.3,3.7853,0.51284
549.1,1398.1,3.7816,0.51698
550.8,1407.9,3.7772,0.52366
552.5,1417.7,3.7731,0.53113
554.2,1427.5,3.769,0.53599
555.9,1437.3,3.7638,0.5444
557.6,1447.1,3.761,0.55137
559.3,1456.9,3.7555,0.56043
561,1466.7,3.7489,0.56655
562.7,1476.5,3.7433,0.5769
564.4,1486.2,3.7376,0.58248
566.1,1496,3.7306,0.58665
567.8,1505.8,3.724,0.59402
569.5,1515.6,3.7171,0.5966
571.2,1525.3,3.7106,0.60541
572.9,1535.1,3.7036,0.6099
574.6,1544.9,3.6952,0.61413
576.3,1554.8,3.6859,0.61667
578,1564.6,3.6791,0.61155
579.7,1574.3,3.6682,0.60711
581.4,1584.1,3.6585,0.61661
583.1,1593.9,3.6501,0.62838
584.8,1603.7,3.6379,0.65005
586.5,1613.5,3.6295,0.67331
588.2,1623.4,3.6146,0.69805
589.9,1633.3,3.6004,0.72702
591.6,1643.1,3.5858,0.75972
593.3,1652.9,3.5707,0.7969
595,1662.8,3.5519,0.83382
596.7,1672.7,3.5319,0.87769
598.4,1682.5,3.51,0.92627
600.1,1692.4,3.4861,0.98113
601.8,1702.3,3.4593,1.04012
603.5,1712.1,3.4286,1.10747
605.2,1722,3.3937,1.1832
606.9,1731.9,3.3565,1.26192
608.6,1741.8,3.3136,1.34932
610.3,1751.7,3.2669,1.44433
612,1761.5,3.2175,1.54337
613.7,1771.5,3.1606,1.6557
615.4,1781.5,3.1001,1.76956
617.1,1791.4,3.0328,1.88823
618.8,1801.4,2.958,2.0084
620.5,1811.4,2.8773,2.12911
622.2,1821.3,2.792,2.25425
623.9,1831.3,2.7031,2.37336
625.6,1841.3,2.6055,2.48789
627.3,1851.3,2.5022,2.59329
629,1861.2,2.3949,2.68571
630.7,1871.2,2.2798,2.76685
632.4,1881.2,2.1628,2.8304
634.1,1891.2,2.0445,2.87498
635.8,1901.1,1.9222,2.88627
637.5,1911,1.802,2.87174
639.2,1920.9,1.6804,2.81117
640.9,1930.9,1.5557,2.81896
642.6,1940.8,1.4345,2.79058
644.3,1950.7,1.315,2.76004
646,1960.6,1.1984,2.68537
647.7,1970.4,1.085,2.58436
649.4,1980.3,0.9761,2.45716
651.1,1990.2,0.8728,2.31668
652.8,2000,0.773,2.1838
654.5,2009.8,0.6803,2.03879
656.2,2019.6,0.5929,1.89098
657.9,2029.5,0.5129,1.73857
659.6,2039.3,0.4392,1.58475
661.3,2049.1,0.3713,1.43295
663,2058.9,0.3114,1.28053
664.7,2068.8,0.2572,1.14033
666.4,2078.6,0.2094,1.01684
668.1,2088.4,0.166,0.89281
669.8,2098.2,0.129,0.78157
671.5,2108.1,0.0943,0.68247
673.2,2118,0.0632,0.58898
674.9,2127.9,0.0389,0.50371
676.6,2137.8,0.0188,0.42878
678.3,2147.7,0.0012,0.36197
680,2157.6,-0.0138,0.30345
681.7,2167.5,-0.0279,0.25342
683.4,2177.5,-0.0388,0.21288
685.1,2187.4,-0.0455,0.1744
686.8,2197.3,-0.0547,0.14992
688.5,2207.3,-0.0636,0.1234
690.2,2217.2,-0.0691,0.10268
691.9,2227.2,-0.0714,8.79E-02
693.6,2237.2,-0.0758,7.74E-02
695.3,2247.2,-0.0784,7.37E-02
697,2257.1,-0.0819,7.61E-02
698.7,2267.1,-0.0836,7.56E-02
700.4,2277.1,-0.0863,7.22E-02
702.1,2287.1,-0.0862,6.62E-02
703.8,2297.1,-0.0898,5.94E-02
705.5,2307.1,-0.0902,5.25E-02
707.2,2317.1,-0.0917,3.96E-02
708.9,2327.1,-0.0915,1.90E-02
710.6,2337.1,-0.0902,-1.31E-02
712.3,2347.1,-0.0912,-3.41E-02
714,2357.1,-0.0922,-2.98E-02
715.7,2367.2,-0.0922,-1.79E-02
717.4,2377.2,-0.0935,-6.41E-03
719.1,2387.3,-0.0929,-5.41E-03
720.8,2397.3,-0.0929,-3.39E-03
722.5,2407.3,-0.0929,1.79E-03
724.2,2417.4,-0.0915,2.25E-03
725.9,2427.5,-0.0929,5.11E-03
727.6,2437.5,-0.0929,8.41E-03
729.3,2447.5,-0.0922,7.69E-03
731,2457.6,-0.0909,1.25E-02
732.7,2467.7,-0.0909,1.27E-02
734.4,2477.8,-0.0932,1.49E-02
736.1,2487.8,-0.0929,1.35E-02
737.8,2497.8,-0.0929,1.03E-02
739.5,2507.9,-0.0925,1.15E-02
741.2,2518,-0.0939,1.23E-02
742.9,2528.1,-0.0929,1.32E-02
744.6,2538.2,-0.0932,1.82E-02
746.3,2548.3,-0.0932,1.50E-02
748,2558.3,-0.0932,1.90E-02
749.7,2568.4,-0.0912,2.19E-02
751.4,2578.4,-0.0912,2.04E-02
753.1,2588.5,-0.0925,2.00E-02
754.8,2598.6,-0.0912,2.25E-02
756.5,2608.7,-0.0935,2.17E-02
758.2,2618.7,-0.0935,2.42E-02
759.9,2628.8,-0.0935,2.47E-02
761.6,2638.9,-0.0932,2.70E-02
763.3,2649,-0.0942,2.88E-02
765,2659,-0.0942,3.08E-02
766.7,2669.1,-0.0916,3.09E-02
768.4,2679.2,-0.0925,3.23E-02
770.1,2689.3,-0.0916,3.35E-02
771.8,2699.4,-0.0922,3.58E-02
773.5,2709.4,-0.0922,3.54E-02
775.2,2719.5,-0.0909,3.82E-02
776.9,2729.6,-0.0909,3.71E-02
778.6,2739.7,-0.0922,3.80E-02
780.3,2749.8,-0.0922,4.07E-02
782,2759.9,-0.0922,4.25E-02
783.7,2770,-0.0929,4.09E-02
785.4,2780.2,-0.0922,4.24E-02
787.1,2790.3,-0.093,4.14E-02
788.8,2800.4,-0.0919,4.49E-02
790.5,2810.6,-0.0935,4.79E-02
792.2,2820.7,-0.0935,4.84E-02
793.9,2830.8,-0.0922,4.81E-02
795.6,2841,-0.0922,4.92E-02
797.3,2851.1,-0.0909,5.01E-02
799,2861.3,-0.0916,5.37E-02
800.7,2871.4,-0.0932,5.18E-02
802.4,2881.5,-0.0932,5.31E-02
804.1,2891.7,-0.0925,5.40E-02
805.8,2901.8,-0.0938,5.29E-02
807.5,2912,-0.0925,5.64E-02
809.2,2922.1,-0.0925,5.52E-02
810.9,2932.3,-0.0915,5.59E-02
812.6,2942.5,-0.0933,5.59E-02
814.3,2952.7,-0.0929,5.82E-02
816,2962.8,-0.0903,5.64E-02
817.7,2973,-0.0929,6.05E-02
819.4,2983.2,-0.0915,6.17E-02
821.1,2993.3,-0.0929,6.12E-02
822.1,2999.4,-0.0929,5.95E-02