File: PMMA/Calibration_Data/FSRI/FSRI_DSC_N2_10K_2.csv
Temp,time,Heat Flow Rate
[K],[s],[mW/mg]
323,0,8.92E-04
325,65.2,8.46E-02
327,85.6,0.13042
329,102.2,0.15916
331,117.3,0.18311
333,131.5,0.19357
335,145.1,0.20725
337,158.5,0.21433
339,171.7,0.22196
341,184.7,0.22697
343,197.7,0.23071
345,210.4,0.23601
347,223.1,0.2435
349,235.7,0.24762
351,248.3,0.25199
353,260.7,0.25466
355,273,0.25425
357,285.3,0.25358
359,297.5,0.25329
361,309.6,0.2525
363,321.7,0.25204
365,333.7,0.25417
367,345.7,0.25345
369,357.6,0.25818
371,369.6,0.25849
373,381.5,0.26373
375,393.3,0.26404
377,405.2,0.26934
379,417,0.27523
381,428.8,0.27964
383,440.5,0.27985
385,452.3,0.28816
387,464.1,0.29259
389,475.8,0.2985
391,487.6,0.3043
393,499.3,0.31333
395,511,0.32443
397,522.7,0.33261
399,534.3,0.33959
401,546,0.34618
403,557.7,0.35112
405,569.3,0.35573
407,581,0.35823
409,592.6,0.36002
411,604.2,0.36234
413,615.8,0.36381
415,627.4,0.36483
417,638.9,0.3664
419,650.5,0.37001
421,662,0.37654
423,673.6,0.37586
425,685.1,0.37927
427,696.7,0.38354
429,708.2,0.38509
431,719.8,0.38945
433,731.3,0.39294
435,742.9,0.39975
437,754.4,0.40693
439,766,0.41437
441,777.5,0.42213
443,789,0.43044
445,800.5,0.43812
447,812,0.44398
449,823.6,0.45096
451,835.1,0.45867
453,846.6,0.46623
455,858.1,0.47062
457,869.6,0.47093
459,881.1,0.47442
461,892.6,0.47094
463,904.1,0.4699
465,915.7,0.46399
467,927.2,0.45964
469,938.7,0.45467
471,950.2,0.45452
473,961.7,0.4514
475,973.2,0.4542
477,984.7,0.45333
479,996.2,0.46004
481,1007.6,0.46142
483,1019.1,0.46416
485,1030.6,0.46527
487,1042.1,0.46141
489,1053.6,0.45645
491,1065,0.44944
493,1076.5,0.44167
495,1087.9,0.43594
497,1099.4,0.43152
499,1110.8,0.42775
501,1122.3,0.42616
503,1133.7,0.42259
505,1145.2,0.42207
507,1156.6,0.42452
509,1168.1,0.42333
511,1179.6,0.42474
513,1191.1,0.42655
515,1202.6,0.42864
517,1214.1,0.43124
519,1225.6,0.43008
521,1237,0.43533
523,1248.5,0.43928
525,1260,0.4431
527,1271.5,0.44725
529,1282.9,0.45962
531,1294.4,0.46866
533,1305.8,0.47295
535,1317.2,0.48113
537,1328.7,0.48639
539,1340.1,0.49113
541,1351.6,0.49516
543,1363.1,0.50025
545,1374.5,0.50609
547,1386,0.50981
549,1397.5,0.51523
551,1409,0.52375
553,1420.6,0.53613
555,1432.1,0.54101
557,1443.6,0.54724
559,1455.1,0.55781
561,1466.7,0.56655
563,1478.2,0.57656
565,1489.7,0.58406
567,1501.1,0.59284
569,1512.7,0.59708
571,1524.2,0.60582
573,1535.7,0.61065
575,1547.3,0.61365
577,1558.8,0.61214
579,1570.3,0.6123
581,1581.8,0.61345
583,1593.3,0.62876
585,1604.8,0.6514
587,1616.4,0.68019
589,1628.1,0.71328
591,1639.6,0.75002
593,1651.2,0.78818
595,1662.8,0.83382
597,1674.4,0.88698
599,1686,0.94272
601,1697.6,1.01484
603,1709.2,1.08927
605,1720.9,1.17167
607,1732.5,1.26702
609,1744.1,1.37191
611,1755.7,1.48516
613,1767.4,1.60879
615,1779.1,1.74161
617,1790.8,1.8807
619,1802.5,2.0239
621,1814.3,2.16805
623,1826,2.30921
625,1837.8,2.44579
627,1849.5,2.57488
629,1861.2,2.68571
631,1873,2.77985
633,1884.7,2.84777
635,1896.4,2.88467
637,1908.1,2.87219
639,1919.8,2.81698
641,1931.5,2.82132
643,1943.1,2.80225
645,1954.8,2.73739
647,1966.4,2.63067
649,1978,2.48689
651,1989.6,2.3288
653,2001.1,2.17341
655,2012.7,1.9955
657,2024.3,1.8149
659,2035.8,1.64035
661,2047.4,1.45876
663,2058.9,1.28053
665,2070.5,1.11901
667,2082.1,0.97161
669,2093.6,0.83366
671,2105.2,0.70958
673,2116.9,0.59803
675,2128.5,0.49829
677,2140.1,0.4104
679,2151.8,0.33737
681,2163.4,0.27428
683,2175.1,0.21939
685,2186.8,0.17757
687,2198.5,0.14263
689,2210.2,0.11554
691,2221.9,9.49E-02
693,2233.7,8.00E-02
695,2245.4,7.37E-02
697,2257.1,7.61E-02
699,2268.9,7.64E-02
701,2280.6,6.94E-02
703,2292.4,6.35E-02
705,2304.1,5.65E-02
707,2315.9,4.17E-02
709,2327.7,1.92E-02
711,2339.4,-2.15E-02
713,2351.2,-3.41E-02
715,2363,-2.02E-02
717,2374.9,-1.05E-02
719,2386.7,-3.93E-03
721,2398.5,-1.03E-03
723,2410.3,-2.70E-03
725,2422.1,2.55E-03
727,2434,5.76E-03
729,2445.8,1.28E-02
731,2457.6,1.25E-02
733,2469.4,1.15E-02
735,2481.3,1.31E-02
737,2493.1,1.22E-02
739,2504.9,1.35E-02
741,2516.8,1.31E-02
743,2528.7,1.43E-02
745,2540.6,1.76E-02
747,2552.4,1.67E-02
749,2564.2,1.94E-02
751,2576.1,2.07E-02
753,2587.9,2.13E-02
755,2599.8,2.15E-02
757,2611.6,2.23E-02
759,2623.5,2.38E-02
761,2635.3,2.62E-02
763,2647.2,2.96E-02
765,2659,3.08E-02
767,2670.9,3.14E-02
769,2682.8,3.56E-02
771,2694.6,3.53E-02
773,2706.4,3.79E-02
775,2718.3,3.67E-02
777,2730.2,4.10E-02
779,2742.1,3.78E-02
781,2754,4.03E-02
783,2765.9,4.21E-02
785,2777.8,4.35E-02
787,2789.7,4.18E-02
789,2801.6,4.26E-02
791,2813.6,4.52E-02
793,2825.5,4.81E-02
795,2837.4,4.98E-02
797,2849.3,4.98E-02
799,2861.3,5.37E-02
801,2873.2,5.27E-02
803,2885.1,5.39E-02
805,2897.1,5.31E-02
807,2909,5.42E-02
809,2920.9,5.59E-02
811,2932.9,5.78E-02
813,2944.9,5.81E-02
815,2956.8,5.91E-02
817,2968.8,6.19E-02
819,2980.8,6.17E-02
821,2992.7,6.15E-02
822,2998.7,6.13E-02