File: PMMA/Calibration_Data/FSRI/FSRI_STA_N2_3K_1.csv
Temp,time,TGA,DSC
[K],[s],[mg],[mW/mg]
323.4,0.0,3.9820,5.67E-03
325.1,99.5,3.9812,6.06E-02
326.8,142.0,3.9819,7.53E-02
328.5,181.1,3.9812,7.57E-02
330.2,218.7,3.9812,7.85E-02
331.9,255.4,3.9812,8.33E-02
333.6,291.3,3.9813,8.31E-02
335.3,326.5,3.9825,8.70E-02
337.0,361.7,3.9815,8.77E-02
338.7,396.6,3.9819,9.03E-02
340.4,431.4,3.9822,8.87E-02
342.1,466.1,3.9806,8.90E-02
343.8,500.4,3.9802,9.40E-02
345.5,534.6,3.9815,9.49E-02
347.2,568.8,3.9798,9.33E-02
348.9,603.1,3.9799,9.32E-02
350.6,637.4,3.9799,9.23E-02
352.3,671.5,3.9796,9.14E-02
354.0,705.7,3.9794,9.57E-02
355.7,740.1,3.9782,9.35E-02
357.4,774.7,3.9776,9.01E-02
359.1,808.8,3.9779,9.48E-02
360.8,842.6,3.9775,9.65E-02
362.5,876.7,3.9773,9.40E-02
364.2,910.8,3.9776,9.60E-02
365.9,944.9,3.9776,9.48E-02
367.6,978.9,3.9766,9.67E-02
369.3,1012.7,3.9755,9.81E-02
371.0,1046.6,3.9769,9.77E-02
372.7,1080.3,3.9759,9.84E-02
374.4,1113.8,3.9759,0.10088
376.1,1147.6,3.9753,9.95E-02
377.8,1181.4,3.9756,9.90E-02
379.5,1215.4,3.9753,9.87E-02
381.2,1249.0,3.9727,0.10212
382.9,1282.5,3.9748,0.10572
384.6,1316.0,3.9743,0.10713
386.3,1349.7,3.9736,0.10691
388.0,1383.4,3.9724,0.10953
389.7,1417.1,3.9730,0.10746
391.4,1450.8,3.9717,0.11311
393.1,1484.6,3.9717,0.11561
394.8,1518.6,3.9717,0.11852
396.5,1552.6,3.9700,0.11967
398.2,1586.4,3.9713,0.12053
399.9,1619.9,3.9681,0.12718
401.6,1653.2,3.9681,0.1305
403.3,1686.5,3.9673,0.12671
405.0,1720.0,3.9661,0.13052
406.7,1753.6,3.9656,0.13285
408.4,1787.1,3.9661,0.12999
410.1,1820.7,3.9648,0.13231
411.8,1854.3,3.9624,0.12807
413.5,1887.8,3.9631,0.1314
415.2,1921.2,3.9608,0.13043
416.9,1954.7,3.9595,0.1321
418.6,1988.2,3.9598,0.13233
420.3,2021.5,3.9565,0.13496
422.0,2054.8,3.9535,0.13754
423.7,2088.0,3.9532,0.1379
425.4,2121.4,3.9519,0.13992
427.1,2154.6,3.9506,0.14455
428.8,2187.9,3.9480,0.14168
430.5,2221.4,3.9468,0.14294
432.2,2254.7,3.9461,0.14381
433.9,2288.1,3.9438,0.14567
435.6,2321.4,3.9399,0.14871
437.3,2354.7,3.9375,0.14946
439.0,2388.1,3.9360,0.1518
440.7,2421.5,3.9346,0.15501
442.4,2454.8,3.9293,0.15832
444.1,2488.0,3.9277,0.15927
445.8,2521.1,3.9229,0.16034
447.5,2554.3,3.9188,0.15987
449.2,2587.4,3.9147,0.16071
450.9,2620.7,3.9102,0.15919
452.6,2654.0,3.9063,0.15577
454.3,2687.3,3.9017,0.15712
456.0,2720.9,3.8981,0.15325
457.7,2754.5,3.8951,0.15137
459.4,2787.8,3.8925,0.15079
461.1,2820.9,3.8885,0.15307
462.8,2854.1,3.8847,0.15239
464.5,2887.3,3.8834,0.15389
466.2,2920.5,3.8793,0.1546
467.9,2953.9,3.8787,0.15215
469.6,2987.5,3.8744,0.15202
471.3,3021.1,3.8727,0.14784
473.0,3054.4,3.8707,0.14877
474.7,3087.2,3.8701,0.14997
476.4,3119.9,3.8685,0.15115
478.1,3152.7,3.8665,0.14928
479.8,3185.3,3.8669,0.14836
481.5,3217.9,3.8642,0.14606
483.2,3250.8,3.8632,0.14228
484.9,3284.1,3.8625,0.13952
486.6,3317.4,3.8619,0.14133
488.3,3350.8,3.8609,0.13884
490.0,3384.1,3.8599,0.13963
491.7,3417.2,3.8582,0.1399
493.4,3450.3,3.8586,0.14096
495.1,3483.5,3.8583,0.14349
496.8,3516.7,3.8571,0.14486
498.5,3550.0,3.8569,0.1438
500.2,3583.2,3.8579,0.14548
501.9,3616.3,3.8556,0.14731
503.6,3649.3,3.8543,0.14698
505.3,3682.4,3.8546,0.14828
507.0,3715.3,3.8550,0.15235
508.7,3748.3,3.8530,0.15082
510.4,3781.6,3.8513,0.14819
512.1,3815.1,3.8510,0.14906
513.8,3848.4,3.8484,0.15147
515.5,3881.6,3.8464,0.15603
517.2,3914.6,3.8454,0.15912
518.9,3947.7,3.8428,0.15912
520.6,3980.7,3.8405,0.16222
522.3,4013.8,3.8376,0.16211
524.0,4047.0,3.8346,0.16454
525.7,4080.1,3.8319,0.16449
527.4,4113.3,3.8304,0.1739
529.1,4146.2,3.8270,0.17852
530.8,4179.3,3.8230,0.18427
532.5,4212.4,3.8190,0.18531
534.2,4245.7,3.8148,0.18651
535.9,4278.8,3.8109,0.18987
537.6,4311.7,3.8063,0.19459
539.3,4344.7,3.8016,0.1975
541.0,4377.9,3.7958,0.19324
542.7,4410.9,3.7918,0.20251
544.4,4444.3,3.7854,0.20354
546.1,4477.5,3.7794,0.2064
547.8,4510.7,3.7734,0.20993
549.5,4543.8,3.7668,0.20668
551.2,4577.0,3.7586,0.21046
552.9,4610.0,3.7503,0.21569
554.6,4643.0,3.7431,0.22006
556.3,4676.1,3.7351,0.21689
558.0,4709.5,3.7282,0.21625
559.7,4742.8,3.7185,0.21699
561.4,4776.0,3.7114,0.21992
563.1,4809.3,3.7020,0.22348
564.8,4842.5,3.6929,0.22491
566.5,4875.7,3.6812,0.22619
568.2,4908.9,3.6705,0.22742
569.9,4942.1,3.6590,0.23337
571.6,4975.1,3.6468,0.2439
573.3,5008.4,3.6335,0.24947
575.0,5041.8,3.6187,0.2601
576.7,5075.0,3.6018,0.26746
578.4,5108.0,3.5843,0.2812
580.1,5141.3,3.5655,0.29108
581.8,5174.6,3.5465,0.30608
583.5,5208.3,3.5226,0.31687
585.2,5241.5,3.4968,0.33537
586.9,5274.5,3.4720,0.35495
588.6,5307.7,3.4404,0.37484
590.3,5341.0,3.4059,0.39981
592.0,5374.7,3.3689,0.42143
593.7,5408.2,3.3270,0.44919
595.4,5441.6,3.2796,0.47925
597.1,5474.8,3.2312,0.51626
598.8,5508.0,3.1740,0.55001
600.5,5541.2,3.1124,0.59018
602.2,5574.5,3.0453,0.62811
603.9,5607.9,2.9705,0.66782
605.6,5641.6,2.8873,0.70965
607.3,5675.1,2.7999,0.74912
609.0,5708.6,2.7067,0.79053
610.7,5742.1,2.6062,0.82409
612.4,5775.6,2.4997,0.8532
614.1,5809.2,2.3856,0.88179
615.8,5842.7,2.2713,0.90701
617.5,5876.2,2.1505,0.9212
619.2,5909.8,2.0287,0.92475
620.9,5943.3,1.9053,0.92002
622.6,5976.6,1.7814,0.91302
624.3,6010.0,1.6593,0.89951
626.0,6043.5,1.5367,0.87491
627.7,6076.9,1.4198,0.84922
629.4,6110.1,1.3044,0.82704
631.1,6143.2,1.1893,0.7995
632.8,6176.4,1.0801,0.76502
634.5,6209.8,0.9758,0.72665
636.2,6243.2,0.8761,0.68254
637.9,6276.6,0.7814,0.63847
639.6,6310.0,0.6948,0.59276
641.3,6343.6,0.6140,0.54272
643.0,6377.2,0.5404,0.49418
644.7,6410.4,0.4745,0.44746
646.4,6443.6,0.4140,0.41054
648.1,6476.9,0.3605,0.37059
649.8,6510.2,0.3105,0.32739
651.5,6543.7,0.2691,0.28965
653.2,6577.3,0.2311,0.25867
654.9,6611.0,0.1966,0.22802
656.6,6644.5,0.1669,0.20094
658.3,6677.8,0.1427,0.17722
660.0,6711.0,0.1213,0.1554
661.7,6744.4,0.1013,0.13202
663.4,6778.2,0.0869,0.11392
665.1,6811.7,0.0729,0.10727
666.8,6845.3,0.0624,9.11E-02
668.5,6878.8,0.0532,8.50E-02
670.2,6912.3,0.0466,7.89E-02
671.9,6945.9,0.0380,7.67E-02
673.6,6979.5,0.0338,7.39E-02
675.3,7013.1,0.0268,7.39E-02
677.0,7046.6,0.0235,7.63E-02
678.7,7080.0,0.0202,6.97E-02
680.4,7113.4,0.0182,6.24E-02
682.1,7147.0,0.0156,5.29E-02
683.8,7180.7,0.0148,4.09E-02
685.5,7214.5,0.0133,2.69E-02
687.2,7248.1,0.0120,1.20E-02
688.9,7282.1,0.0113,-9.86E-03
690.6,7315.9,0.0113,-2.03E-02
692.3,7349.6,0.0127,-1.63E-02
694.0,7383.3,0.0118,-5.14E-03
695.7,7417.2,0.0110,2.07E-03
697.4,7451.0,0.0113,8.54E-03
699.1,7484.7,0.0110,6.95E-03
700.8,7518.3,0.0107,1.39E-02
702.5,7551.7,0.0104,1.22E-02
704.2,7585.4,0.0106,1.21E-02
705.9,7619.2,0.0103,1.01E-02
707.6,7653.3,0.0087,9.63E-03
709.3,7687.0,0.0094,1.08E-02
711.0,7720.6,0.0100,1.38E-02
712.7,7754.5,0.0094,1.38E-02
714.4,7788.2,0.0090,1.40E-02
716.1,7822.0,0.0097,1.36E-02
717.8,7855.7,0.0101,1.38E-02
719.5,7889.5,0.0107,1.05E-02
721.2,7923.3,0.0094,1.24E-02
722.9,7956.9,0.0104,1.40E-02
724.6,7990.8,0.0097,1.32E-02
726.3,8025.0,0.0090,1.17E-02
728.0,8058.9,0.0084,1.25E-02
729.7,8092.5,0.0100,1.44E-02
731.4,8126.0,0.0081,1.37E-02
733.1,8159.7,0.0084,1.67E-02
734.8,8193.6,0.0085,1.68E-02
736.5,8227.8,0.0100,1.48E-02
738.2,8261.8,0.0087,1.64E-02
739.9,8295.7,0.0097,1.61E-02
741.6,8329.9,0.0090,1.55E-02
743.3,8363.9,0.0090,2.17E-02
745.0,8397.6,0.0091,2.20E-02
746.7,8431.1,0.0077,1.85E-02
748.4,8464.9,0.0084,2.08E-02
750.1,8498.8,0.0084,2.26E-02
751.8,8532.8,0.0088,2.26E-02
753.5,8566.6,0.0084,2.01E-02
755.2,8600.6,0.0065,2.14E-02
756.9,8634.2,0.0071,2.18E-02
758.6,8668.2,0.0081,2.09E-02
760.3,8702.2,0.0074,2.49E-02
762.0,8736.0,0.0061,2.45E-02
763.7,8769.9,0.0080,2.36E-02
765.4,8803.8,0.0061,2.71E-02
767.1,8838.0,0.0071,2.83E-02
768.8,8872.1,0.0057,2.72E-02
770.5,8905.8,0.0061,2.68E-02
772.2,8939.7,0.0061,2.40E-02
773.9,8973.9,0.0051,2.68E-02
775.6,9008.1,0.0061,2.63E-02
777.3,9042.0,0.0051,2.44E-02
779.0,9075.7,0.0061,2.30E-02
780.7,9109.3,0.0067,2.66E-02
782.4,9143.3,0.0054,2.65E-02
784.1,9177.3,0.0057,2.56E-02
785.8,9211.5,0.0054,2.80E-02
787.5,9245.7,0.0051,2.80E-02
789.2,9279.8,0.0054,2.78E-02
790.9,9313.6,0.0054,2.76E-02
792.6,9347.4,0.0057,2.91E-02
794.3,9381.5,0.0045,2.98E-02
796.0,9415.6,0.0044,2.85E-02
797.7,9449.7,0.0048,3.29E-02
799.4,9483.9,0.0051,3.04E-02
801.1,9518.1,0.0041,3.27E-02
802.8,9551.9,0.0038,3.38E-02
804.5,9585.9,0.0051,3.66E-02
806.2,9619.9,0.0051,3.20E-02
807.9,9654.0,0.0051,3.51E-02
809.6,9688.1,0.0048,3.34E-02
811.3,9722.3,0.0064,3.61E-02
813.0,9756.5,0.0054,3.64E-02
814.7,9790.7,0.0061,4.06E-02
816.4,9824.8,0.0051,4.20E-02
818.1,9858.9,0.0058,3.96E-02
819.8,9893.0,0.0024,4.16E-02
821.5,9926.8,0.0034,3.96E-02
823.2,9960.7,0.0031,4.37E-02
824.9,9994.8,0.0031,4.47E-02
825.1,9998.8,0.0031,4.33E-02