File: PMMA/Calibration_Data/FSRI/FSRI_TGA_N2_30K_1.csv
Temp,time,TGA
[K],[s],[mg]
322.5,27.3,4.029
324.5,47,4.0298
326.5,57.6,4.0306
328.5,65.7,4.0305
330.5,72.7,4.0291
332.5,78.9,4.0286
334.5,84.7,4.0268
336.5,90.1,4.0283
338.5,95.3,4.0292
340.5,100.2,4.0275
342.5,105,4.0286
344.5,109.7,4.0273
346.5,114.3,4.0278
348.5,118.8,4.0308
350.5,123.3,4.0307
352.5,127.7,4.0299
354.5,132,4.0276
356.5,136.3,4.0279
358.5,140.6,4.029
360.5,144.7,4.0283
362.5,148.9,4.0301
364.5,153.1,4.0308
366.5,157.2,4.0307
368.5,161.3,4.0308
370.5,165.4,4.0308
372.5,169.5,4.0293
374.5,173.6,4.0282
376.5,177.6,4.0295
378.5,181.7,4.0295
380.5,185.7,4.0295
382.5,189.8,4.0294
384.5,193.8,4.0289
386.5,197.8,4.0292
388.5,201.8,4.0279
390.5,205.8,4.0279
392.5,209.8,4.0282
394.5,213.8,4.0288
396.5,217.8,4.0282
398.5,221.8,4.0269
400.5,225.7,4.028
402.5,229.7,4.0269
404.5,233.6,4.0272
406.5,237.5,4.0283
408.5,241.5,4.0269
410.5,245.4,4.0269
412.5,249.2,4.0256
414.5,253.1,4.0256
416.5,257,4.0256
418.5,260.9,4.0249
420.5,264.7,4.0242
422.5,268.5,4.0243
424.5,272.4,4.0229
426.5,276.2,4.0223
428.5,280,4.0209
430.5,283.8,4.0203
432.5,287.6,4.019
434.5,291.4,4.019
436.5,295.2,4.019
438.5,299,4.0181
440.5,302.8,4.0178
442.5,306.5,4.0164
444.5,310.3,4.0137
446.5,314.1,4.0124
448.5,317.8,4.011
450.5,321.6,4.0097
452.5,325.3,4.0085
454.5,329,4.0071
456.5,332.8,4.0068
458.5,336.5,4.0058
460.5,340.2,4.0029
462.5,343.9,3.9998
464.5,347.6,3.9952
466.5,351.3,3.9919
468.5,355,3.9891
470.5,358.7,3.9854
472.5,362.3,3.9829
474.5,366,3.9793
476.5,369.7,3.973
478.5,373.4,3.9698
480.5,377,3.9638
482.5,380.7,3.9593
484.5,384.4,3.9553
486.5,388,3.9533
488.5,391.7,3.9492
490.5,395.3,3.9466
492.5,399,3.9417
494.5,402.7,3.9383
496.5,406.3,3.9338
498.5,410,3.9308
500.5,413.6,3.9264
502.5,417.3,3.9233
504.5,420.9,3.9201
506.5,424.5,3.9152
508.5,428.2,3.912
510.5,431.8,3.9086
512.5,435.5,3.9056
514.5,439.1,3.9026
516.5,442.7,3.8998
518.5,446.4,3.8973
520.5,450,3.8958
522.5,453.6,3.8955
524.5,457.3,3.8941
526.5,460.9,3.8928
528.5,464.5,3.8928
530.5,468.2,3.8915
532.5,471.8,3.8906
534.5,475.4,3.8899
536.5,479.1,3.8881
538.5,482.7,3.8876
540.5,486.3,3.8877
542.5,489.9,3.8863
544.5,493.6,3.8863
546.5,497.2,3.8837
548.5,500.9,3.8836
550.5,504.5,3.8821
552.5,508.1,3.8799
554.5,511.8,3.8778
556.5,515.4,3.8762
558.5,519,3.8724
560.5,522.7,3.8699
562.5,526.3,3.8669
564.5,530,3.864
566.5,533.6,3.8606
568.5,537.3,3.8567
570.5,540.9,3.8528
572.5,544.5,3.8473
574.5,548.2,3.8421
576.5,551.8,3.836
578.5,555.4,3.829
580.5,559.1,3.8221
582.5,562.7,3.8146
584.5,566.4,3.8082
586.5,570,3.8014
588.5,573.7,3.7941
590.5,577.3,3.7846
592.5,581,3.7757
594.5,584.6,3.7674
596.5,588.3,3.7557
598.5,592,3.7465
600.5,595.6,3.735
602.5,599.3,3.7232
604.5,602.9,3.709
606.5,606.6,3.6939
608.5,610.3,3.6769
610.5,613.9,3.6567
612.5,617.6,3.6348
614.5,621.3,3.6111
616.5,625,3.5832
618.5,628.7,3.5536
620.5,632.3,3.5177
622.5,636.1,3.4784
624.5,639.8,3.4342
626.5,643.5,3.3864
628.5,647.2,3.3305
630.5,650.9,3.2689
632.5,654.6,3.2002
634.5,658.4,3.1253
636.5,662.1,3.0452
638.5,665.9,2.951
640.5,669.6,2.8581
642.5,673.4,2.7502
644.5,677.2,2.6433
646.5,680.9,2.5223
648.5,684.7,2.398
650.5,688.5,2.2683
652.5,692.3,2.1273
654.5,696,1.9945
656.5,699.8,1.8514
658.5,703.6,1.7141
660.5,707.3,1.5713
662.5,711.1,1.4308
664.5,714.8,1.293
666.5,718.6,1.155
668.5,722.3,1.0286
670.5,726,0.9009
672.5,729.7,0.7902
674.5,733.4,0.6797
676.5,737.1,0.586
678.5,740.8,0.4956
680.5,744.5,0.4191
682.5,748.1,0.3487
684.5,751.8,0.2874
686.5,755.5,0.2345
688.5,759.2,0.1865
690.5,762.8,0.1471
692.5,766.5,0.1127
694.5,770.2,0.0865
696.5,773.9,0.0617
698.5,777.5,0.0448
700.5,781.2,0.0287
702.5,784.9,0.0162
704.5,788.6,0.007
706.5,792.4,-0.002
708.5,796.1,-0.0073
710.5,799.8,-0.0131
712.5,803.5,-0.0168
714.5,807.3,-0.0199
716.5,811,-0.0211
718.5,814.7,-0.0226
720.5,818.5,-0.0255
722.5,822.2,-0.0268
724.5,826,-0.0267
726.5,829.8,-0.0294
728.5,833.6,-0.0294
730.5,837.4,-0.0307
732.5,841.2,-0.0307
734.5,845,-0.0297
736.5,848.8,-0.0299
738.5,852.6,-0.0311
740.5,856.4,-0.0311
742.5,860.2,-0.0298
744.5,864,-0.0284
746.5,867.8,-0.0311
748.5,871.7,-0.0311
750.5,875.5,-0.0324
752.5,879.3,-0.0311
754.5,883.1,-0.0311
756.5,886.9,-0.0311
758.5,890.8,-0.031
760.5,894.6,-0.0324
762.5,898.4,-0.0334
764.5,902.3,-0.0324
766.5,906.1,-0.0324
768.5,909.9,-0.0324
770.5,913.7,-0.0317
772.5,917.6,-0.0317
774.5,921.4,-0.0311
776.5,925.3,-0.0311
778.5,929.1,-0.031
780.5,933,-0.0301
782.5,936.8,-0.0328
784.5,940.7,-0.0329
786.5,944.5,-0.0343
788.5,948.3,-0.0328
790.5,952.2,-0.0344
792.5,956.1,-0.0357
794.5,959.9,-0.0344
796.5,963.8,-0.0335
798.5,967.7,-0.0331
800.5,971.5,-0.0331
802.5,975.4,-0.0317
804.5,979.3,-0.0317
806.5,983.1,-0.0321
808.5,987,-0.0324
810.5,990.9,-0.0324
812.5,994.8,-0.0324
814.5,998.7,-0.0311