File: PMMA/Calibration_Data/FSRI/FSRI_TGA_N2_10K_2.csv
Temp,time,TGA
[K],[s],[mg]
323,0,3.9537
325,65.2,3.9518
327,85.6,3.9526
329,102.2,3.9524
331,117.3,3.9537
333,131.5,3.9508
335,145.1,3.9505
337,158.5,3.9514
339,171.7,3.9497
341,184.7,3.9524
343,197.7,3.9511
345,210.4,3.951
347,223.1,3.9499
349,235.7,3.9503
351,248.3,3.9495
353,260.7,3.9489
355,273,3.9482
357,285.3,3.9482
359,297.5,3.9482
361,309.6,3.9482
363,321.7,3.9482
365,333.7,3.9482
367,345.7,3.9482
369,357.6,3.9466
371,369.6,3.9469
373,381.5,3.9469
375,393.3,3.946
377,405.2,3.9456
379,417,3.9442
381,428.8,3.9452
383,440.5,3.9443
385,452.3,3.9455
387,464.1,3.9442
389,475.8,3.9442
391,487.6,3.9442
393,499.3,3.9429
395,511,3.9442
397,522.7,3.9429
399,534.3,3.9429
401,546,3.9429
403,557.7,3.9406
405,569.3,3.9416
407,581,3.942
409,592.6,3.9391
411,604.2,3.939
413,615.8,3.937
415,627.4,3.937
417,638.9,3.937
419,650.5,3.936
421,662,3.9354
423,673.6,3.934
425,685.1,3.9327
427,696.7,3.9317
429,708.2,3.9314
431,719.8,3.9291
433,731.3,3.9278
435,742.9,3.9278
437,754.4,3.9256
439,766,3.9238
441,777.5,3.9199
443,789,3.9196
445,800.5,3.9169
447,812,3.9143
449,823.6,3.9117
451,835.1,3.9082
453,846.6,3.9038
455,858.1,3.8998
457,869.6,3.8955
459,881.1,3.8911
461,892.6,3.8865
463,904.1,3.8812
465,915.7,3.8765
467,927.2,3.8712
469,938.7,3.8672
471,950.2,3.8638
473,961.7,3.8594
475,973.2,3.8551
477,984.7,3.8521
479,996.2,3.8488
481,1007.6,3.8463
483,1019.1,3.8385
485,1030.6,3.836
487,1042.1,3.8334
489,1053.6,3.8314
491,1065,3.8287
493,1076.5,3.8261
495,1087.9,3.8235
497,1099.4,3.8208
499,1110.8,3.8198
501,1122.3,3.8208
503,1133.7,3.8195
505,1145.2,3.8185
507,1156.6,3.8169
509,1168.1,3.8172
511,1179.6,3.8172
513,1191.1,3.8159
515,1202.6,3.8133
517,1214.1,3.8126
519,1225.6,3.8133
521,1237,3.812
523,1248.5,3.8093
525,1260,3.8093
527,1271.5,3.8067
529,1282.9,3.8067
531,1294.4,3.8054
533,1305.8,3.8041
535,1317.2,3.8026
537,1328.7,3.8001
539,1340.1,3.7975
541,1351.6,3.7947
543,1363.1,3.7922
545,1374.5,3.7897
547,1386,3.7853
549,1397.5,3.7826
551,1409,3.7759
553,1420.6,3.7727
555,1432.1,3.767
557,1443.6,3.7624
559,1455.1,3.7568
561,1466.7,3.7489
563,1478.2,3.7427
565,1489.7,3.7354
567,1501.1,3.7268
569,1512.7,3.7179
571,1524.2,3.7111
573,1535.7,3.7018
575,1547.3,3.6935
577,1558.8,3.6822
579,1570.3,3.6731
581,1581.8,3.6604
583,1593.3,3.6509
585,1604.8,3.6376
587,1616.4,3.6263
589,1628.1,3.6086
591,1639.6,3.5908
593,1651.2,3.5731
595,1662.8,3.5519
597,1674.4,3.528
599,1686,3.5016
601,1697.6,3.4707
603,1709.2,3.4379
605,1720.9,3.3985
607,1732.5,3.3542
609,1744.1,3.3024
611,1755.7,3.2479
613,1767.4,3.1854
615,1779.1,3.1146
617,1790.8,3.0367
619,1802.5,2.9493
621,1814.3,2.8529
623,1826,2.7498
625,1837.8,2.6391
627,1849.5,2.5198
629,1861.2,2.3949
631,1873,2.2612
633,1884.7,2.1225
635,1896.4,1.9798
637,1908.1,1.8369
639,1919.8,1.6933
641,1931.5,1.5476
643,1943.1,1.4063
645,1954.8,1.2678
647,1966.4,1.1326
649,1978,1.0007
651,1989.6,0.8783
653,2001.1,0.7607
655,2012.7,0.654
657,2024.3,0.5565
659,2035.8,0.4653
661,2047.4,0.3844
663,2058.9,0.3114
665,2070.5,0.2483
667,2082.1,0.1936
669,2093.6,0.1468
671,2105.2,0.1043
673,2116.9,0.0672
675,2128.5,0.0374
677,2140.1,0.0138
679,2151.8,-0.0065
681,2163.4,-0.023
683,2175.1,-0.0365
685,2186.8,-0.0451
687,2198.5,-0.0559
689,2210.2,-0.0649
691,2221.9,-0.0701
693,2233.7,-0.0749
695,2245.4,-0.0784
697,2257.1,-0.0819
699,2268.9,-0.085
701,2280.6,-0.085
703,2292.4,-0.0886
705,2304.1,-0.0902
707,2315.9,-0.0929
709,2327.7,-0.0915
711,2339.4,-0.0909
713,2351.2,-0.0909
715,2363,-0.0922
717,2374.9,-0.0935
719,2386.7,-0.0929
721,2398.5,-0.0932
723,2410.3,-0.0928
725,2422.1,-0.0929
727,2434,-0.0929
729,2445.8,-0.092
731,2457.6,-0.0909
733,2469.4,-0.0909
735,2481.3,-0.0932
737,2493.1,-0.0929
739,2504.9,-0.0926
741,2516.8,-0.0939
743,2528.7,-0.0929
745,2540.6,-0.0932
747,2552.4,-0.0932
749,2564.2,-0.0925
751,2576.1,-0.0911
753,2587.9,-0.0925
755,2599.8,-0.0912
757,2611.6,-0.0935
759,2623.5,-0.0935
761,2635.3,-0.0922
763,2647.2,-0.0942
765,2659,-0.0942
767,2670.9,-0.0915
769,2682.8,-0.0915
771,2694.6,-0.0922
773,2706.4,-0.0922
775,2718.3,-0.0908
777,2730.2,-0.0909
779,2742.1,-0.0935
781,2754,-0.0922
783,2765.9,-0.0922
785,2777.8,-0.0922
787,2789.7,-0.0928
789,2801.6,-0.0922
791,2813.6,-0.0935
793,2825.5,-0.0935
795,2837.4,-0.0922
797,2849.3,-0.0912
799,2861.3,-0.0916
801,2873.2,-0.0932
803,2885.1,-0.0925
805,2897.1,-0.0925
807,2909,-0.0925
809,2920.9,-0.0925
811,2932.9,-0.0915
813,2944.9,-0.0942
815,2956.8,-0.0922
817,2968.8,-0.0915
819,2980.8,-0.0915
821,2992.7,-0.0929
822,2998.7,-0.0929