File: PMMA/Calibration_Data/FSRI/FSRI_STA_N2_10K_3.csv
Temp,time,TGA,DSC
[K],[s],[mg],[mW/mg]
323,0,3.9002,-2.16E-03
324.7,61.7,3.8981,7.75E-02
326.4,80.3,3.8964,0.12477
328.1,95.2,3.8959,0.15613
329.8,108.5,3.8944,0.17727
331.5,120.9,3.8967,0.19395
333.2,132.8,3.8953,0.20501
334.9,144.5,3.8954,0.2141
336.6,155.9,3.8952,0.22278
338.3,167.1,3.8953,0.22597
340,178.2,3.8954,0.23171
341.7,189.1,3.8958,0.23585
343.4,200.1,3.8951,0.24245
345.1,211,3.8947,0.24525
346.8,221.8,3.8929,0.25192
348.5,232.6,3.8939,0.2577
350.2,243.2,3.893,0.26313
351.9,253.8,3.8926,0.26562
353.6,264.5,3.893,0.26807
355.3,275,3.8916,0.26567
357,285.5,3.8916,0.266
358.7,295.9,3.8916,0.26534
360.4,306.3,3.8926,0.26286
362.1,316.6,3.8899,0.26493
363.8,326.9,3.889,0.2665
365.5,337.1,3.8897,0.2672
367.2,347.3,3.889,0.27054
368.9,357.5,3.889,0.27334
370.6,367.6,3.8886,0.27649
372.3,377.7,3.888,0.27687
374,387.8,3.8877,0.28226
375.7,397.9,3.8864,0.28392
377.4,408,3.8877,0.28612
379.1,418,3.8864,0.29333
380.8,428,3.8864,0.29572
382.5,437.9,3.8851,0.2973
384.2,447.9,3.8853,0.30269
385.9,457.9,3.8837,0.3055
387.6,467.9,3.8837,0.3105
389.3,477.9,3.885,0.31461
391,487.8,3.8851,0.32238
392.7,497.8,3.8824,0.33205
394.4,507.7,3.8824,0.33798
396.1,517.6,3.8811,0.34787
397.8,527.5,3.8824,0.35513
399.5,537.5,3.8798,0.36124
401.2,547.5,3.8795,0.36799
402.9,557.4,3.8795,0.37267
404.6,567.3,3.8785,0.37759
406.3,577.2,3.8785,0.37779
408,587.2,3.8785,0.38241
409.7,597,3.8775,0.38363
411.4,606.9,3.8772,0.38744
413.1,616.8,3.8755,0.3885
414.8,626.6,3.8755,0.3916
416.5,636.5,3.8753,0.39306
418.2,646.3,3.8729,0.39644
419.9,656.1,3.8732,0.39622
421.6,665.9,3.8726,0.39866
423.3,675.8,3.8712,0.40107
425,685.7,3.8712,0.4034
426.7,695.5,3.8689,0.40675
428.4,705.3,3.8686,0.41275
430.1,715,3.867,0.41783
431.8,724.8,3.865,0.42327
433.5,734.7,3.8651,0.42606
435.2,744.4,3.8638,0.43259
436.9,754.3,3.861,0.43851
438.6,764.1,3.8597,0.44513
440.3,773.8,3.8581,0.4486
442,783.6,3.8571,0.45369
443.7,793.4,3.8542,0.46049
445.4,803.2,3.8515,0.46668
447.1,813,3.8495,0.47613
448.8,822.8,3.8462,0.48243
450.5,832.6,3.843,0.49013
452.2,842.3,3.8403,0.49758
453.9,852.1,3.8376,0.50192
455.6,861.9,3.8332,0.50048
457.3,871.7,3.8299,0.50509
459,881.5,3.8258,0.50502
460.7,891.3,3.8222,0.5035
462.4,901,3.8178,0.50492
464.1,910.8,3.814,0.50184
465.8,920.5,3.81,0.49761
467.5,930.3,3.8064,0.49343
469.2,940,3.8044,0.48877
470.9,949.7,3.8004,0.48728
472.6,959.4,3.7952,0.48428
474.3,969.1,3.7916,0.48141
476,978.9,3.7873,0.48306
477.7,988.7,3.7847,0.48417
479.4,998.4,3.782,0.48397
481.1,1008.2,3.7781,0.48753
482.8,1018,3.7755,0.48813
484.5,1027.7,3.7723,0.49301
486.2,1037.4,3.7676,0.49011
487.9,1047.2,3.7649,0.49218
489.6,1056.9,3.7625,0.48645
491.3,1066.7,3.7597,0.48407
493,1076.4,3.7584,0.4759
494.7,1086.1,3.7557,0.47151
496.4,1095.9,3.7557,0.46212
498.1,1105.6,3.7521,0.45846
499.8,1115.3,3.7521,0.45534
501.5,1125,3.7521,0.45259
503.2,1134.8,3.7508,0.45399
504.9,1144.5,3.7493,0.45323
506.6,1154.3,3.7489,0.45199
508.3,1164,3.7476,0.45494
510,1173.7,3.7489,0.45437
511.7,1183.4,3.7476,0.45564
513.4,1193.1,3.7469,0.45762
515.1,1202.9,3.747,0.45843
516.8,1212.6,3.7453,0.45875
518.5,1222.3,3.745,0.46139
520.2,1232.1,3.743,0.46304
521.9,1241.8,3.7417,0.46138
523.6,1251.6,3.7417,0.46506
525.3,1261.3,3.7404,0.4653
527,1271.1,3.7404,0.47018
528.7,1280.9,3.739,0.47042
530.4,1290.6,3.7377,0.47375
532.1,1300.4,3.7364,0.47795
533.8,1310.1,3.7338,0.48084
535.5,1319.9,3.7345,0.48506
537.2,1329.7,3.7331,0.48915
538.9,1339.5,3.7317,0.49433
540.6,1349.3,3.7278,0.4992
542.3,1359.1,3.7252,0.50094
544,1368.9,3.7249,0.50747
545.7,1378.7,3.7221,0.51493
547.4,1388.5,3.7183,0.5253
549.1,1398.3,3.717,0.53307
550.8,1408.1,3.714,0.5396
552.5,1417.9,3.7098,0.55199
554.2,1427.6,3.7057,0.56054
555.9,1437.4,3.7029,0.56928
557.6,1447.2,3.6994,0.5783
559.3,1457,3.6938,0.58372
561,1466.7,3.6882,0.58957
562.7,1476.5,3.6824,0.59627
564.4,1486.3,3.6767,0.59869
566.1,1496.1,3.67,0.60667
567.8,1505.8,3.6639,0.60852
569.5,1515.6,3.6578,0.61244
571.2,1525.4,3.6485,0.6133
572.9,1535.2,3.6429,0.61433
574.6,1545,3.6353,0.61722
576.3,1554.8,3.6256,0.62146
578,1564.6,3.617,0.63
579.7,1574.4,3.6092,0.64263
581.4,1584.2,3.6014,0.65705
583.1,1594,3.5902,0.66889
584.8,1603.8,3.5816,0.68834
586.5,1613.7,3.5701,0.7047
588.2,1623.5,3.5571,0.72846
589.9,1633.3,3.5433,0.75389
591.6,1643.1,3.5304,0.78321
593.3,1652.9,3.513,0.81496
595,1662.7,3.4957,0.85435
596.7,1672.6,3.4755,0.89685
598.4,1682.4,3.4548,0.94215
600.1,1692.3,3.4307,0.9962
601.8,1702.1,3.4055,1.05717
603.5,1711.9,3.3758,1.12351
605.2,1721.8,3.3416,1.19372
606.9,1731.6,3.3073,1.27415
608.6,1741.5,3.2667,1.35845
610.3,1751.4,3.2199,1.45437
612,1761.3,3.1705,1.55562
613.7,1771.3,3.1139,1.6669
615.4,1781.2,3.0554,1.77856
617.1,1791.2,2.9893,1.89671
618.8,1801.1,2.9195,2.01843
620.5,1811.1,2.8423,2.14526
622.2,1821.1,2.7564,2.26932
623.9,1831.1,2.6664,2.39241
625.6,1841.1,2.5725,2.50752
627.3,1851.2,2.472,2.61822
629,1861.2,2.367,2.71623
630.7,1871.2,2.2555,2.80323
632.4,1881.2,2.1392,2.87441
634.1,1891.2,2.0204,2.92066
635.8,1901.2,1.9014,2.94805
637.5,1911.1,1.7796,2.93106
639.2,1921.1,1.658,2.91447
640.9,1931,1.5394,2.86195
642.6,1940.9,1.4193,2.84788
644.3,1950.8,1.2992,2.81347
646,1960.6,1.1846,2.72447
647.7,1970.5,1.0717,2.61681
649.4,1980.4,0.9664,2.49158
651.1,1990.2,0.8631,2.34253
652.8,2000,0.7696,2.1956
654.5,2009.8,0.6804,2.03863
656.2,2019.6,0.5948,1.88851
657.9,2029.4,0.5187,1.73267
659.6,2039.2,0.4468,1.58007
661.3,2049,0.3835,1.43068
663,2058.8,0.3246,1.27956
664.7,2068.6,0.2705,1.14459
666.4,2078.4,0.2257,1.01431
668.1,2088.3,0.1831,0.89012
669.8,2098.1,0.147,0.78019
671.5,2108,0.1135,0.67663
673.2,2117.9,0.0858,0.58523
674.9,2127.8,0.0615,0.49831
676.6,2137.7,0.0405,0.42503
678.3,2147.7,0.023,0.35829
680,2157.6,0.0089,0.30287
681.7,2167.5,-0.0051,0.25342
683.4,2177.5,-0.0156,0.21344
685.1,2187.4,-0.0245,0.17869
686.8,2197.4,-0.0323,0.14746
688.5,2207.3,-0.0394,0.11836
690.2,2217.2,-0.0434,0.10163
691.9,2227.2,-0.0473,8.56E-02
693.6,2237.1,-0.053,6.95E-02
695.3,2247.1,-0.0571,6.20E-02
697,2257,-0.0584,5.18E-02
698.7,2267,-0.0594,4.84E-02
700.4,2277,-0.0606,4.58E-02
702.1,2286.9,-0.0623,4.48E-02
703.8,2296.9,-0.0637,4.62E-02
705.5,2306.8,-0.066,4.62E-02
707.2,2316.8,-0.065,4.32E-02
708.9,2326.9,-0.066,3.12E-02
710.6,2336.9,-0.066,1.39E-02
712.3,2346.9,-0.0686,-1.12E-02
714,2357,-0.0695,-3.28E-02
715.7,2367,-0.0692,-3.23E-02
717.4,2377.1,-0.0686,-1.67E-02
719.1,2387.2,-0.0673,8.10E-05
720.8,2397.3,-0.0685,1.06E-02
722.5,2407.3,-0.0673,1.73E-02
724.2,2417.3,-0.0673,2.29E-02
725.9,2427.4,-0.0704,2.57E-02
727.6,2437.4,-0.0715,3.01E-02
729.3,2447.4,-0.068,2.43E-02
731,2457.4,-0.0667,2.54E-02
732.7,2467.4,-0.068,2.88E-02
734.4,2477.5,-0.0694,2.88E-02
736.1,2487.5,-0.0666,2.89E-02
737.8,2497.6,-0.0666,3.33E-02
739.5,2507.6,-0.0679,3.14E-02
741.2,2517.7,-0.0666,3.29E-02
742.9,2527.7,-0.0697,3.32E-02
744.6,2537.8,-0.0692,3.58E-02
746.3,2547.9,-0.0683,3.77E-02
748,2557.9,-0.0683,3.65E-02
749.7,2568,-0.0696,3.85E-02
751.4,2578.1,-0.0683,3.65E-02
753.1,2588.2,-0.0696,3.85E-02
754.8,2598.3,-0.0682,3.65E-02
756.5,2608.4,-0.0694,4.01E-02
758.2,2618.4,-0.0682,3.75E-02
759.9,2628.5,-0.0696,4.36E-02
761.6,2638.6,-0.0673,4.19E-02
763.3,2648.7,-0.0673,4.17E-02
765,2658.8,-0.0669,4.33E-02
766.7,2668.8,-0.0683,4.18E-02
768.4,2678.9,-0.0669,4.89E-02
770.1,2689,-0.0669,4.85E-02
771.8,2699.1,-0.0669,4.56E-02
773.5,2709.3,-0.0656,4.65E-02
775.2,2719.5,-0.067,4.47E-02
776.9,2729.6,-0.0676,4.62E-02
778.6,2739.7,-0.0676,4.97E-02
780.3,2749.8,-0.0689,5.16E-02
782,2760,-0.0676,5.06E-02
783.7,2770.1,-0.0663,5.38E-02
785.4,2780.2,-0.0663,5.50E-02
787.1,2790.3,-0.0673,5.75E-02
788.8,2800.4,-0.0673,6.09E-02
790.5,2810.5,-0.0673,6.34E-02
792.2,2820.6,-0.0663,6.08E-02
793.9,2830.7,-0.0663,6.33E-02
795.6,2840.9,-0.0663,6.53E-02
797.3,2851,-0.0669,6.61E-02
799,2861.1,-0.0666,6.90E-02
800.7,2871.3,-0.0679,6.45E-02
802.4,2881.4,-0.0683,6.66E-02
804.1,2891.6,-0.0682,7.06E-02
805.8,2901.7,-0.0683,7.06E-02
807.5,2911.9,-0.0669,7.02E-02
809.2,2922,-0.0663,7.11E-02
810.9,2932.2,-0.0663,7.10E-02
812.6,2942.3,-0.0669,7.09E-02
814.3,2952.4,-0.0679,7.33E-02
816,2962.6,-0.0669,7.29E-02
817.7,2972.8,-0.0666,7.26E-02
819.4,2983,-0.0669,7.65E-02
821.1,2993.2,-0.0669,7.46E-02
822.1,2999.2,-0.0669,7.31E-02