File: PMMA/Calibration_Data/FSRI/FSRI_TGA_N2_3K_1.csv
Temp,time,mass
[K],[s],[mg]
323.5,31.6,3.9819
325.5,110.2,3.9818
327.5,158.3,3.9832
329.5,203.4,3.9811
331.5,246.8,3.9811
333.5,289.2,3.9812
335.5,330.6,3.9812
337.5,371.9,3.9815
339.5,413,3.9809
341.5,453.9,3.9806
343.5,494.3,3.9816
345.5,534.6,3.9815
347.5,574.8,3.9812
349.5,615.2,3.9799
351.5,655.4,3.9786
353.5,695.7,3.98
355.5,736,3.9782
357.5,776.7,3.9776
359.5,816.7,3.979
361.5,856.5,3.9776
363.5,896.8,3.9756
365.5,936.9,3.9763
367.5,976.9,3.9766
369.5,1016.7,3.9756
371.5,1056.5,3.9769
373.5,1096,3.9759
375.5,1135.7,3.9772
377.5,1175.4,3.9744
379.5,1215.4,3.9753
381.5,1254.9,3.9727
383.5,1294.2,3.9749
385.5,1333.8,3.9744
387.5,1373.5,3.9724
389.5,1413.2,3.9724
391.5,1452.8,3.9717
393.5,1492.5,3.971
395.5,1532.6,3.97
397.5,1572.5,3.9696
399.5,1612,3.9694
401.5,1651.3,3.9681
403.5,1690.5,3.9674
405.5,1729.9,3.9661
407.5,1769.4,3.9661
409.5,1808.8,3.9641
411.5,1848.4,3.9644
413.5,1887.8,3.9631
415.5,1927.1,3.9608
417.5,1966.6,3.9598
419.5,2005.8,3.9572
421.5,2045,3.9552
423.5,2084.1,3.9545
425.5,2123.3,3.9519
427.5,2162.4,3.9507
429.5,2201.7,3.9481
431.5,2241,3.9455
433.5,2280.2,3.9425
435.5,2319.4,3.9399
437.5,2358.7,3.9363
439.5,2398,3.9346
441.5,2437.2,3.932
443.5,2476.3,3.9267
445.5,2515.3,3.9228
447.5,2554.3,3.9188
449.5,2593.3,3.9145
451.5,2632.5,3.9089
453.5,2671.6,3.9041
455.5,2711,3.9004
457.5,2750.5,3.8959
459.5,2789.7,3.8926
461.5,2828.7,3.8886
463.5,2867.7,3.8834
465.5,2906.8,3.881
467.5,2946,3.8787
469.5,2985.5,3.8744
471.5,3025,3.8721
473.5,3064.1,3.8688
475.5,3102.5,3.87
477.5,3141.2,3.8675
479.5,3179.6,3.8667
481.5,3217.9,3.8642
483.5,3256.6,3.8632
485.5,3295.9,3.8625
487.5,3335,3.8612
489.5,3374.3,3.8599
491.5,3413.3,3.8581
493.5,3452.3,3.8586
495.5,3491.3,3.8572
497.5,3530.4,3.8581
499.5,3569.5,3.8556
501.5,3608.5,3.8556
503.5,3647.4,3.8542
505.5,3686.3,3.8519
507.5,3725,3.8536
509.5,3763.9,3.8523
511.5,3803.3,3.849
513.5,3842.5,3.8477
515.5,3881.6,3.8464
517.5,3920.5,3.8451
519.5,3959.4,3.8428
521.5,3998.2,3.8398
523.5,4037.2,3.8372
525.5,4076.2,3.8343
527.5,4115.2,3.8293
529.5,4154,3.8257
531.5,4192.9,3.8205
533.5,4232,3.8174
535.5,4271,3.8122
537.5,4309.8,3.8063
539.5,4348.6,3.8016
541.5,4387.7,3.7947
543.5,4426.5,3.7896
545.5,4465.8,3.7813
547.5,4504.8,3.7747
549.5,4543.8,3.7668
551.5,4582.8,3.7587
553.5,4621.7,3.7486
555.5,4660.5,3.7387
557.5,4699.7,3.7299
559.5,4738.9,3.7202
561.5,4778,3.7101
563.5,4817.1,3.6982
565.5,4856.1,3.6876
567.5,4895.2,3.6756
569.5,4934.3,3.6622
571.5,4973.2,3.6482
573.5,5012.3,3.6323
575.5,5051.6,3.6136
577.5,5090.5,3.5934
579.5,5129.5,3.5728
581.5,5168.7,3.5483
583.5,5208.3,3.5226
585.5,5247.3,3.493
587.5,5286.1,3.4607
589.5,5325.3,3.4232
591.5,5364.8,3.3802
593.5,5404.3,3.3317
595.5,5443.5,3.2779
597.5,5482.6,3.2181
599.5,5521.6,3.149
601.5,5560.8,3.0749
603.5,5600,2.9874
605.5,5639.6,2.893
607.5,5679.1,2.7885
609.5,5718.5,2.6758
611.5,5757.9,2.5559
613.5,5797.3,2.4269
615.5,5836.8,2.2909
617.5,5876.2,2.1505
619.5,5915.7,2.0066
621.5,5955.1,1.8604
623.5,5994.3,1.7175
625.5,6033.6,1.5728
627.5,6073,1.433
629.5,6112,1.2981
631.5,6151,1.1633
633.5,6190.1,1.037
635.5,6229.4,0.9166
637.5,6268.7,0.8031
639.5,6308.1,0.7007
641.5,6347.6,0.6043
643.5,6387,0.5203
645.5,6426.1,0.4457
647.5,6465.1,0.3778
649.5,6504.3,0.3199
651.5,6543.7,0.2691
653.5,6583.3,0.2235
655.5,6622.8,0.1873
657.5,6662.2,0.1528
659.5,6701.2,0.1275
661.5,6740.5,0.1053
663.5,6780.2,0.0856
665.5,6819.6,0.0712
667.5,6859.1,0.0584
669.5,6898.5,0.0492
671.5,6938,0.0406
673.5,6977.6,0.034
675.5,7017.1,0.0268
677.5,7056.4,0.0229
679.5,7095.7,0.0196
681.5,7135.1,0.0169
683.5,7174.8,0.0146
685.5,7214.5,0.0133
687.5,7254.1,0.012
689.5,7294,0.0113
691.5,7333.7,0.0113
693.5,7373.3,0.0107
695.5,7413.2,0.0097
697.5,7453,0.0113
699.5,7492.6,0.0114
701.5,7532,0.0107
703.5,7571.4,0.0107
705.5,7611.2,0.0106
707.5,7651.3,0.0087
709.5,7691,0.0094
711.5,7730.6,0.0094
713.5,7770.4,0.0107
715.5,7810.1,0.011
717.5,7849.7,0.011
719.5,7889.5,0.0107
721.5,7929.3,0.0094
723.5,7968.9,0.0104
725.5,8008.9,0.008
727.5,8049,0.0097
729.5,8088.6,0.0094
731.5,8128,0.0081
733.5,8167.6,0.0082
735.5,8207.7,0.0081
737.5,8247.8,0.0087
739.5,8287.8,0.0086
741.5,8327.9,0.009
743.5,8367.9,0.0091
745.5,8407.5,0.0085
747.5,8447,0.009
749.5,8486.8,0.0084
751.5,8526.8,0.0074
753.5,8566.6,0.0084
755.5,8606.6,0.0057
757.5,8646.2,0.0072
759.5,8686.2,0.0078
761.5,8726,0.0061
763.5,8765.9,0.0068
765.5,8805.8,0.006
767.5,8846,0.0054
769.5,8886,0.0061
771.5,8925.7,0.0061
773.5,8965.8,0.0058
775.5,9006.1,0.0061
777.5,9046,0.0061
779.5,9085.6,0.0061
781.5,9125.3,0.0057
783.5,9165.3,0.0044
785.5,9205.5,0.0046
787.5,9245.7,0.0051
789.5,9285.8,0.0054
791.5,9325.5,0.0042
793.5,9365.4,0.0057
795.5,9405.6,0.0057
797.5,9445.7,0.0048
799.5,9485.9,0.0051
801.5,9526,0.0041
803.5,9565.9,0.0051
805.5,9605.9,0.0051
807.5,9645.9,0.0051
809.5,9686.1,0.0048
811.5,9726.4,0.007
813.5,9766.5,0.0041
815.5,9806.8,0.0051
817.5,9846.9,0.0058
819.5,9887,0.0038
821.5,9926.8,0.0034
823.5,9966.7,0.0031
825,9996.8,0.0031