File: PMMA/Calibration_Data/FSRI/FSRI_TGA_N2_30K_3.csv
Temp,time,TGA
[K],[s],[mg]
322.5,24.9,3.9301
324.5,46.6,3.9303
326.5,57.3,3.93
328.5,65.5,3.9315
330.5,72.5,3.9307
332.5,78.7,3.9289
334.5,84.5,3.9305
336.5,89.9,3.9289
338.5,95.1,3.9298
340.5,100.1,3.929
342.5,104.8,3.9296
344.5,109.5,3.9303
346.5,114.1,3.9304
348.5,118.6,3.9306
350.5,123.1,3.93
352.5,127.4,3.9313
354.5,131.8,3.9305
356.5,136.1,3.9293
358.5,140.3,3.9297
360.5,144.5,3.93
362.5,148.7,3.9303
364.5,152.8,3.9291
366.5,156.9,3.9291
368.5,161,3.9294
370.5,165.1,3.9289
372.5,169.2,3.9289
374.5,173.3,3.9289
376.5,177.3,3.929
378.5,181.4,3.9289
380.5,185.4,3.929
382.5,189.5,3.9288
384.5,193.5,3.9276
386.5,197.5,3.9289
388.5,201.5,3.9276
390.5,205.6,3.9277
392.5,209.6,3.9277
394.5,213.6,3.9276
396.5,217.5,3.9267
398.5,221.5,3.9263
400.5,225.5,3.9274
402.5,229.4,3.9263
404.5,233.4,3.9276
406.5,237.3,3.9276
408.5,241.2,3.9257
410.5,245.1,3.9256
412.5,249,3.9256
414.5,252.9,3.9265
416.5,256.7,3.9257
418.5,260.6,3.9257
420.5,264.4,3.9247
422.5,268.2,3.9233
424.5,272.1,3.923
426.5,275.9,3.923
428.5,279.7,3.9231
430.5,283.5,3.9212
432.5,287.3,3.9191
434.5,291.1,3.9191
436.5,294.9,3.9191
438.5,298.7,3.9178
440.5,302.5,3.9177
442.5,306.2,3.9164
444.5,310,3.9151
446.5,313.8,3.9151
448.5,317.5,3.9138
450.5,321.3,3.9112
452.5,325,3.9099
454.5,328.7,3.9086
456.5,332.5,3.9062
458.5,336.2,3.9045
460.5,339.9,3.9011
462.5,343.6,3.8976
464.5,347.3,3.8933
466.5,351,3.89
468.5,354.7,3.8857
470.5,358.3,3.882
472.5,362,3.8798
474.5,365.7,3.8744
476.5,369.4,3.8701
478.5,373.1,3.8663
480.5,376.7,3.8625
482.5,380.4,3.8588
484.5,384.1,3.8554
486.5,387.7,3.8516
488.5,391.4,3.8491
490.5,395.1,3.8447
492.5,398.7,3.8405
494.5,402.4,3.8367
496.5,406.1,3.8334
498.5,409.7,3.8279
500.5,413.4,3.826
502.5,417,3.8212
504.5,420.7,3.8207
506.5,424.3,3.8151
508.5,428,3.8125
510.5,431.6,3.8099
512.5,435.3,3.8086
514.5,438.9,3.806
516.5,442.6,3.8046
518.5,446.2,3.8033
520.5,449.9,3.8019
522.5,453.5,3.8006
524.5,457.1,3.7993
526.5,460.8,3.7993
528.5,464.4,3.798
530.5,468,3.7966
532.5,471.7,3.7967
534.5,475.3,3.7954
536.5,479,3.7953
538.5,482.6,3.794
540.5,486.2,3.7926
542.5,489.8,3.7927
544.5,493.5,3.7911
546.5,497.1,3.7898
548.5,500.7,3.7885
550.5,504.4,3.7871
552.5,508,3.7856
554.5,511.6,3.7834
556.5,515.2,3.7821
558.5,518.9,3.7806
560.5,522.5,3.7781
562.5,526.1,3.776
564.5,529.7,3.7726
566.5,533.4,3.7686
568.5,537,3.7648
570.5,540.6,3.761
572.5,544.3,3.756
574.5,547.9,3.7514
576.5,551.5,3.7475
578.5,555.2,3.7409
580.5,558.8,3.7348
582.5,562.4,3.7289
584.5,566.1,3.7221
586.5,569.7,3.7142
588.5,573.4,3.7066
590.5,577,3.6972
592.5,580.6,3.6896
594.5,584.3,3.6802
596.5,587.9,3.6702
598.5,591.6,3.6602
600.5,595.2,3.6491
602.5,598.9,3.6382
604.5,602.5,3.6245
606.5,606.2,3.6101
608.5,609.8,3.5946
610.5,613.5,3.5759
612.5,617.2,3.5554
614.5,620.8,3.533
616.5,624.5,3.5082
618.5,628.2,3.479
620.5,631.9,3.4482
622.5,635.6,3.4085
624.5,639.2,3.3694
626.5,642.9,3.3238
628.5,646.6,3.2734
630.5,650.4,3.2161
632.5,654.1,3.1569
634.5,657.8,3.088
636.5,661.6,3.0085
638.5,665.3,2.9309
640.5,669.1,2.8365
642.5,672.8,2.7446
644.5,676.6,2.6402
646.5,680.3,2.5345
648.5,684.1,2.4173
650.5,687.8,2.2934
652.5,691.6,2.1687
654.5,695.4,2.034
656.5,699.2,1.9077
658.5,702.9,1.7714
660.5,706.7,1.639
662.5,710.5,1.5065
664.5,714.2,1.3756
666.5,717.9,1.2499
668.5,721.7,1.1227
670.5,725.4,1.0093
672.5,729.1,0.8933
674.5,732.9,0.7908
676.5,736.6,0.6857
678.5,740.3,0.5921
680.5,744,0.5063
682.5,747.7,0.4306
684.5,751.4,0.365
686.5,755,0.3053
688.5,758.7,0.2557
690.5,762.4,0.2125
692.5,766.1,0.1764
694.5,769.7,0.1426
696.5,773.4,0.1194
698.5,777.1,0.0998
700.5,780.8,0.0858
702.5,784.5,0.0731
704.5,788.2,0.0597
706.5,792,0.0519
708.5,795.7,0.0454
710.5,799.4,0.0411
712.5,803.2,0.037
714.5,806.9,0.0338
716.5,810.7,0.0307
718.5,814.4,0.0282
720.5,818.2,0.0267
722.5,822,0.0255
724.5,825.7,0.0245
726.5,829.5,0.0228
728.5,833.3,0.0228
730.5,837.1,0.0228
732.5,840.9,0.0215
734.5,844.7,0.0215
736.5,848.5,0.0231
738.5,852.3,0.0231
740.5,856.1,0.0231
742.5,859.9,0.0231
744.5,863.7,0.0228
746.5,867.5,0.0225
748.5,871.4,0.0225
750.5,875.2,0.0225
752.5,879,0.0215
754.5,882.8,0.0214
756.5,886.7,0.0228
758.5,890.5,0.0228
760.5,894.3,0.0238
762.5,898.2,0.0238
764.5,902,0.0238
766.5,905.9,0.0238
768.5,909.7,0.0227
770.5,913.6,0.0225
772.5,917.4,0.0225
774.5,921.3,0.0225
776.5,925.1,0.0212
778.5,929,0.0217
780.5,932.8,0.0229
782.5,936.7,0.0229
784.5,940.6,0.0242
786.5,944.4,0.0229
788.5,948.3,0.0216
790.5,952.1,0.0216
792.5,956,0.0216
794.5,959.9,0.0214
796.5,963.7,0.0216
798.5,967.6,0.0229
800.5,971.4,0.0216
802.5,975.3,0.0226
804.5,979.2,0.0213
806.5,983.1,0.0213
808.5,987,0.0226
810.5,990.8,0.0226
812.5,994.7,0.0226
814.5,998.7,0.0213