File: PMMA/Calibration_Data/FSRI/FSRI_TGA_N2_30K_2.csv
Temp,time,TGA
[K],[s],[mg]
322.5,27.7,4.0646
324.5,47.3,4.0631
326.5,57.8,4.0623
328.5,65.9,4.0642
330.5,72.8,4.0624
332.5,79,4.0629
334.5,84.7,4.0624
336.5,90.1,4.0621
338.5,95.2,4.061
340.5,100.2,4.0612
342.5,105,4.0625
344.5,109.7,4.0625
346.5,114.3,4.0629
348.5,118.8,4.063
350.5,123.2,4.0632
352.5,127.6,4.0623
354.5,131.9,4.0638
356.5,136.2,4.064
358.5,140.5,4.0641
360.5,144.7,4.0629
362.5,148.8,4.0629
364.5,153,4.0629
366.5,157.1,4.0614
368.5,161.2,4.0605
370.5,165.3,4.0599
372.5,169.4,4.0622
374.5,173.5,4.0613
376.5,177.5,4.0618
378.5,181.6,4.0624
380.5,185.6,4.0625
382.5,189.7,4.0612
384.5,193.7,4.0612
386.5,197.7,4.0608
388.5,201.8,4.06
390.5,205.8,4.0598
392.5,209.8,4.0598
394.5,213.8,4.0585
396.5,217.8,4.0598
398.5,221.7,4.0599
400.5,225.7,4.0585
402.5,229.7,4.0584
404.5,233.6,4.0598
406.5,237.6,4.0598
408.5,241.5,4.0598
410.5,245.4,4.0596
412.5,249.3,4.0585
414.5,253.2,4.0582
416.5,257,4.0582
418.5,260.9,4.0582
420.5,264.8,4.0556
422.5,268.6,4.0556
424.5,272.4,4.0529
426.5,276.3,4.053
428.5,280.1,4.0526
430.5,283.9,4.0516
432.5,287.8,4.051
434.5,291.6,4.0513
436.5,295.4,4.0503
438.5,299.2,4.0476
440.5,303,4.0464
442.5,306.7,4.045
444.5,310.5,4.045
446.5,314.3,4.0437
448.5,318.1,4.0424
450.5,321.8,4.0411
452.5,325.6,4.041
454.5,329.3,4.0383
456.5,333,4.0355
458.5,336.8,4.0325
460.5,340.5,4.028
462.5,344.2,4.0239
464.5,347.9,4.0218
466.5,351.6,4.0187
468.5,355.3,4.0131
470.5,359,4.0085
472.5,362.7,4.0035
474.5,366.3,4.0006
476.5,370,3.996
478.5,373.7,3.991
480.5,377.4,3.986
482.5,381,3.9824
484.5,384.7,3.9794
486.5,388.4,3.9755
488.5,392,3.9706
490.5,395.7,3.9658
492.5,399.3,3.9626
494.5,403,3.959
496.5,406.6,3.9552
498.5,410.3,3.9525
500.5,413.9,3.949
502.5,417.6,3.945
504.5,421.2,3.9406
506.5,424.9,3.936
508.5,428.5,3.9306
510.5,432.1,3.9293
512.5,435.8,3.9266
514.5,439.4,3.9243
516.5,443,3.9219
518.5,446.7,3.9201
520.5,450.3,3.9179
522.5,453.9,3.9166
524.5,457.6,3.9153
526.5,461.2,3.9153
528.5,464.8,3.9149
530.5,468.4,3.914
532.5,472.1,3.914
534.5,475.7,3.9143
536.5,479.3,3.914
538.5,483,3.9112
540.5,486.6,3.9098
542.5,490.2,3.9085
544.5,493.8,3.9071
546.5,497.5,3.9057
548.5,501.1,3.9031
550.5,504.7,3.9002
552.5,508.3,3.8989
554.5,512,3.8977
556.5,515.6,3.8957
558.5,519.3,3.8939
560.5,522.9,3.8905
562.5,526.5,3.8879
564.5,530.1,3.8838
566.5,533.8,3.8789
568.5,537.4,3.8744
570.5,541,3.869
572.5,544.7,3.8669
574.5,548.3,3.8607
576.5,551.9,3.8555
578.5,555.6,3.8489
580.5,559.2,3.8425
582.5,562.9,3.8357
584.5,566.5,3.828
586.5,570.2,3.8191
588.5,573.8,3.8116
590.5,577.5,3.8027
592.5,581.1,3.7933
594.5,584.8,3.7832
596.5,588.5,3.7736
598.5,592.1,3.7634
600.5,595.8,3.7505
602.5,599.4,3.7386
604.5,603.1,3.7241
606.5,606.8,3.7056
608.5,610.4,3.6908
610.5,614.1,3.671
612.5,617.8,3.6502
614.5,621.5,3.6251
616.5,625.1,3.5976
618.5,628.8,3.565
620.5,632.5,3.5281
622.5,636.2,3.4881
624.5,639.9,3.4434
626.5,643.6,3.3948
628.5,647.4,3.3404
630.5,651.1,3.28
632.5,654.8,3.2097
634.5,658.5,3.137
636.5,662.3,3.0535
638.5,666.1,2.9657
640.5,669.8,2.8706
642.5,673.6,2.7628
644.5,677.4,2.6552
646.5,681.1,2.5334
648.5,684.9,2.4137
650.5,688.7,2.282
652.5,692.5,2.1498
654.5,696.2,2.0153
656.5,700,1.8732
658.5,703.8,1.739
660.5,707.5,1.5953
662.5,711.3,1.4634
664.5,715.1,1.3252
666.5,718.8,1.1946
668.5,722.5,1.0664
670.5,726.3,0.9389
672.5,730,0.8222
674.5,733.7,0.7073
676.5,737.4,0.6078
678.5,741.1,0.5075
680.5,744.8,0.4272
682.5,748.5,0.3504
684.5,752.1,0.2894
686.5,755.8,0.2317
688.5,759.5,0.185
690.5,763.1,0.1439
692.5,766.8,0.1084
694.5,770.5,0.0797
696.5,774.2,0.0555
698.5,777.8,0.0383
700.5,781.5,0.0211
702.5,785.2,0.0085
704.5,788.9,-0.0019
706.5,792.6,-0.0094
708.5,796.4,-0.017
710.5,800.1,-0.0223
712.5,803.8,-0.0257
714.5,807.6,-0.029
716.5,811.3,-0.0322
718.5,815,-0.0352
720.5,818.8,-0.0376
722.5,822.6,-0.0383
724.5,826.3,-0.0396
726.5,830.1,-0.039
728.5,833.8,-0.0396
730.5,837.6,-0.0396
732.5,841.4,-0.0396
734.5,845.2,-0.0406
736.5,849,-0.0422
738.5,852.8,-0.0435
740.5,856.6,-0.0435
742.5,860.4,-0.0435
744.5,864.2,-0.0422
746.5,868,-0.0422
748.5,871.8,-0.0435
750.5,875.7,-0.0435
752.5,879.5,-0.0435
754.5,883.3,-0.0436
756.5,887.1,-0.0455
758.5,891,-0.0455
760.5,894.8,-0.0455
762.5,898.6,-0.0455
764.5,902.4,-0.0455
766.5,906.3,-0.0468
768.5,910.1,-0.0455
770.5,914,-0.0442
772.5,917.8,-0.0442
774.5,921.6,-0.0439
776.5,925.5,-0.0425
778.5,929.3,-0.0412
780.5,933.2,-0.0409
782.5,937,-0.0409
784.5,940.9,-0.0422
786.5,944.7,-0.0422
788.5,948.6,-0.0422
790.5,952.5,-0.0435
792.5,956.3,-0.0444
794.5,960.2,-0.0445
796.5,964.1,-0.0445
798.5,967.9,-0.0448
800.5,971.8,-0.0449
802.5,975.6,-0.0457
804.5,979.5,-0.0448
806.5,983.4,-0.0435
808.5,987.3,-0.0449
810.5,991.1,-0.0461
812.5,995,-0.0462
814.5,999,-0.0448