File: PMMA/Calibration_Data/FSRI/FSRI_STA_N2_20K_2.csv
Temp,time,TGA,DSC,Sensitivity,Heating Rate,Heat Capacity
[K],[s],[mg],[uV/mg],[mW/uV],[K/s],[J/g/K]
321.9,0.0,3.9505,9.63E-04,2.36,0.005,0.46
324.1,52.6,3.9486,0.12539,1.50,0.124,1.52
326.3,67.2,3.9491,0.2088,1.29,0.177,1.52
328.5,78.3,3.9487,0.27252,1.20,0.215,1.52
330.7,88.0,3.9474,0.32388,1.11,0.240,1.50
332.9,96.8,3.9483,0.36443,1.06,0.260,1.48
335.1,105.0,3.9474,0.3962,1.04,0.274,1.50
337.3,112.9,3.9479,0.42264,1.01,0.284,1.50
339.5,120.5,3.9489,0.44604,0.99,0.292,1.51
341.7,128.0,3.9482,0.46941,0.97,0.300,1.52
343.9,135.3,3.9476,0.48744,0.96,0.305,1.53
346.1,142.5,3.9474,0.50198,0.95,0.305,1.56
348.3,149.6,3.9479,0.51806,0.93,0.310,1.56
350.5,156.7,3.9472,0.53225,0.93,0.313,1.59
352.7,163.7,3.9473,0.54295,0.93,0.314,1.61
354.9,170.7,3.9487,0.55303,0.92,0.315,1.62
357.1,177.7,3.9473,0.55466,0.92,0.320,1.60
359.3,184.6,3.9462,0.55241,0.92,0.316,1.60
361.5,191.5,3.9473,0.55213,0.92,0.324,1.56
363.7,198.3,3.9459,0.54732,0.91,0.322,1.55
365.9,205.1,3.9473,0.5499,0.92,0.326,1.55
368.1,211.8,3.9473,0.55162,0.91,0.327,1.54
370.3,218.5,3.9472,0.55661,0.91,0.327,1.54
372.5,225.2,3.9473,0.56566,0.91,0.331,1.56
374.7,231.9,3.9467,0.57435,0.90,0.330,1.57
376.9,238.5,3.9473,0.58035,0.91,0.331,1.59
379.1,245.2,3.9473,0.59052,0.91,0.333,1.60
381.3,251.8,3.9472,0.59904,0.89,0.334,1.60
383.5,258.4,3.9450,0.60824,0.90,0.334,1.64
385.7,264.9,3.9460,0.62049,0.89,0.334,1.66
387.9,271.5,3.9459,0.62981,0.89,0.336,1.67
390.1,278.0,3.9456,0.64413,0.89,0.339,1.69
392.3,284.5,3.9463,0.65934,0.89,0.338,1.73
394.5,291.0,3.9450,0.67715,0.89,0.343,1.76
396.7,297.5,3.9459,0.69834,0.89,0.336,1.86
398.9,303.9,3.9460,0.71766,0.89,0.340,1.88
401.1,310.4,3.9460,0.73463,0.89,0.343,1.92
403.3,316.8,3.9433,0.74679,0.89,0.341,1.94
405.5,323.2,3.9446,0.75806,0.89,0.346,1.96
407.7,329.6,3.9447,0.76596,0.89,0.341,1.99
409.9,336.0,3.9433,0.77415,0.89,0.346,2.00
412.1,342.3,3.9444,0.7794,0.89,0.349,2.00
414.3,348.7,3.9433,0.78426,0.89,0.346,2.01
416.5,355.0,3.9407,0.79117,0.89,0.351,2.01
418.7,361.3,3.9396,0.79847,0.89,0.350,2.04
420.9,367.6,3.9404,0.80245,0.89,0.350,2.04
423.1,373.8,3.9407,0.80974,0.89,0.352,2.04
425.3,380.1,3.9381,0.8179,0.89,0.349,2.08
427.5,386.4,3.9381,0.82288,0.89,0.352,2.08
429.7,392.6,3.9373,0.82872,0.89,0.352,2.10
431.9,398.9,3.9368,0.83423,0.88,0.355,2.08
434.1,405.1,3.9341,0.84314,0.88,0.344,2.16
436.3,411.4,3.9351,0.85215,0.89,0.355,2.13
438.5,417.6,3.9338,0.86242,0.88,0.351,2.16
440.7,423.9,3.9325,0.87532,0.88,0.352,2.20
442.9,430.1,3.9298,0.88739,0.89,0.355,2.22
445.1,436.3,3.9285,0.90121,0.88,0.353,2.24
447.3,442.5,3.9261,0.91809,0.88,0.356,2.28
449.5,448.7,3.9232,0.93565,0.88,0.352,2.35
451.7,455.0,3.9207,0.94969,0.89,0.355,2.37
453.9,461.2,3.9194,0.9665,0.89,0.355,2.42
456.1,467.3,3.9152,0.98207,0.89,0.356,2.45
458.3,473.5,3.9127,0.99288,0.88,0.357,2.45
460.5,479.7,3.9077,1.00554,0.89,0.357,2.50
462.7,485.9,3.9044,1.01128,0.89,0.355,2.53
464.9,492.0,3.9000,1.0158,0.89,0.357,2.53
467.1,498.2,3.8935,1.01688,0.89,0.356,2.53
469.3,504.4,3.8906,1.01672,0.89,0.357,2.53
471.5,510.5,3.8846,1.01408,0.89,0.357,2.54
473.7,516.7,3.8804,1.00672,0.89,0.359,2.50
475.9,522.8,3.8783,0.99956,0.89,0.358,2.48
478.1,529.0,3.8729,0.99011,0.89,0.358,2.46
480.3,535.2,3.8678,0.98956,0.89,0.357,2.47
482.5,541.3,3.8640,0.9859,0.89,0.358,2.47
484.7,547.5,3.8595,0.98671,0.89,0.355,2.47
486.9,553.6,3.8570,0.98923,0.89,0.359,2.46
489.1,559.7,3.8526,0.99455,0.89,0.358,2.48
491.3,565.9,3.8483,1.00072,0.90,0.357,2.51
493.5,572.0,3.8457,1.00548,0.90,0.358,2.52
495.7,578.2,3.8396,1.0056,0.89,0.358,2.50
497.9,584.3,3.8366,1.00135,0.90,0.358,2.51
500.1,590.5,3.8330,0.99496,0.89,0.357,2.48
502.3,596.6,3.8298,0.98348,0.90,0.358,2.46
504.5,602.8,3.8272,0.96673,0.90,0.358,2.42
506.7,608.9,3.8239,0.95237,0.90,0.359,2.38
508.9,615.1,3.8224,0.94168,0.90,0.358,2.36
511.1,621.2,3.8219,0.93113,0.90,0.359,2.33
513.3,627.3,3.8220,0.92319,0.90,0.355,2.34
515.5,633.5,3.8204,0.92076,0.90,0.358,2.32
517.7,639.6,3.8183,0.91737,0.91,0.359,2.32
519.9,645.8,3.8183,0.91581,0.91,0.359,2.31
522.1,651.9,3.8170,0.91549,0.90,0.359,2.30
524.3,658.1,3.8156,0.91768,0.91,0.358,2.34
526.5,664.2,3.8156,0.92034,0.90,0.358,2.32
528.7,670.3,3.8153,0.92151,0.91,0.358,2.33
530.9,676.4,3.8140,0.92796,0.91,0.358,2.35
533.1,682.6,3.8114,0.9319,0.91,0.359,2.36
535.3,688.7,3.8114,0.93249,0.91,0.359,2.37
537.5,694.9,3.8101,0.93789,0.92,0.358,2.40
539.7,701.0,3.8087,0.94466,0.92,0.357,2.43
541.9,707.2,3.8061,0.95096,0.92,0.358,2.43
544.1,713.3,3.8048,0.95795,0.92,0.358,2.46
546.3,719.4,3.8033,0.96535,0.92,0.359,2.47
548.5,725.6,3.8020,0.97292,0.92,0.357,2.50
550.7,731.8,3.7994,0.98188,0.92,0.358,2.53
552.9,737.9,3.7981,0.992,0.92,0.358,2.54
555.1,744.1,3.7954,1.00163,0.92,0.357,2.58
557.3,750.2,3.7913,1.01187,0.92,0.357,2.61
559.5,756.4,3.7863,1.0241,0.93,0.357,2.66
561.7,762.5,3.7821,1.03852,0.93,0.356,2.71
563.9,768.7,3.7786,1.05384,0.93,0.358,2.73
566.1,774.9,3.7726,1.07187,0.93,0.359,2.77
568.3,781.0,3.7669,1.09477,0.94,0.357,2.87
570.5,787.2,3.7606,1.12084,0.93,0.356,2.93
572.7,793.3,3.7549,1.14037,0.93,0.358,2.98
574.9,799.6,3.7470,1.15483,0.93,0.352,3.05
577.1,805.7,3.7405,1.16758,0.94,0.358,3.07
579.3,811.9,3.7318,1.17605,0.94,0.356,3.10
581.5,818.1,3.7239,1.18657,0.95,0.358,3.14
583.7,824.3,3.7137,1.19805,0.94,0.355,3.17
585.9,830.5,3.7057,1.21131,0.94,0.357,3.19
588.1,836.6,3.6958,1.22663,0.94,0.361,3.20
590.3,842.8,3.6853,1.24587,0.95,0.350,3.39
592.5,849.0,3.6732,1.27203,0.95,0.358,3.37
594.7,855.2,3.6608,1.2993,0.95,0.355,3.47
596.9,861.4,3.6474,1.3391,0.95,0.354,3.60
599.1,867.6,3.6306,1.3868,0.96,0.353,3.75
601.3,873.8,3.6143,1.44172,0.96,0.355,3.89
603.5,880.0,3.5934,1.51122,0.96,0.353,4.09
605.7,886.2,3.5710,1.59356,0.96,0.357,4.29
607.9,892.4,3.5446,1.69756,0.96,0.356,4.58
610.1,898.6,3.5150,1.82395,0.96,0.353,4.96
612.3,904.9,3.4792,1.96255,0.97,0.353,5.39
614.5,911.1,3.4394,2.12052,0.96,0.350,5.82
616.7,917.4,3.3948,2.29705,0.97,0.348,6.39
618.9,923.7,3.3422,2.49443,0.97,0.352,6.90
621.1,930.0,3.2852,2.70482,0.97,0.350,7.49
623.3,936.2,3.2173,2.93959,0.97,0.349,8.16
625.5,942.5,3.1434,3.18687,0.97,0.351,8.84
627.7,948.8,3.0601,3.44598,0.98,0.348,9.71
629.9,955.1,2.9656,3.70638,0.98,0.350,10.43
632.1,961.5,2.8653,3.97315,0.98,0.347,11.22
634.3,967.8,2.7529,4.23043,0.98,0.348,11.94
636.5,974.1,2.6301,4.47779,0.99,0.347,12.82
638.7,980.5,2.5028,4.6981,0.99,0.347,13.41
640.9,986.8,2.3645,4.88189,0.99,0.347,13.92
643.1,993.2,2.2217,5.0271,1.00,0.347,14.41
645.3,999.5,2.0735,5.11526,1.00,0.346,14.80
647.5,1005.9,1.9196,5.17233,0.99,0.349,14.72
649.7,1012.2,1.7702,5.19177,1.00,0.347,14.91
651.9,1018.5,1.6162,5.16062,1.00,0.347,14.82
654.1,1024.8,1.4620,5.05609,1.00,0.350,14.47
656.3,1031.1,1.3161,4.88755,1.00,0.350,14.03
658.5,1037.4,1.1714,4.6596,1.01,0.350,13.43
660.7,1043.6,1.0334,4.37991,1.01,0.351,12.56
662.9,1049.9,0.9074,4.0657,1.01,0.353,11.62
665.1,1056.1,0.7855,3.73298,1.01,0.349,10.84
667.3,1062.3,0.6797,3.39284,1.01,0.355,9.66
669.5,1068.5,0.5813,3.04257,1.02,0.355,8.70
671.7,1074.7,0.4959,2.68492,1.01,0.355,7.68
673.9,1080.9,0.4189,2.34971,1.02,0.353,6.80
676.1,1087.1,0.3501,2.03287,1.02,0.355,5.86
678.3,1093.3,0.2943,1.74515,1.02,0.356,5.01
680.5,1099.5,0.2425,1.48134,1.04,0.355,4.34
682.7,1105.7,0.2021,1.2428,1.02,0.354,3.59
684.9,1111.9,0.1691,1.02811,1.03,0.355,2.98
687.1,1118.1,0.1397,0.84705,1.04,0.352,2.49
689.3,1124.4,0.1178,0.68823,1.03,0.353,2.02
691.5,1130.7,0.0983,0.55942,1.04,0.352,1.66
693.7,1136.9,0.0842,0.45191,1.04,0.352,1.34
695.9,1143.2,0.0729,0.36773,1.05,0.350,1.10
698.1,1149.4,0.0635,0.29643,1.05,0.350,0.89
700.3,1155.7,0.0571,0.24508,1.05,0.351,0.73
702.5,1162.0,0.0518,0.20201,1.05,0.347,0.61
704.7,1168.3,0.0474,0.16994,1.05,0.349,0.51
706.9,1174.6,0.0433,0.14189,1.05,0.348,0.43
709.1,1181.0,0.0413,0.12391,1.06,0.348,0.38
711.3,1187.3,0.0385,0.10874,1.06,0.346,0.33
713.5,1193.6,0.0369,9.89E-02,1.06,0.347,0.30
715.7,1200.0,0.0355,9.36E-02,1.07,0.350,0.29
717.9,1206.3,0.0340,9.63E-02,1.07,0.347,0.30
720.1,1212.7,0.0339,9.34E-02,1.07,0.347,0.29
722.3,1219.0,0.0339,7.71E-02,1.07,0.346,0.24
724.5,1225.4,0.0335,4.71E-02,1.07,0.345,0.15
726.7,1231.8,0.0352,2.67E-02,1.08,0.345,0.08
728.9,1238.1,0.0336,3.24E-02,1.07,0.346,0.10
731.1,1244.5,0.0326,5.90E-02,1.08,0.344,0.19
733.3,1250.9,0.0332,9.21E-02,1.08,0.345,0.29
735.5,1257.3,0.0332,0.11696,1.08,0.344,0.37
737.7,1263.7,0.0332,0.13569,1.08,0.344,0.43
739.9,1270.1,0.0332,0.14573,1.10,0.345,0.46
742.1,1276.5,0.0319,0.15173,1.09,0.343,0.48
744.3,1282.9,0.0319,0.15179,1.10,0.344,0.48
746.5,1289.3,0.0332,0.15672,1.10,0.342,0.50
748.7,1295.7,0.0339,0.1552,1.10,0.341,0.50
750.9,1302.1,0.0337,0.15389,1.10,0.342,0.50
753.1,1308.6,0.0313,0.15412,1.11,0.343,0.50
755.3,1315.0,0.0339,0.15438,1.11,0.341,0.50
757.5,1321.4,0.0335,0.15498,1.11,0.344,0.50
759.7,1327.9,0.0316,0.15524,1.12,0.340,0.51
761.9,1334.3,0.0329,0.15413,1.13,0.340,0.51
764.1,1340.8,0.0322,0.15847,1.11,0.342,0.52
766.3,1347.2,0.0323,0.155,1.12,0.342,0.51
768.5,1353.7,0.0309,0.15841,1.12,0.340,0.52
770.7,1360.1,0.0322,0.15818,1.13,0.342,0.52
772.9,1366.6,0.0326,0.16075,1.13,0.341,0.53
775.1,1373.0,0.0319,0.16191,1.13,0.342,0.54
777.3,1379.5,0.0319,0.16338,1.14,0.342,0.54
779.5,1385.9,0.0319,0.16381,1.13,0.339,0.55
781.7,1392.4,0.0315,0.16359,1.14,0.341,0.55
783.9,1398.8,0.0313,0.16476,1.14,0.341,0.55
786.1,1405.3,0.0313,0.16283,1.15,0.339,0.55
788.3,1411.8,0.0322,0.16624,1.15,0.340,0.56
790.5,1418.2,0.0322,0.16523,1.15,0.341,0.56
792.7,1424.7,0.0322,0.16929,1.16,0.338,0.58
794.9,1431.1,0.0322,0.16911,1.15,0.342,0.57
797.1,1437.6,0.0322,0.17224,1.16,0.339,0.59
799.3,1444.1,0.0322,0.17376,1.16,0.338,0.60
801.5,1450.6,0.0322,0.17636,1.17,0.341,0.61
803.7,1457.1,0.0323,0.17705,1.17,0.339,0.61
805.9,1463.5,0.0313,0.17943,1.17,0.342,0.62
808.1,1470.0,0.0326,0.17822,1.17,0.337,0.62
810.3,1476.5,0.0326,0.18099,1.18,0.340,0.63
812.5,1482.9,0.0336,0.18074,1.18,0.339,0.63
814.7,1489.4,0.0334,0.18531,1.19,0.339,0.65
816.9,1495.9,0.0322,0.18766,1.18,0.339,0.65
817.6,1498.0,0.0322,0.18583,1.18,0.342,0.64