File: PMMA/Calibration_Data/FSRI/FSRI_TGA_N2_20K_1.csv
Temp,time,TGA
[K],[s],[mg]
322.5,31.2,3.9576
324.5,54.4,3.9581
326.5,67.3,3.9561
328.5,77.5,3.957
330.5,86.4,3.9569
332.5,94.5,3.9567
334.5,102.1,3.9573
336.5,109.4,3.9566
338.5,116.4,3.9578
340.5,123.2,3.9576
342.5,129.9,3.9568
344.5,136.5,3.9558
346.5,143,3.9568
348.5,149.5,3.9564
350.5,155.9,3.9566
352.5,162.3,3.9567
354.5,168.6,3.9567
356.5,174.9,3.9555
358.5,181.2,3.957
360.5,187.4,3.957
362.5,193.7,3.9549
364.5,199.8,3.9543
366.5,206,3.9549
368.5,212.1,3.9546
370.5,218.2,3.9543
372.5,224.3,3.9544
374.5,230.4,3.953
376.5,236.4,3.953
378.5,242.4,3.953
380.5,248.5,3.9544
382.5,254.4,3.953
384.5,260.4,3.953
386.5,266.4,3.9517
388.5,272.4,3.9517
390.5,278.3,3.9528
392.5,284.3,3.9517
394.5,290.2,3.9517
396.5,296.1,3.9519
398.5,302,3.951
400.5,307.8,3.9511
402.5,313.7,3.9511
404.5,319.5,3.9505
406.5,325.4,3.9503
408.5,331.2,3.9504
410.5,337,3.9491
412.5,342.7,3.9491
414.5,348.5,3.9491
416.5,354.2,3.9491
418.5,360,3.9465
420.5,365.8,3.9461
422.5,371.5,3.9461
424.5,377.2,3.9461
426.5,382.9,3.946
428.5,388.6,3.9446
430.5,394.3,3.9442
432.5,400,3.9425
434.5,405.7,3.9402
436.5,411.4,3.9402
438.5,417.1,3.9375
440.5,422.7,3.9376
442.5,428.4,3.9349
444.5,434.1,3.9336
446.5,439.8,3.9336
448.5,445.5,3.9311
450.5,451.2,3.9283
452.5,456.8,3.9271
454.5,462.5,3.923
456.5,468.1,3.9203
458.5,473.8,3.917
460.5,479.4,3.912
462.5,485.1,3.9073
464.5,490.7,3.9026
466.5,496.3,3.8991
468.5,501.9,3.8947
470.5,507.5,3.8915
472.5,513.1,3.8866
474.5,518.7,3.8822
476.5,524.3,3.8778
478.5,529.9,3.8736
480.5,535.5,3.8709
482.5,541.1,3.8663
484.5,546.7,3.8633
486.5,552.3,3.8608
488.5,557.9,3.8579
490.5,563.4,3.8522
492.5,569,3.848
494.5,574.6,3.8439
496.5,580.2,3.8411
498.5,585.8,3.8373
500.5,591.4,3.8348
502.5,597,3.8322
504.5,602.6,3.8288
506.5,608.1,3.8275
508.5,613.7,3.8256
510.5,619.3,3.8245
512.5,624.9,3.8236
514.5,630.4,3.823
516.5,636,3.8216
518.5,641.6,3.8197
520.5,647.2,3.8206
522.5,652.7,3.8194
524.5,658.3,3.818
526.5,663.9,3.818
528.5,669.5,3.8181
530.5,675.1,3.8154
532.5,680.6,3.8141
534.5,686.2,3.8127
536.5,691.8,3.8127
538.5,697.4,3.8101
540.5,703,3.8101
542.5,708.5,3.8075
544.5,714.1,3.8062
546.5,719.7,3.8048
548.5,725.3,3.8035
550.5,730.9,3.7996
552.5,736.5,3.7971
554.5,742.1,3.7944
556.5,747.7,3.7917
558.5,753.3,3.7876
560.5,758.9,3.7831
562.5,764.5,3.7804
564.5,770.1,3.7753
566.5,775.7,3.7699
568.5,781.3,3.7633
570.5,786.9,3.76
572.5,792.5,3.7538
574.5,798.1,3.7465
576.5,803.7,3.7388
578.5,809.3,3.731
580.5,814.9,3.7226
582.5,820.6,3.714
584.5,826.2,3.7053
586.5,831.8,3.6969
588.5,837.4,3.6865
590.5,843.1,3.6764
592.5,848.7,3.6624
594.5,854.3,3.6488
596.5,859.9,3.639
598.5,865.6,3.6259
600.5,871.2,3.6078
602.5,876.9,3.5909
604.5,882.5,3.5703
606.5,888.2,3.5473
608.5,893.8,3.5204
610.5,899.5,3.4916
612.5,905.1,3.4587
614.5,910.8,3.4229
616.5,916.5,3.3794
618.5,922.2,3.3338
620.5,927.9,3.2842
622.5,933.6,3.2228
624.5,939.3,3.159
626.5,945,3.0846
628.5,950.8,3.0062
630.5,956.5,2.9196
632.5,962.2,2.8258
634.5,968,2.7253
636.5,973.8,2.6111
638.5,979.6,2.497
640.5,985.3,2.3721
642.5,991.1,2.243
644.5,996.9,2.1096
646.5,1002.6,1.9686
648.5,1008.4,1.835
650.5,1014.1,1.6945
652.5,1019.9,1.5548
654.5,1025.6,1.4178
656.5,1031.4,1.2764
658.5,1037.1,1.1485
660.5,1042.8,1.0209
662.5,1048.5,0.8994
664.5,1054.2,0.7895
666.5,1059.8,0.6852
668.5,1065.5,0.5909
670.5,1071.1,0.507
672.5,1076.8,0.4299
674.5,1082.4,0.3627
676.5,1088,0.3057
678.5,1093.7,0.2509
680.5,1099.3,0.2058
682.5,1105,0.1681
684.5,1110.6,0.1354
686.5,1116.2,0.1082
688.5,1121.9,0.0861
690.5,1127.5,0.067
692.5,1133.2,0.0514
694.5,1138.9,0.0398
696.5,1144.6,0.0305
698.5,1150.3,0.0215
700.5,1156.1,0.0154
702.5,1161.8,0.0108
704.5,1167.5,0.0073
706.5,1173.3,0.0031
708.5,1179,0.0018
710.5,1184.8,0.0004
712.5,1190.5,-0.001
714.5,1196.3,-0.0023
716.5,1202,-0.0035
718.5,1207.8,-0.0049
720.5,1213.6,-0.0055
722.5,1219.4,-0.0042
724.5,1225.2,-0.0055
726.5,1231,-0.0068
728.5,1236.8,-0.0079
730.5,1242.6,-0.0058
732.5,1248.4,-0.0051
734.5,1254.2,-0.0071
736.5,1260,-0.0071
738.5,1265.9,-0.0071
740.5,1271.7,-0.0082
742.5,1277.5,-0.0077
744.5,1283.3,-0.0077
746.5,1289.2,-0.0077
748.5,1295,-0.009
750.5,1300.8,-0.0097
752.5,1306.6,-0.0084
754.5,1312.5,-0.0097
756.5,1318.3,-0.0097
758.5,1324.2,-0.0097
760.5,1330,-0.0073
762.5,1335.9,-0.0089
764.5,1341.7,-0.0085
766.5,1347.6,-0.0082
768.5,1353.4,-0.0082
770.5,1359.3,-0.0082
772.5,1365.2,-0.0082
774.5,1371,-0.0082
776.5,1376.9,-0.0098
778.5,1382.8,-0.007
780.5,1388.6,-0.0083
782.5,1394.5,-0.0076
784.5,1400.4,-0.0086
786.5,1406.3,-0.0083
788.5,1412.1,-0.0083
790.5,1418,-0.0081
792.5,1423.9,-0.0089
794.5,1429.8,-0.0089
796.5,1435.6,-0.0089
798.5,1441.5,-0.008
800.5,1447.4,-0.0083
802.5,1453.3,-0.0083
804.5,1459.2,-0.0083
806.5,1465.1,-0.0089
808.5,1471,-0.0089
810.5,1476.9,-0.0089
812.5,1482.8,-0.0089
814.5,1488.7,-0.0093
816.5,1494.6,-0.008
817.5,1497.5,-0.0083