File: PMMA/Calibration_Data/FSRI/FSRI_DSC_N2_30K_2.csv
Temp,time,Heat Flow Rate
[K],[s],[mW/mg]
322.5,27.7,1.68E-02
324.5,47.3,0.11872
326.5,57.8,0.20154
328.5,65.9,0.26828
330.5,72.8,0.32657
332.5,79,0.3761
334.5,84.7,0.42014
336.5,90.1,0.45951
338.5,95.2,0.49528
340.5,100.2,0.52636
342.5,105,0.55737
344.5,109.7,0.58327
346.5,114.3,0.60689
348.5,118.8,0.63155
350.5,123.2,0.65332
352.5,127.6,0.67568
354.5,131.9,0.69728
356.5,136.2,0.71305
358.5,140.5,0.72755
360.5,144.7,0.73197
362.5,148.8,0.73385
364.5,153,0.73424
366.5,157.1,0.73437
368.5,161.2,0.73683
370.5,165.3,0.74118
372.5,169.4,0.74853
374.5,173.5,0.75384
376.5,177.5,0.76291
378.5,181.6,0.77369
380.5,185.6,0.78148
382.5,189.7,0.79123
384.5,193.7,0.80442
386.5,197.7,0.81278
388.5,201.8,0.82687
390.5,205.8,0.8428
392.5,209.8,0.85904
394.5,213.8,0.8766
396.5,217.8,0.90101
398.5,221.7,0.92235
400.5,225.7,0.94157
402.5,229.7,0.96234
404.5,233.6,0.98281
406.5,237.6,0.99992
408.5,241.5,1.01419
410.5,245.4,1.02869
412.5,249.3,1.04215
414.5,253.2,1.04967
416.5,257,1.05979
418.5,260.9,1.07137
420.5,264.8,1.07816
422.5,268.6,1.08777
424.5,272.4,1.09738
426.5,276.3,1.10373
428.5,280.1,1.1168
430.5,283.9,1.12256
432.5,287.8,1.13396
434.5,291.6,1.1427
436.5,295.4,1.15332
438.5,299.2,1.1644
440.5,303,1.17756
442.5,306.7,1.19165
444.5,310.5,1.20556
446.5,314.3,1.22202
448.5,318.1,1.24319
450.5,321.8,1.26468
452.5,325.6,1.28173
454.5,329.3,1.30403
456.5,333,1.32459
458.5,336.8,1.34986
460.5,340.5,1.37203
462.5,344.2,1.39359
464.5,347.9,1.4111
466.5,351.6,1.42735
468.5,355.3,1.44026
470.5,359,1.45202
472.5,362.7,1.45688
474.5,366.3,1.46134
476.5,370,1.46172
478.5,373.7,1.45805
480.5,377.4,1.45274
482.5,381,1.44792
484.5,384.7,1.44291
486.5,388.4,1.43829
488.5,392,1.43673
490.5,395.7,1.44238
492.5,399.3,1.448
494.5,403,1.45546
496.5,406.6,1.46589
498.5,410.3,1.47494
500.5,413.9,1.48314
502.5,417.6,1.48992
504.5,421.2,1.49692
506.5,424.9,1.49453
508.5,428.5,1.48672
510.5,432.1,1.47574
512.5,435.8,1.45644
514.5,439.4,1.43923
516.5,443,1.41754
518.5,446.7,1.40286
520.5,450.3,1.38699
522.5,453.9,1.37678
524.5,457.6,1.36914
526.5,461.2,1.36368
528.5,464.8,1.36011
530.5,468.4,1.35807
532.5,472.1,1.35969
534.5,475.7,1.36262
536.5,479.3,1.36507
538.5,483,1.37164
540.5,486.6,1.37574
542.5,490.2,1.38132
544.5,493.8,1.38796
546.5,497.5,1.39966
548.5,501.1,1.40667
550.5,504.7,1.41628
552.5,508.3,1.42512
554.5,512,1.4365
556.5,515.6,1.45199
558.5,519.3,1.46373
560.5,522.9,1.47815
562.5,526.5,1.4935
564.5,530.1,1.51456
566.5,533.8,1.53912
568.5,537.4,1.56788
570.5,541,1.59373
572.5,544.7,1.62316
574.5,548.3,1.65004
576.5,551.9,1.67948
578.5,555.6,1.70165
580.5,559.2,1.72573
582.5,562.9,1.74703
584.5,566.5,1.76803
586.5,570.2,1.78976
588.5,573.8,1.81137
590.5,577.5,1.83144
592.5,581.1,1.85283
594.5,584.8,1.8723
596.5,588.5,1.8996
598.5,592.1,1.93393
600.5,595.8,1.97716
602.5,599.4,2.02911
604.5,603.1,2.09095
606.5,606.8,2.1666
608.5,610.4,2.2559
610.5,614.1,2.36124
612.5,617.8,2.47702
614.5,621.5,2.61654
616.5,625.1,2.77125
618.5,628.8,2.94588
620.5,632.5,3.14587
622.5,636.2,3.36614
624.5,639.9,3.6131
626.5,643.6,3.8837
628.5,647.4,4.17379
630.5,651.1,4.48835
632.5,654.8,4.81748
634.5,658.5,5.15993
636.5,662.3,5.51765
638.5,666.1,5.88608
640.5,669.8,6.25501
642.5,673.6,6.61811
644.5,677.4,6.96187
646.5,681.1,7.25931
648.5,684.9,7.50131
650.5,688.7,7.71329
652.5,692.5,7.89774
654.5,696.2,8.03163
656.5,700,8.06832
658.5,703.8,8.04477
660.5,707.5,8.02646
662.5,711.3,7.96638
664.5,715.1,7.69729
666.5,718.8,7.56604
668.5,722.5,7.32093
670.5,726.3,7.01256
672.5,730,6.62224
674.5,733.7,6.16023
676.5,737.4,5.62795
678.5,741.1,5.072
680.5,744.8,4.50876
682.5,748.5,3.97235
684.5,752.1,3.46226
686.5,755.8,2.99011
688.5,759.5,2.54981
690.5,763.1,2.14624
692.5,766.8,1.77912
694.5,770.5,1.45644
696.5,774.2,1.1785
698.5,777.8,0.93752
700.5,781.5,0.74148
702.5,785.2,0.57344
704.5,788.9,0.43902
706.5,792.6,0.33015
708.5,796.4,0.2391
710.5,800.1,0.16856
712.5,803.8,0.10919
714.5,807.6,6.16E-02
716.5,811.3,2.38E-02
718.5,815,-2.91E-03
720.5,818.8,-2.46E-02
722.5,822.6,-4.12E-02
724.5,826.3,-5.37E-02
726.5,830.1,-6.45E-02
728.5,833.8,-5.84E-02
730.5,837.6,-4.87E-02
732.5,841.4,-5.21E-02
734.5,845.2,-6.44E-02
736.5,849,-8.26E-02
738.5,852.8,-0.10147
740.5,856.6,-0.11644
742.5,860.4,-0.125
744.5,864.2,-0.12929
746.5,868,-0.12773
748.5,871.8,-0.12606
750.5,875.7,-0.12267
752.5,879.5,-0.11673
754.5,883.3,-0.11349
756.5,887.1,-0.10678
758.5,891,-0.10192
760.5,894.8,-9.47E-02
762.5,898.6,-8.83E-02
764.5,902.4,-8.73E-02
766.5,906.3,-8.40E-02
768.5,910.1,-8.11E-02
770.5,914,-7.89E-02
772.5,917.8,-7.60E-02
774.5,921.6,-7.02E-02
776.5,925.5,-6.58E-02
778.5,929.3,-5.98E-02
780.5,933.2,-5.73E-02
782.5,937,-5.27E-02
784.5,940.9,-4.63E-02
786.5,944.7,-4.08E-02
788.5,948.6,-3.77E-02
790.5,952.5,-3.30E-02
792.5,956.3,-3.16E-02
794.5,960.2,-2.88E-02
796.5,964.1,-2.74E-02
798.5,967.9,-2.41E-02
800.5,971.8,-2.26E-02
802.5,975.6,-1.84E-02
804.5,979.5,-1.82E-02
806.5,983.4,-1.55E-02
808.5,987.3,-1.32E-02
810.5,991.1,-1.26E-02
812.5,995,-9.70E-03
814.5,999,-8.57E-03