File: PMMA/Calibration_Data/FSRI/FSRI_DSC_N2_30K_1.csv
Temp,time,Heat Flow Rate
[K],[s],[mW/mg]
322.5,27.3,2.96E-02
324.5,47,0.13396
326.5,57.6,0.21736
328.5,65.7,0.28712
330.5,72.7,0.34374
332.5,78.9,0.39749
334.5,84.7,0.44454
336.5,90.1,0.48304
338.5,95.3,0.52115
340.5,100.2,0.55737
342.5,105,0.58811
344.5,109.7,0.61693
346.5,114.3,0.64493
348.5,118.8,0.67081
350.5,123.3,0.69739
352.5,127.7,0.7215
354.5,132,0.74632
356.5,136.3,0.7656
358.5,140.6,0.78065
360.5,144.7,0.79089
362.5,148.9,0.79304
364.5,153.1,0.79555
366.5,157.2,0.7976
368.5,161.3,0.8029
370.5,165.4,0.80732
372.5,169.5,0.81625
374.5,173.6,0.82574
376.5,177.6,0.83158
378.5,181.7,0.84484
380.5,185.7,0.85488
382.5,189.8,0.86582
384.5,193.8,0.87606
386.5,197.8,0.88953
388.5,201.8,0.90572
390.5,205.8,0.92245
392.5,209.8,0.93911
394.5,213.8,0.96106
396.5,217.8,0.98223
398.5,221.8,1.00681
400.5,225.7,1.03266
402.5,229.7,1.05707
404.5,233.6,1.07629
406.5,237.5,1.09582
408.5,241.5,1.11196
410.5,245.4,1.12833
412.5,249.2,1.13662
414.5,253.1,1.15047
416.5,257,1.16222
418.5,260.9,1.17268
420.5,264.7,1.18386
422.5,268.5,1.1907
424.5,272.4,1.20269
426.5,276.2,1.21099
428.5,280,1.22068
430.5,283.8,1.23052
432.5,287.6,1.24272
434.5,291.4,1.25286
436.5,295.2,1.26552
438.5,299,1.27668
440.5,302.8,1.28996
442.5,306.5,1.30545
444.5,310.3,1.31969
446.5,314.1,1.33546
448.5,317.8,1.35492
450.5,321.6,1.37331
452.5,325.3,1.39484
454.5,329,1.41564
456.5,332.8,1.43859
458.5,336.5,1.46247
460.5,340.2,1.48545
462.5,343.9,1.50508
464.5,347.6,1.52518
466.5,351.3,1.54262
468.5,355,1.55998
470.5,358.7,1.57178
472.5,362.3,1.58082
474.5,366,1.58745
476.5,369.7,1.59021
478.5,373.4,1.58916
480.5,377,1.58796
482.5,380.7,1.58601
484.5,384.4,1.58047
486.5,388,1.58208
488.5,391.7,1.58374
490.5,395.3,1.58701
492.5,399,1.59443
494.5,402.7,1.60207
496.5,406.3,1.61185
498.5,410,1.62168
500.5,413.6,1.6318
502.5,417.3,1.64105
504.5,420.9,1.64555
506.5,424.5,1.64768
508.5,428.2,1.64212
510.5,431.8,1.63408
512.5,435.5,1.61862
514.5,439.1,1.60353
516.5,442.7,1.58331
518.5,446.4,1.56745
520.5,450,1.55534
522.5,453.6,1.54443
524.5,457.3,1.53663
526.5,460.9,1.52969
528.5,464.5,1.52776
530.5,468.2,1.5248
532.5,471.8,1.52617
534.5,475.4,1.52902
536.5,479.1,1.53417
538.5,482.7,1.53853
540.5,486.3,1.54456
542.5,489.9,1.54937
544.5,493.6,1.55677
546.5,497.2,1.56532
548.5,500.9,1.57385
550.5,504.5,1.58371
552.5,508.1,1.59519
554.5,511.8,1.60757
556.5,515.4,1.62281
558.5,519,1.63766
560.5,522.7,1.65306
562.5,526.3,1.66982
564.5,530,1.68882
566.5,533.6,1.71053
568.5,537.3,1.73472
570.5,540.9,1.76971
572.5,544.5,1.80498
574.5,548.2,1.83932
576.5,551.8,1.87079
578.5,555.4,1.90016
580.5,559.1,1.92798
582.5,562.7,1.9492
584.5,566.4,1.96979
586.5,570,1.99081
588.5,573.7,2.01539
590.5,577.3,2.03547
592.5,581,2.05991
594.5,584.6,2.08433
596.5,588.3,2.11199
598.5,592,2.14428
600.5,595.6,2.18724
602.5,599.3,2.24039
604.5,602.9,2.31092
606.5,606.6,2.39819
608.5,610.3,2.50072
610.5,613.9,2.61718
612.5,617.6,2.74931
614.5,621.3,2.90125
616.5,625,3.07127
618.5,628.7,3.26499
620.5,632.3,3.4782
622.5,636.1,3.71675
624.5,639.8,3.98029
626.5,643.5,4.26419
628.5,647.2,4.57189
630.5,650.9,4.90614
632.5,654.6,5.26186
634.5,658.4,5.63365
636.5,662.1,6.02107
638.5,665.9,6.40988
640.5,669.6,6.79931
642.5,673.4,7.18799
644.5,677.2,7.55148
646.5,680.9,7.88099
648.5,684.7,8.15803
650.5,688.5,8.37883
652.5,692.3,8.57471
654.5,696,8.70084
656.5,699.8,8.79351
658.5,703.6,8.83605
660.5,707.3,8.8034
662.5,711.1,8.67468
664.5,714.8,8.47524
666.5,718.6,8.18454
668.5,722.3,7.80531
670.5,726,7.34542
672.5,729.7,6.84122
674.5,733.4,6.31699
676.5,737.1,5.76368
678.5,740.8,5.21292
680.5,744.5,4.65038
682.5,748.1,4.11264
684.5,751.8,3.6206
686.5,755.5,3.17129
688.5,759.2,2.74394
690.5,762.8,2.34898
692.5,766.5,1.98808
694.5,770.2,1.66727
696.5,773.9,1.38907
698.5,777.5,1.14625
700.5,781.2,0.94008
702.5,784.9,0.77083
704.5,788.6,0.63329
706.5,792.4,0.5178
708.5,796.1,0.42619
710.5,799.8,0.35349
712.5,803.5,0.2933
714.5,807.3,0.25497
716.5,811,0.2335
718.5,814.7,0.22733
720.5,818.5,0.23581
722.5,822.2,0.2409
724.5,826,0.23008
726.5,829.8,0.19371
728.5,833.6,0.1366
730.5,837.4,6.13E-02
732.5,841.2,1.33E-02
734.5,845,2.48E-02
736.5,848.8,6.51E-02
738.5,852.6,0.10077
740.5,856.4,0.12984
742.5,860.2,0.1495
744.5,864,0.15683
746.5,867.8,0.16338
748.5,871.7,0.16322
750.5,875.5,0.16149
752.5,879.3,0.16732
754.5,883.1,0.16565
756.5,886.9,0.16815
758.5,890.8,0.16855
760.5,894.6,0.17011
762.5,898.4,0.17219
764.5,902.3,0.17351
766.5,906.1,0.17697
768.5,909.9,0.17832
770.5,913.7,0.18103
772.5,917.6,0.18328
774.5,921.4,0.18257
776.5,925.3,0.1869
778.5,929.1,0.19212
780.5,933,0.19412
782.5,936.8,0.19617
784.5,940.7,0.19877
786.5,944.5,0.19971
788.5,948.3,0.20171
790.5,952.2,0.20123
792.5,956.1,0.20499
794.5,959.9,0.20764
796.5,963.8,0.20792
798.5,967.7,0.21113
800.5,971.5,0.2115
802.5,975.4,0.21357
804.5,979.3,0.21627
806.5,983.1,0.21788
808.5,987,0.2199
810.5,990.9,0.22172
812.5,994.8,0.22357
814.5,998.7,0.2262