File: PMMA/Calibration_Data/FSRI/FSRI_DSC_N2_10K_1.csv
Temp,time,Heat Flow Rate
[K],[s],[mW/mg]
323,28.4,6.87E-03
325,67.3,9.24E-02
327,87.3,0.14272
329,103.7,0.17209
331,118.6,0.19437
333,132.7,0.20721
335,146.2,0.21764
337,159.7,0.22759
339,172.8,0.23382
341,185.8,0.2405
343,198.7,0.24521
345,211.5,0.25088
347,224.2,0.25645
349,236.8,0.26283
351,249.3,0.26546
353,261.7,0.27165
355,274,0.27003
357,286.3,0.26911
359,298.5,0.26949
361,310.7,0.2684
363,322.7,0.26899
365,334.7,0.2736
367,346.7,0.27778
369,358.6,0.28111
371,370.5,0.2833
373,382.4,0.28662
375,394.2,0.2908
377,406,0.29228
379,417.8,0.29956
381,429.5,0.30528
383,441.3,0.31183
385,453,0.31503
387,464.7,0.32096
389,476.4,0.32637
391,488.2,0.33535
393,499.9,0.34621
395,511.6,0.35475
397,523.2,0.36231
399,534.9,0.3721
401,546.6,0.379
403,558.2,0.38401
405,569.9,0.38862
407,581.4,0.39063
409,593.2,0.39
411,604.7,0.39521
413,616.4,0.39559
415,628,0.39768
417,639.6,0.40073
419,651.2,0.40128
421,662.8,0.40419
423,674.3,0.40589
425,685.9,0.41067
427,697.4,0.41285
429,708.9,0.42049
431,720.5,0.42554
433,732,0.42638
435,743.6,0.43501
437,755.1,0.43898
439,766.6,0.44548
441,778.2,0.45408
443,789.7,0.45879
445,801.2,0.46853
447,812.7,0.47385
449,824.3,0.48156
451,835.8,0.49041
453,847.3,0.49672
455,858.8,0.50124
457,870.3,0.50804
459,881.8,0.51088
461,893.3,0.51229
463,904.7,0.5119
465,916.2,0.50674
467,927.7,0.50147
469,939.2,0.49793
471,950.7,0.49658
473,962.2,0.4956
475,973.6,0.49818
477,985.1,0.50122
479,996.6,0.50291
481,1008.1,0.51128
483,1019.6,0.51144
485,1031.1,0.51326
487,1042.5,0.51504
489,1054,0.51099
491,1065.4,0.5054
493,1076.9,0.49817
495,1088.3,0.48898
497,1099.8,0.48135
499,1111.2,0.4779
501,1122.6,0.47441
503,1134,0.47
505,1145.5,0.46839
507,1156.9,0.46751
509,1168.4,0.46988
511,1179.9,0.46822
513,1191.3,0.47354
515,1202.8,0.47523
517,1214.2,0.47789
519,1225.7,0.48728
521,1237.2,0.48801
523,1248.6,0.49325
525,1260.1,0.49879
527,1271.5,0.50237
529,1282.9,0.50604
531,1294.4,0.51071
533,1305.9,0.51583
535,1317.3,0.52107
537,1328.8,0.5316
539,1340.3,0.53731
541,1351.8,0.54555
543,1363.3,0.55328
545,1374.7,0.56568
547,1386.3,0.57434
549,1397.7,0.58377
551,1409.2,0.59065
553,1420.7,0.60533
555,1432.1,0.61397
557,1443.6,0.61991
559,1455.2,0.63006
561,1466.7,0.63603
563,1478.2,0.64539
565,1489.7,0.65215
567,1501.2,0.6652
569,1512.7,0.67108
571,1524.2,0.67598
573,1535.7,0.6831
575,1547.3,0.691
577,1558.8,0.69425
579,1570.3,0.6847
581,1581.8,0.66862
583,1593.3,0.67083
585,1604.7,0.70083
587,1616.2,0.74186
589,1627.7,0.78755
591,1639.2,0.83734
593,1650.8,0.8928
595,1662.4,0.94415
597,1674,0.99889
599,1685.6,1.05921
601,1697.2,1.12735
603,1708.9,1.19767
605,1720.5,1.28458
607,1732.2,1.37406
609,1743.9,1.47805
611,1755.5,1.59239
613,1767.2,1.71648
615,1779,1.84598
617,1790.6,1.98607
619,1802.3,2.12827
621,1814.1,2.26987
623,1825.9,2.41006
625,1837.7,2.54321
627,1849.5,2.67176
629,1861.2,2.78431
631,1872.9,2.87183
633,1884.7,2.93069
635,1896.4,2.96178
637,1908.2,2.95714
639,1919.9,2.9183
641,1931.6,2.88489
643,1943.3,2.84165
645,1954.9,2.75361
647,1966.6,2.63601
649,1978.2,2.52265
651,1989.8,2.36701
653,2001.4,2.20981
655,2013,2.02351
657,2024.6,1.86634
659,2036.2,1.68558
661,2047.7,1.49791
663,2059.2,1.31313
665,2070.8,1.15663
667,2082.4,1.00273
669,2094.1,0.86644
671,2105.7,0.74415
673,2117.3,0.62995
675,2128.9,0.53195
677,2140.6,0.44576
679,2152.2,0.3728
681,2163.9,0.3096
683,2175.6,0.26103
685,2187.2,0.23459
687,2198.8,0.21786
689,2210.5,0.20882
691,2222.2,0.20061
693,2233.9,0.19571
695,2245.6,0.19336
697,2257.3,0.16593
699,2269.2,0.13674
701,2281,0.10791
703,2292.8,7.42E-02
705,2304.6,2.55E-02
707,2316.5,-2.51E-02
709,2328.4,-3.65E-02
711,2340.2,-2.66E-03
713,2352.1,2.15E-02
715,2363.9,3.13E-02
717,2375.8,3.66E-02
719,2387.6,3.78E-02
721,2399.5,4.04E-02
723,2411.3,4.12E-02
725,2423.1,4.24E-02
727,2434.9,4.38E-02
729,2446.7,4.61E-02
731,2458.6,4.92E-02
733,2470.4,4.83E-02
735,2482.2,4.86E-02
737,2494.1,4.70E-02
739,2505.9,5.25E-02
741,2517.7,5.09E-02
743,2529.5,5.21E-02
745,2541.4,5.41E-02
747,2553.2,5.43E-02
749,2565,5.72E-02
751,2576.8,5.78E-02
753,2588.7,6.26E-02
755,2600.5,6.57E-02
757,2612.3,6.50E-02
759,2624.1,6.40E-02
761,2635.9,6.82E-02
763,2647.8,7.03E-02
765,2659.7,7.15E-02
767,2671.6,7.24E-02
769,2683.5,7.10E-02
771,2695.3,7.40E-02
773,2707.2,7.51E-02
775,2719.1,7.85E-02
777,2731.1,8.10E-02
779,2743,7.96E-02
781,2754.9,8.22E-02
783,2766.8,8.44E-02
785,2778.7,8.50E-02
787,2790.7,8.75E-02
789,2802.6,9.14E-02
791,2814.5,9.33E-02
793,2826.3,9.72E-02
795,2838.2,9.72E-02
797,2850.1,0.10295
799,2862.1,0.10032
801,2873.9,0.10816
803,2885.8,0.10621
805,2897.7,0.10994
807,2909.6,0.10731
809,2921.5,0.10817
811,2933.4,0.11144
813,2945.4,0.11346
815,2957.3,0.11267
817,2969.3,0.11334
819,2981.4,0.11149
821,2993.4,0.11383
822,2999.4,0.11372