File: PMMA/Calibration_Data/FSRI/FSRI_TGA_N2_20K_2.csv
Temp,time,TGA
[K],[s],[mg]
322,20.2,3.9488
324,51.8,3.9492
326,65.4,3.9488
328,76,3.9497
330,85,3.9467
332,93.3,3.9477
334,101,3.9484
336,108.3,3.9478
338,115.3,3.9481
340,122.2,3.9493
342,129,3.9474
344,135.6,3.9476
346,142.1,3.9469
348,148.6,3.9488
350,155.1,3.9472
352,161.5,3.9473
354,167.9,3.9485
356,174.2,3.9473
358,180.5,3.9464
360,186.8,3.9472
362,193,3.9459
364,199.2,3.946
366,205.4,3.9473
368,211.5,3.9476
370,217.6,3.9473
372,223.7,3.9473
374,229.7,3.9467
376,235.8,3.9473
378,241.8,3.948
380,247.9,3.9473
382,253.9,3.9459
384,259.8,3.9446
386,265.8,3.9453
388,271.8,3.946
390,277.7,3.9456
392,283.6,3.9458
394,289.5,3.9459
396,295.4,3.946
398,301.3,3.9459
400,307.1,3.9452
402,313,3.9447
404,318.8,3.9432
406,324.7,3.9436
408,330.5,3.9438
410,336.3,3.9433
412,342,3.944
414,347.8,3.9433
416,353.6,3.9414
418,359.3,3.9407
420,365,3.9404
422,370.7,3.9406
424,376.4,3.9407
426,382.1,3.9381
428,387.8,3.9381
430,393.5,3.9367
432,399.2,3.9366
434,404.8,3.9341
436,410.5,3.9352
438,416.2,3.9337
440,421.9,3.9325
442,427.6,3.9314
444,433.2,3.9298
446,438.9,3.9271
448,444.5,3.9246
450,450.2,3.9232
452,455.8,3.92
454,461.4,3.9193
456,467.1,3.9151
458,472.7,3.9128
460,478.3,3.9086
462,483.9,3.9056
464,489.5,3.9018
466,495.1,3.8975
468,500.7,3.8924
470,506.3,3.8889
472,511.9,3.883
474,517.5,3.8805
476,523.1,3.8779
478,528.7,3.8729
480,534.3,3.8686
482,539.9,3.8651
484,545.5,3.8618
486,551.1,3.8583
488,556.7,3.8539
490,562.3,3.8507
492,567.8,3.8483
494,573.4,3.8442
496,579,3.8392
498,584.6,3.8366
500,590.2,3.8335
502,595.8,3.8301
504,601.4,3.8278
506,607,3.8252
508,612.6,3.8232
510,618.1,3.8219
512,623.7,3.8219
514,629.3,3.8206
516,634.9,3.8193
518,640.5,3.8183
520,646.1,3.8183
522,651.6,3.817
524,657.2,3.8156
526,662.8,3.8156
528,668.4,3.8156
530,673.9,3.814
532,679.5,3.8119
534,685.1,3.8114
536,690.7,3.8114
538,696.3,3.8091
540,701.9,3.8087
542,707.5,3.8061
544,713,3.8047
546,718.6,3.8044
548,724.2,3.802
550,729.8,3.8005
552,735.4,3.7981
554,741,3.7968
556,746.6,3.7931
558,752.2,3.7901
560,757.8,3.7854
562,763.4,3.7814
564,769,3.7785
566,774.6,3.773
568,780.2,3.7677
570,785.8,3.7629
572,791.4,3.7569
574,797,3.75
576,802.7,3.744
578,808.3,3.7368
580,813.9,3.7296
582,819.5,3.721
584,825.1,3.7124
586,830.7,3.7056
588,836.4,3.696
590,842,3.687
592,847.6,3.6754
594,853.2,3.6643
596,858.9,3.6529
598,864.5,3.6396
600,870.1,3.6239
602,875.8,3.6088
604,881.4,3.5894
606,887.1,3.5674
608,892.7,3.5429
610,898.3,3.5163
612,904,3.4849
614,909.7,3.4482
616,915.4,3.4102
618,921.1,3.3651
620,926.8,3.3144
622,932.5,3.2596
624,938.2,3.1937
626,944,3.1252
628,949.7,3.0484
630,955.4,2.9614
632,961.2,2.8701
634,966.9,2.7678
636,972.7,2.6608
638,978.5,2.5453
640,984.2,2.4207
642,990,2.296
644,995.8,2.1594
646,1001.5,2.0255
648,1007.3,1.8872
650,1013,1.7469
652,1018.8,1.6095
654,1024.5,1.47
656,1030.3,1.3353
658,1036,1.2042
660,1041.7,1.075
662,1047.3,0.9594
664,1053,0.8473
666,1058.7,0.7404
668,1064.3,0.6477
670,1070,0.5604
672,1075.6,0.4848
674,1081.2,0.4157
676,1086.9,0.3535
678,1092.5,0.3012
680,1098.1,0.254
682,1103.8,0.2139
684,1109.4,0.1819
686,1115,0.1553
688,1120.7,0.1306
690,1126.4,0.1103
692,1132.1,0.0945
694,1137.8,0.0829
696,1143.5,0.0727
698,1149.2,0.0642
700,1154.9,0.0581
702,1160.6,0.0533
704,1166.3,0.0486
706,1172.1,0.0458
708,1177.8,0.0418
710,1183.6,0.0419
712,1189.3,0.0382
714,1195.1,0.0356
716,1200.8,0.0355
718,1206.6,0.0339
720,1212.4,0.0339
722,1218.1,0.0339
724,1223.9,0.0326
726,1229.7,0.0352
728,1235.5,0.0339
730,1241.3,0.0327
732,1247.1,0.0326
734,1252.9,0.0332
736,1258.7,0.0332
738,1264.5,0.0332
740,1270.3,0.0332
742,1276.2,0.0319
744,1282,0.0319
746,1287.8,0.033
748,1293.7,0.0336
750,1299.5,0.0339
752,1305.4,0.0325
754,1311.2,0.0315
756,1317,0.0339
758,1322.9,0.032
760,1328.7,0.0316
762,1334.6,0.0329
764,1340.5,0.0322
766,1346.3,0.0323
768,1352.2,0.0309
770,1358.1,0.0322
772,1363.9,0.0325
774,1369.8,0.0319
776,1375.6,0.0319
778,1381.5,0.0319
780,1387.4,0.0319
782,1393.2,0.0313
784,1399.1,0.0313
786,1405,0.0313
788,1410.9,0.0315
790,1416.7,0.0322
792,1422.6,0.0322
794,1428.5,0.0322
796,1434.3,0.0322
798,1440.3,0.0322
800,1446.2,0.0322
802,1452,0.0322
804,1457.9,0.032
806,1463.8,0.0313
808,1469.7,0.0326
810,1475.6,0.0326
812,1481.5,0.0336
814,1487.4,0.0336
816,1493.3,0.0322
817.5,1497.7,0.0322