File: PMMA/Calibration_Data/FSRI/FSRI_DSC_N2_20K_2.csv
Temp,time,Heat Flow Rate
[K],[s],[mW/mg]
322,20.2,0.01312
324,51.8,0.1845
326,65.4,0.26505
328,76,0.312
330,85,0.3495
332,93.3,0.38403
334,101,0.4005
336,108.3,0.4185
338,115.3,0.4335
340,122.2,0.44545
342,129,0.46046
344,135.6,0.46512
346,142.1,0.47424
348,148.6,0.4805
350,155.1,0.4991
352,161.5,0.5024
354,167.9,0.50393
356,174.2,0.50562
358,180.5,0.50562
360,186.8,0.5104
362,193,0.4991
364,199.2,0.5005
366,205.4,0.51012
368,211.5,0.50685
370,217.6,0.507
372,223.7,0.5148
374,229.7,0.51824
376,235.8,0.52438
378,241.8,0.52788
380,247.9,0.53784
382,253.9,0.53946
384,259.8,0.54776
386,265.8,0.55776
388,271.8,0.561
390,277.7,0.5746
392,283.6,0.5915
394,289.5,0.60698
396,295.4,0.61698
398,301.3,0.63169
400,307.1,0.6417
402,313,0.66199
404,318.8,0.66392
406,324.7,0.68456
408,330.5,0.68456
410,336.3,0.68904
412,342,0.698
414,347.8,0.70035
416,353.6,0.707
418,359.3,0.7134
420,365,0.71196
422,370.7,0.71808
424,376.4,0.72365
426,382.1,0.72657
428,387.8,0.73568
430,393.5,0.7392
432,399.2,0.73777
434,404.8,0.7452
436,410.5,0.75384
438,416.2,0.75465
440,421.9,0.77088
442,427.6,0.78013
444,433.2,0.79165
446,438.9,0.80004
448,444.5,0.81
450,450.2,0.83424
452,455.8,0.84016
454,461.4,0.8591
456,467.1,0.87576
458,472.7,0.8804
460,478.3,0.89105
462,483.9,0.8975
464,489.5,0.91035
466,495.1,0.89815
468,500.7,0.9078
470,506.3,0.90678
472,511.9,0.90574
474,517.5,0.89712
476,523.1,0.88536
478,528.7,0.88314
480,534.3,0.88179
482,539.9,0.8771
484,545.5,0.8856
486,551.1,0.88784
488,556.7,0.87822
490,562.3,0.88956
492,567.8,0.89607
494,573.4,0.895
496,579,0.89391
498,584.6,0.89607
500,590.2,0.88644
502,595.8,0.88426
504,601.4,0.87108
506,607,0.8592
508,612.6,0.8616
510,618.1,0.83752
512,623.7,0.83288
514,629.3,0.82824
516,634.9,0.82698
518,640.5,0.83056
520,646.1,0.8257
522,651.6,0.828
524,657.2,0.8316
526,662.8,0.83181
528,668.4,0.83647
530,673.9,0.84365
532,679.5,0.84372
534,685.1,0.84966
536,690.7,0.8532
538,696.3,0.85442
540,701.9,0.86394
542,707.5,0.86994
544,713,0.88179
546,718.6,0.88536
548,724.2,0.89607
550,729.8,0.90216
552,735.4,0.90932
554,741,0.92006
556,746.6,0.923
558,752.2,0.93534
560,757.8,0.9612
562,763.4,0.96832
564,769,0.97818
566,774.6,0.99166
568,780.2,1.02388
570,785.8,1.0324
572,791.4,1.0579
574,797,1.07312
576,802.7,1.08224
578,808.3,1.0974
580,813.9,1.10489
582,819.5,1.12054
584,825.1,1.12852
586,830.7,1.1424
588,836.4,1.1552
590,842,1.17424
592,847.6,1.19972
594,853.2,1.22475
596,858.9,1.26024
598,864.5,1.29948
600,870.1,1.34545
602,875.8,1.39515
604,881.4,1.46848
606,887.1,1.54504
608,892.7,1.633
610,898.3,1.74522
612,904,1.86737
614,909.7,2.02176
616,915.4,2.1576
618,921.1,2.34468
620,926.8,2.53071
622,932.5,2.74208
624,938.2,2.94905
626,944,3.1668
628,949.7,3.40754
630,955.4,3.654
632,961.2,3.89681
634,966.9,4.12728
636,972.7,4.35138
638,978.5,4.57815
640,984.2,4.74349
642,990,4.92046
644,995.8,5.04735
646,1001.5,5.10587
648,1007.3,5.15388
650,1013,5.18172
652,1018.8,5.14775
654,1024.5,5.0645
656,1030.3,4.95616
658,1036,4.75605
660,1041.7,4.53252
662,1047.3,4.24473
664,1053,3.92536
666,1058.7,3.6565
668,1064.3,3.33345
670,1070,3.0246
672,1075.6,2.69535
674,1081.2,2.38596
676,1086.9,2.09805
678,1092.5,1.82984
680,1098.1,1.57975
682,1103.8,1.349
684,1109.4,1.14342
686,1115,0.9639
688,1120.7,0.805
690,1126.4,0.67041
692,1132.1,0.55264
694,1137.8,0.46332
696,1143.5,0.37908
698,1149.2,0.315
700,1154.9,0.26524
702,1160.6,0.21987
704,1166.3,0.18497
706,1172.1,0.161
708,1177.8,0.14
710,1183.6,0.12492
712,1189.3,0.11104
714,1195.1,0.10092
716,1200.8,0.09688
718,1206.6,0.1041
720,1212.4,0.10063
722,1218.1,0.08304
724,1223.9,0.05536
726,1229.7,0.03096
728,1235.5,0.02768
730,1241.3,0.05175
732,1247.1,0.07912
734,1252.9,0.1104
736,1258.7,0.13416
738,1264.5,0.14792
740,1270.3,0.15824
742,1276.2,0.1656
744,1282,0.16856
746,1287.8,0.1715
748,1293.7,0.17493
750,1299.5,0.1705
752,1305.4,0.1705
754,1311.2,0.16807
756,1317,0.17391
758,1322.9,0.17493
760,1328.7,0.17493
762,1334.6,0.17391
764,1340.5,0.17784
766,1346.3,0.17784
768,1352.2,0.17442
770,1358.1,0.17784
772,1363.9,0.18179
774,1369.8,0.18073
776,1375.6,0.18414
778,1381.5,0.18414
780,1387.4,0.1881
782,1393.2,0.1836
784,1399.1,0.18755
786,1405,0.1859
788,1410.9,0.18984
790,1416.7,0.19152
792,1422.6,0.19437
794,1428.5,0.19952
796,1434.3,0.19662
798,1440.3,0.2022
800,1446.2,0.20618
802,1452,0.2074
804,1457.9,0.2074
806,1463.8,0.2108
808,1469.7,0.2077
810,1475.6,0.2108
812,1481.5,0.21294
814,1487.4,0.2176
816,1493.3,0.2197
817.5,1497.7,0.22165