File: PMMA/Calibration_Data/FSRI/FSRI_STA_N2_30K_1.csv
Temp,time,TGA,DSC
[K],[s],[mg],[mW/mg]
322.1,0.0,4.0291,1.38E-03
323.8,42.0,4.0288,0.10031
325.5,52.8,4.0306,0.17758
327.2,60.6,4.0315,0.24282
328.9,67.2,4.0296,0.29805
330.6,73.0,4.0291,0.34752
332.3,78.3,4.0285,0.39289
334.0,83.3,4.0280,0.43383
335.7,88.0,4.0271,0.46954
337.4,92.5,4.0306,0.49953
339.1,96.8,4.0278,0.5315
340.8,101.0,4.0293,0.56013
342.5,105.0,4.0286,0.58811
344.2,109.0,4.0275,0.61166
345.9,113.0,4.0276,0.63458
347.6,116.8,4.0301,0.66087
349.3,120.6,4.0311,0.68252
351.0,124.4,4.0297,0.70287
352.7,128.1,4.0292,0.72383
354.4,131.8,4.0277,0.74508
356.1,135.4,4.0289,0.76174
357.8,139.1,4.0304,0.77554
359.5,142.7,4.0289,0.7855
361.2,146.2,4.0292,0.79107
362.9,149.8,4.0301,0.79362
364.6,153.3,4.0308,0.79545
366.3,156.8,4.0303,0.79604
368.0,160.3,4.0299,0.79981
369.7,163.8,4.0318,0.80491
371.4,167.3,4.0297,0.80943
373.1,170.7,4.0280,0.81907
374.8,174.2,4.0283,0.82717
376.5,177.6,4.0295,0.83158
378.2,181.1,4.0295,0.8428
379.9,184.5,4.0294,0.85221
381.6,187.9,4.0306,0.86017
383.3,191.4,4.0295,0.87027
385.0,194.8,4.0291,0.8825
386.7,198.2,4.0292,0.89067
388.4,201.6,4.0279,0.9049
390.1,205.0,4.0270,0.91867
391.8,208.4,4.0282,0.9337
393.5,211.8,4.0289,0.94932
395.2,215.2,4.0282,0.96642
396.9,218.6,4.0282,0.98724
398.6,222.0,4.0269,1.00791
400.3,225.3,4.0274,1.0304
402.0,228.7,4.0274,1.05001
403.7,232.0,4.0269,1.06977
405.4,235.4,4.0282,1.08465
407.1,238.7,4.0269,1.10119
408.8,242.0,4.0269,1.11274
410.5,245.4,4.0269,1.12833
412.2,248.7,4.0256,1.13587
413.9,252.0,4.0256,1.14881
415.6,255.3,4.0256,1.15591
417.3,258.5,4.0256,1.16559
419.0,261.8,4.0247,1.17671
420.7,265.1,4.0243,1.18435
422.4,268.3,4.0243,1.1919
424.1,271.6,4.0229,1.20131
425.8,274.8,4.0229,1.21085
427.5,278.1,4.0216,1.21629
429.2,281.3,4.0203,1.2239
430.9,284.6,4.0194,1.23341
432.6,287.8,4.0190,1.24312
434.3,291.0,4.0190,1.25126
436.0,294.2,4.0190,1.26248
437.7,297.5,4.0190,1.27206
439.4,300.7,4.0177,1.28338
441.1,303.9,4.0164,1.29376
442.8,307.1,4.0163,1.30685
444.5,310.3,4.0137,1.31969
446.2,313.5,4.0124,1.33504
447.9,316.7,4.0119,1.34733
449.6,319.9,4.0111,1.36537
451.3,323.1,4.0098,1.38298
453.0,326.2,4.0085,1.3995
454.7,329.4,4.0071,1.4179
456.4,332.6,4.0070,1.43693
458.1,335.7,4.0058,1.45921
459.8,338.9,4.0039,1.47551
461.5,342.0,4.0013,1.49439
463.2,345.2,3.9981,1.51314
464.9,348.3,3.9941,1.53027
466.6,351.5,3.9917,1.5435
468.3,354.6,3.9891,1.55742
470.0,357.7,3.9858,1.57068
471.7,360.9,3.9833,1.57695
473.4,364.0,3.9815,1.58352
475.1,367.1,3.9770,1.5895
476.8,370.2,3.9726,1.59022
478.5,373.4,3.9698,1.58916
480.2,376.5,3.9644,1.5879
481.9,379.6,3.9606,1.58553
483.6,382.7,3.9568,1.58521
485.3,385.8,3.9545,1.58048
487.0,388.9,3.9523,1.58008
488.7,392.1,3.9489,1.58339
490.4,395.2,3.9470,1.58654
492.1,398.3,3.9419,1.59147
493.8,401.4,3.9401,1.59917
495.5,404.5,3.9354,1.60914
497.2,407.6,3.9332,1.61421
498.9,410.7,3.9302,1.62288
500.6,413.8,3.9264,1.63257
502.3,416.9,3.9236,1.63975
504.0,420.0,3.9207,1.64529
505.7,423.1,3.9170,1.64712
507.4,426.2,3.9137,1.64399
509.1,429.3,3.9105,1.64157
510.8,432.4,3.9076,1.63221
512.5,435.5,3.9056,1.61862
514.2,438.5,3.9025,1.60469
515.9,441.6,3.9012,1.59004
517.6,444.7,3.8981,1.57386
519.3,447.8,3.8968,1.5606
521.0,450.9,3.8955,1.5496
522.7,454.0,3.8954,1.54346
524.4,457.1,3.8942,1.53696
526.1,460.2,3.8935,1.53184
527.8,463.3,3.8928,1.52891
529.5,466.3,3.8920,1.52714
531.2,469.4,3.8915,1.52776
532.9,472.5,3.8902,1.52764
534.6,475.6,3.8895,1.52926
536.3,478.7,3.8887,1.53441
538.0,481.8,3.8876,1.53677
539.7,484.9,3.8876,1.54221
541.4,487.9,3.8862,1.54705
543.1,491.0,3.8862,1.55287
544.8,494.1,3.8862,1.55938
546.5,497.2,3.8837,1.56532
548.2,500.3,3.8836,1.57453
549.9,503.4,3.8825,1.5809
551.6,506.5,3.8808,1.58954
553.3,509.6,3.8794,1.60134
555.0,512.7,3.8778,1.61236
556.7,515.8,3.8754,1.62235
558.4,518.9,3.8726,1.63715
560.1,522.0,3.8699,1.64824
561.8,525.0,3.8681,1.66364
563.5,528.1,3.8652,1.68004
565.2,531.2,3.8632,1.69738
566.9,534.3,3.8597,1.71634
568.6,537.4,3.8567,1.73617
570.3,540.5,3.8533,1.76643
572.0,543.6,3.8498,1.79755
573.7,546.7,3.8444,1.82695
575.4,549.8,3.8396,1.8554
577.1,552.9,3.8340,1.87957
578.8,556.0,3.8280,1.90463
580.5,559.1,3.8221,1.92798
582.2,562.2,3.8162,1.94565
583.9,565.3,3.8099,1.96359
585.6,568.4,3.8047,1.98371
587.3,571.5,3.7983,2.00274
589.0,574.6,3.7924,2.02221
590.7,577.7,3.7835,2.03911
592.4,580.8,3.7761,2.0584
594.1,583.9,3.7696,2.07827
595.8,587.0,3.7599,2.09893
597.5,590.1,3.7514,2.12711
599.2,593.2,3.7421,2.15684
600.9,596.3,3.7334,2.19582
602.6,599.5,3.7225,2.24369
604.3,602.6,3.7104,2.30289
606.0,605.7,3.6974,2.37542
607.7,608.8,3.6833,2.45636
609.4,611.9,3.6685,2.55162
611.1,615.0,3.6500,2.65512
612.8,618.2,3.6312,2.7699
614.5,621.3,3.6111,2.90125
616.2,624.4,3.5887,3.04431
617.9,627.5,3.5618,3.20596
619.6,630.7,3.5360,3.37832
621.3,633.8,3.5035,3.57098
623.0,637.0,3.4670,3.77857
624.7,640.1,3.4303,4.00715
626.4,643.3,3.3889,4.24974
628.1,646.4,3.3423,4.51062
629.8,649.6,3.2902,4.78971
631.5,652.8,3.2362,5.08143
633.2,656.0,3.1742,5.38838
634.9,659.1,3.1090,5.71007
636.6,662.3,3.0408,6.04107
638.3,665.5,2.9624,6.36836
640.0,668.7,2.8803,6.70466
641.7,671.9,2.7955,7.03667
643.4,675.1,2.7039,7.35333
645.1,678.3,2.6054,7.65669
646.8,681.5,2.5057,7.92629
648.5,684.7,2.3980,8.15803
650.2,687.9,2.2851,8.34294
651.9,691.1,2.1736,8.52408
653.6,694.3,2.0545,8.64191
655.3,697.5,1.9362,8.74227
657.0,700.8,1.8210,8.80958
658.7,703.9,1.6975,8.83575
660.4,707.1,1.5767,8.80739
662.1,710.3,1.4610,8.70381
663.8,713.5,1.3397,8.55514
665.5,716.7,1.2223,8.34065
667.2,719.9,1.1125,8.06228
668.9,723.0,1.0020,7.7192
670.6,726.2,0.8956,7.32032
672.3,729.4,0.8011,6.8936
674.0,732.5,0.7092,6.44612
675.7,735.6,0.6197,5.98748
677.4,738.8,0.5455,5.51385
679.1,741.9,0.4727,5.04789
680.8,745.0,0.4060,4.56968
682.5,748.1,0.3487,4.11264
684.2,751.3,0.2969,3.69125
685.9,754.4,0.2490,3.29947
687.6,757.5,0.2072,2.93046
689.3,760.6,0.1702,2.58199
691.0,763.7,0.1379,2.25428
692.7,766.9,0.1098,1.95452
694.4,770.0,0.0878,1.68222
696.1,773.1,0.0667,1.43859
697.8,776.3,0.0495,1.22383
699.5,779.4,0.0366,1.03824
701.2,782.5,0.0246,0.87773
702.9,785.7,0.0148,0.74011
704.6,788.8,0.0063,0.62715
706.3,792.0,-0.0020,0.5287
708.0,795.1,-0.0058,0.44692
709.7,798.3,-0.0111,0.38078
711.4,801.5,-0.0151,0.32386
713.1,804.7,-0.0180,0.2804
714.8,807.8,-0.0198,0.24896
716.5,811.0,-0.0211,0.2335
718.2,814.2,-0.0226,0.22576
719.9,817.3,-0.0243,0.23281
721.6,820.5,-0.0254,0.23895
723.3,823.7,-0.0268,0.24172
725.0,826.9,-0.0276,0.22336
726.7,830.1,-0.0294,0.19061
728.4,833.4,-0.0294,0.14086
730.1,836.6,-0.0307,7.66E-02
731.8,839.8,-0.0307,2.20E-02
733.5,843.1,-0.0306,1.46E-02
735.2,846.3,-0.0297,4.02E-02
736.9,849.5,-0.0310,7.21E-02
738.6,852.8,-0.0311,0.10293
740.3,856.0,-0.0310,0.12689
742.0,859.3,-0.0297,0.14479
743.7,862.5,-0.0287,0.15962
745.4,865.7,-0.0297,0.15987
747.1,869.0,-0.0311,0.16196
748.8,872.2,-0.0312,0.16376
750.5,875.5,-0.0324,0.16149
752.2,878.7,-0.0311,0.16721
753.9,882.0,-0.0311,0.16467
755.6,885.2,-0.0311,0.16558
757.3,888.5,-0.0311,0.16911
759.0,891.7,-0.0322,0.16812
760.7,895.0,-0.0324,0.17237
762.4,898.2,-0.0331,0.17174
764.1,901.5,-0.0324,0.17616
765.8,904.7,-0.0324,0.17947
767.5,908.0,-0.0324,0.17962
769.2,911.3,-0.0324,0.17843
770.9,914.5,-0.0317,0.18114
772.6,917.8,-0.0318,0.18286
774.3,921.0,-0.0311,0.18314
776.0,924.3,-0.0311,0.18695
777.7,927.6,-0.0311,0.18917
779.4,930.9,-0.0301,0.19028
781.1,934.1,-0.0311,0.19328
782.8,937.4,-0.0329,0.19574
784.5,940.7,-0.0329,0.19877
786.2,943.9,-0.0343,0.19722
787.9,947.2,-0.0330,0.19802
789.6,950.5,-0.0315,0.20073
791.3,953.7,-0.0345,0.20157
793.0,957.0,-0.0357,0.20668
794.7,960.3,-0.0344,0.20684
796.4,963.6,-0.0337,0.20785
798.1,966.9,-0.0330,0.21165
799.8,970.2,-0.0331,0.21197
801.5,973.5,-0.0328,0.21116
803.2,976.7,-0.0317,0.21532
804.9,980.0,-0.0317,0.21642
806.6,983.3,-0.0323,0.21748
808.3,986.6,-0.0322,0.22125
810.0,989.9,-0.0324,0.22121
811.7,993.2,-0.0324,0.22183
813.4,996.5,-0.0324,0.22358
814.8,999.3,-0.0311,0.2263