File: PMMA/Calibration_Data/FSRI/FSRI_DSC_N2_20K_1.csv
Temp,time,Heat Flow Rate
[K],[s],[mW/mg]
322.5,31.2,0.04848
324.5,54.4,0.18048
326.5,67.3,0.25597
328.5,77.5,0.30952
330.5,86.4,0.34128
332.5,94.5,0.3723
334.5,102.1,0.39837
336.5,109.4,0.4172
338.5,116.4,0.4321
340.5,123.2,0.44545
342.5,129.9,0.44998
344.5,136.5,0.4636
346.5,143,0.47895
348.5,149.5,0.47894
350.5,155.9,0.4898
352.5,162.3,0.49926
354.5,168.6,0.50876
356.5,174.9,0.51198
358.5,181.2,0.50402
360.5,187.4,0.50711
362.5,193.7,0.50065
364.5,199.8,0.50204
366.5,206,0.50868
368.5,212.1,0.50666
370.5,218.2,0.50358
372.5,224.3,0.5148
374.5,230.4,0.5181
376.5,236.4,0.52614
378.5,242.4,0.5296
380.5,248.5,0.53106
382.5,254.4,0.54108
384.5,260.4,0.54442
386.5,266.4,0.55268
388.5,272.4,0.56108
390.5,278.3,0.56784
392.5,284.3,0.58647
394.5,290.2,0.59664
396.5,296.1,0.612
398.5,302,0.63085
400.5,307.8,0.64108
402.5,313.7,0.65472
404.5,319.5,0.66542
406.5,325.4,0.67424
408.5,331.2,0.67374
410.5,337,0.68456
412.5,342.7,0.692
414.5,348.5,0.694
416.5,354.2,0.70296
418.5,360,0.70658
420.5,365.8,0.70953
422.5,371.5,0.714
424.5,377.2,0.71955
426.5,382.9,0.7216
428.5,388.6,0.73359
430.5,394.3,0.73216
432.5,400,0.74483
434.5,405.7,0.74483
436.5,411.4,0.75114
438.5,417.1,0.75816
440.5,422.7,0.77307
442.5,428.4,0.7788
444.5,434.1,0.79552
446.5,439.8,0.79778
448.5,445.5,0.8142
450.5,451.2,0.8307
452.5,456.8,0.83544
454.5,462.5,0.85536
456.5,468.1,0.8673
458.5,473.8,0.87792
460.5,479.4,0.885
462.5,485.1,0.89105
464.5,490.7,0.91392
466.5,496.3,0.89607
468.5,501.9,0.90321
470.5,507.5,0.90068
472.5,513.1,0.90216
474.5,518.7,0.89391
476.5,524.3,0.89607
478.5,529.9,0.88536
480.5,535.5,0.8875
482.5,541.1,0.88893
484.5,546.7,0.8856
486.5,552.3,0.88673
488.5,557.9,0.89167
490.5,563.4,0.89607
492.5,569,0.90321
494.5,574.6,0.91235
496.5,580.2,0.90216
498.5,585.8,0.90321
500.5,591.4,0.8928
502.5,597,0.8856
504.5,602.6,0.86975
506.5,608.1,0.8568
508.5,613.7,0.84609
510.5,619.3,0.8316
512.5,624.9,0.8388
514.5,630.4,0.83391
516.5,636,0.82669
518.5,641.6,0.828
520.5,647.2,0.83056
522.5,652.7,0.82824
524.5,658.3,0.83288
526.5,663.9,0.83181
528.5,669.5,0.83772
530.5,675.1,0.84365
532.5,680.6,0.8413
534.5,686.2,0.85562
536.5,691.8,0.8532
538.5,697.4,0.8604
540.5,703,0.86994
542.5,708.5,0.87237
544.5,714.1,0.882
546.5,719.7,0.8856
548.5,725.3,0.89032
550.5,730.9,0.90468
552.5,736.5,0.91186
554.5,742.1,0.9252
556.5,747.7,0.93534
558.5,753.3,0.94605
560.5,758.9,0.96476
562.5,764.5,0.96205
564.5,770.1,0.99603
566.5,775.7,1.0146
568.5,781.3,1.04308
570.5,786.9,1.0561
572.5,792.5,1.08528
574.5,798.1,1.09548
576.5,803.7,1.11428
578.5,809.3,1.11825
580.5,814.9,1.13666
582.5,820.6,1.14954
584.5,826.2,1.15344
586.5,831.8,1.16739
588.5,837.4,1.1857
590.5,843.1,1.20684
592.5,848.7,1.2283
594.5,854.3,1.25668
596.5,859.9,1.29564
598.5,865.6,1.33835
600.5,871.2,1.39122
602.5,876.9,1.44024
604.5,882.5,1.51866
606.5,888.2,1.60262
608.5,893.8,1.70146
610.5,899.5,1.82148
612.5,905.1,1.94895
614.5,910.8,2.0709
616.5,916.5,2.2352
618.5,922.2,2.4185
620.5,927.9,2.59038
622.5,933.6,2.79747
624.5,939.3,3.00256
626.5,945,3.25486
628.5,950.8,3.486
630.5,956.5,3.73404
632.5,962.2,3.96274
634.5,968,4.21547
636.5,973.8,4.47465
638.5,979.6,4.66408
640.5,985.3,4.84759
642.5,991.1,4.9611
644.5,996.9,5.06748
646.5,1002.6,5.17128
648.5,1008.4,5.14948
650.5,1014.1,5.19912
652.5,1019.9,5.15822
654.5,1025.6,5.09652
656.5,1031.4,4.97024
658.5,1037.1,4.7915
660.5,1042.8,4.53252
662.5,1048.5,4.22988
664.5,1054.2,3.93536
666.5,1059.8,3.63264
668.5,1065.5,3.31584
670.5,1071.1,2.9744
672.5,1076.8,2.64475
674.5,1082.4,2.33536
676.5,1088,2.06703
678.5,1093.7,1.79275
680.5,1099.3,1.56468
682.5,1105,1.32042
684.5,1110.6,1.1147
686.5,1116.2,0.9372
688.5,1121.9,0.7832
690.5,1127.5,0.6512
692.5,1133.2,0.53352
694.5,1138.9,0.44478
696.5,1144.6,0.36296
698.5,1150.3,0.30276
700.5,1156.1,0.25128
702.5,1161.8,0.2094
704.5,1167.5,0.17799
706.5,1173.3,0.15356
708.5,1179,0.13572
710.5,1184.8,0.11168
712.5,1190.5,0.10121
714.5,1196.3,0.09396
716.5,1202,0.09369
718.5,1207.8,0.09716
720.5,1213.6,0.09688
722.5,1219.4,0.0897
724.5,1225.2,0.0688
726.5,1231,0.04485
728.5,1236.8,0.03773
730.5,1242.6,0.04485
732.5,1248.4,0.05848
734.5,1254.2,0.069
736.5,1260,0.0855
738.5,1265.9,0.09576
740.5,1271.7,0.1032
742.5,1277.5,0.10633
744.5,1283.3,0.10695
746.5,1289.2,0.11319
748.5,1295,0.11662
750.5,1300.8,0.12348
752.5,1306.6,0.12145
754.5,1312.5,0.12348
756.5,1318.3,0.12276
758.5,1324.2,0.12348
760.5,1330,0.12312
762.5,1335.9,0.12654
764.5,1341.7,0.12617
766.5,1347.6,0.13338
768.5,1353.4,0.13034
770.5,1359.3,0.1326
772.5,1365.2,0.13338
774.5,1371,0.14063
776.5,1376.9,0.14022
778.5,1382.8,0.1428
780.5,1388.6,0.14364
782.5,1394.5,0.1462
784.5,1400.4,0.1462
786.5,1406.3,0.1496
788.5,1412.1,0.14916
790.5,1418,0.15004
792.5,1423.9,0.153
794.5,1429.8,0.1564
796.5,1435.6,0.15732
798.5,1441.5,0.15594
800.5,1447.4,0.16027
802.5,1453.3,0.15548
804.5,1459.2,0.1598
806.5,1465.1,0.16272
808.5,1471,0.16272
810.5,1476.9,0.1632
812.5,1482.8,0.16513
814.5,1488.7,0.16416
816.5,1494.6,0.1695
817.5,1497.5,0.17