File: PMMA/Calibration_Data/FSRI/FSRI_DSC_N2_3K_1.csv
Temp,time,Heat Flow Rate
[K],[s],[mW/mg]
323.5,31.6,1.29E-02
325.5,110.2,6.49E-02
327.5,158.3,7.55E-02
329.5,203.4,7.65E-02
331.5,246.8,7.97E-02
333.5,289.2,8.54E-02
335.5,330.6,8.56E-02
337.5,371.9,8.67E-02
339.5,413,8.92E-02
341.5,453.9,9.01E-02
343.5,494.3,9.05E-02
345.5,534.6,9.49E-02
347.5,574.8,9.18E-02
349.5,615.2,9.22E-02
351.5,655.4,9.11E-02
353.5,695.7,9.38E-02
355.5,736,9.40E-02
357.5,776.7,9.22E-02
359.5,816.7,9.42E-02
361.5,856.5,9.71E-02
363.5,896.8,9.43E-02
365.5,936.9,9.61E-02
367.5,976.9,9.60E-02
369.5,1016.7,9.99E-02
371.5,1056.5,9.77E-02
373.5,1096,9.96E-02
375.5,1135.7,9.86E-02
377.5,1175.4,9.88E-02
379.5,1215.4,9.87E-02
381.5,1254.9,0.10337
383.5,1294.2,0.10737
385.5,1333.8,0.10606
387.5,1373.5,0.10797
389.5,1413.2,0.10841
391.5,1452.8,0.11361
393.5,1492.5,0.11285
395.5,1532.6,0.11672
397.5,1572.5,0.11772
399.5,1612,0.12437
401.5,1651.3,0.12915
403.5,1690.5,0.12793
405.5,1729.9,0.13036
407.5,1769.4,0.13131
409.5,1808.8,0.13174
411.5,1848.4,0.12973
413.5,1887.8,0.1314
415.5,1927.1,0.12973
417.5,1966.6,0.13193
419.5,2005.8,0.13435
421.5,2045,0.13712
423.5,2084.1,0.13731
425.5,2123.3,0.13941
427.5,2162.4,0.14313
429.5,2201.7,0.14346
431.5,2241,0.14339
433.5,2280.2,0.14841
435.5,2319.4,0.14893
437.5,2358.7,0.15148
439.5,2398,0.15277
441.5,2437.2,0.15885
443.5,2476.3,0.15916
445.5,2515.3,0.15836
447.5,2554.3,0.15987
449.5,2593.3,0.15896
451.5,2632.5,0.15969
453.5,2671.6,0.15736
455.5,2711,0.15581
457.5,2750.5,0.1523
459.5,2789.7,0.15333
461.5,2828.7,0.15283
463.5,2867.7,0.15274
465.5,2906.8,0.15715
467.5,2946,0.1519
469.5,2985.5,0.15001
471.5,3025,0.1494
473.5,3064.1,0.14976
475.5,3102.5,0.14943
477.5,3141.2,0.14877
479.5,3179.6,0.14793
481.5,3217.9,0.14606
483.5,3256.6,0.14254
485.5,3295.9,0.14249
487.5,3335,0.13975
489.5,3374.3,0.14253
491.5,3413.3,0.14118
493.5,3452.3,0.14071
495.5,3491.3,0.14266
497.5,3530.4,0.14164
499.5,3569.5,0.14492
501.5,3608.5,0.14575
503.5,3647.4,0.14792
505.5,3686.3,0.14948
507.5,3725,0.15287
509.5,3763.9,0.14915
511.5,3803.3,0.14981
513.5,3842.5,0.15426
515.5,3881.6,0.15603
517.5,3920.5,0.15856
519.5,3959.4,0.16044
521.5,3998.2,0.16176
523.5,4037.2,0.16289
525.5,4076.2,0.16264
527.5,4115.2,0.17582
529.5,4154,0.17924
531.5,4192.9,0.18423
533.5,4232,0.1859
535.5,4271,0.18965
537.5,4309.8,0.19394
539.5,4348.6,0.19394
541.5,4387.7,0.19616
543.5,4426.5,0.20104
545.5,4465.8,0.2061
547.5,4504.8,0.20721
549.5,4543.8,0.20668
551.5,4582.8,0.21181
553.5,4621.7,0.21452
555.5,4660.5,0.21781
557.5,4699.7,0.21665
559.5,4738.9,0.21786
561.5,4778,0.22236
563.5,4817.1,0.22238
565.5,4856.1,0.22535
567.5,4895.2,0.22479
569.5,4934.3,0.23323
571.5,4973.2,0.24352
573.5,5012.3,0.25234
575.5,5051.6,0.26161
577.5,5090.5,0.27127
579.5,5129.5,0.28687
581.5,5168.7,0.29958
583.5,5208.3,0.31687
585.5,5247.3,0.34232
587.5,5286.1,0.36411
589.5,5325.3,0.3859
591.5,5364.8,0.41371
593.5,5404.3,0.44547
595.5,5443.5,0.48136
597.5,5482.6,0.5231
599.5,5521.6,0.56943
601.5,5560.8,0.61225
603.5,5600,0.65839
605.5,5639.6,0.70543
607.5,5679.1,0.75487
609.5,5718.5,0.79958
611.5,5757.9,0.84079
613.5,5797.3,0.87448
615.5,5836.8,0.9054
617.5,5876.2,0.9212
619.5,5915.7,0.92605
621.5,5955.1,0.91456
623.5,5994.3,0.90779
625.5,6033.6,0.8822
627.5,6073,0.85305
629.5,6112,0.8247
631.5,6151,0.78919
633.5,6190.1,0.75105
635.5,6229.4,0.70288
637.5,6268.7,0.65105
639.5,6308.1,0.59529
641.5,6347.6,0.53599
643.5,6387,0.48283
645.5,6426.1,0.42538
647.5,6465.1,0.3854
649.5,6504.3,0.33326
651.5,6543.7,0.28965
653.5,6583.3,0.25293
655.5,6622.8,0.21877
657.5,6662.2,0.1858
659.5,6701.2,0.16108
661.5,6740.5,0.1358
663.5,6780.2,0.11377
665.5,6819.6,0.10031
667.5,6859.1,8.58E-02
669.5,6898.5,7.64E-02
671.5,6938,7.76E-02
673.5,6977.6,7.47E-02
675.5,7017.1,7.33E-02
677.5,7056.4,7.39E-02
679.5,7095.7,6.73E-02
681.5,7135.1,5.71E-02
683.5,7174.8,4.42E-02
685.5,7214.5,2.69E-02
687.5,7254.1,7.64E-03
689.5,7294,-1.25E-02
691.5,7333.7,-2.12E-02
693.5,7373.3,-4.78E-03
695.5,7413.2,4.19E-03
697.5,7453,6.95E-03
699.5,7492.6,9.77E-03
701.5,7532,1.55E-02
703.5,7571.4,1.18E-02
705.5,7611.2,1.02E-02
707.5,7651.3,1.17E-02
709.5,7691,9.77E-03
711.5,7730.6,1.47E-02
713.5,7770.4,1.21E-02
715.5,7810.1,1.41E-02
717.5,7849.7,1.30E-02
719.5,7889.5,1.05E-02
721.5,7929.3,1.22E-02
723.5,7968.9,1.24E-02
725.5,8008.9,1.22E-02
727.5,8049,1.08E-02
729.5,8088.6,1.43E-02
731.5,8128,1.38E-02
733.5,8167.6,1.57E-02
735.5,8207.7,1.71E-02
737.5,8247.8,1.76E-02
739.5,8287.8,1.80E-02
741.5,8327.9,1.79E-02
743.5,8367.9,1.99E-02
745.5,8407.5,1.95E-02
747.5,8447,2.15E-02
749.5,8486.8,2.39E-02
751.5,8526.8,2.30E-02
753.5,8566.6,2.01E-02
755.5,8606.6,2.46E-02
757.5,8646.2,2.18E-02
759.5,8686.2,2.25E-02
761.5,8726,2.47E-02
763.5,8765.9,2.43E-02
765.5,8805.8,2.88E-02
767.5,8846,2.37E-02
769.5,8886,2.71E-02
771.5,8925.7,2.68E-02
773.5,8965.8,2.36E-02
775.5,9006.1,2.44E-02
777.5,9046,2.43E-02
779.5,9085.6,2.20E-02
781.5,9125.3,2.52E-02
783.5,9165.3,2.91E-02
785.5,9205.5,2.87E-02
787.5,9245.7,2.80E-02
789.5,9285.8,2.86E-02
791.5,9325.5,2.76E-02
793.5,9365.4,3.00E-02
795.5,9405.6,2.98E-02
797.5,9445.7,3.14E-02
799.5,9485.9,2.93E-02
801.5,9526,3.22E-02
803.5,9565.9,3.25E-02
805.5,9605.9,3.45E-02
807.5,9645.9,3.49E-02
809.5,9686.1,3.58E-02
811.5,9726.4,3.53E-02
813.5,9766.5,3.88E-02
815.5,9806.8,4.02E-02
817.5,9846.9,4.12E-02
819.5,9887,3.96E-02
821.5,9926.8,3.96E-02
823.5,9966.7,4.27E-02
825,9996.8,4.28E-02