File: PMMA/Calibration_Data/FSRI/FSRI_TGA_N2_20K_3.csv
Temp,time ,TGA
[K],[s],[mg]
322.5,30.7,3.979
324.5,54.2,3.9773
326.5,67.1,3.9773
328.5,77.4,3.977
330.5,86.3,3.9779
332.5,94.5,3.9773
334.5,102.1,3.9778
336.5,109.4,3.978
338.5,116.5,3.978
340.5,123.3,3.979
342.5,130,3.9781
344.5,136.7,3.9756
346.5,143.2,3.978
348.5,149.7,3.9786
350.5,156.2,3.9772
352.5,162.6,3.9771
354.5,168.9,3.977
356.5,175.3,3.977
358.5,181.6,3.977
360.5,187.8,3.977
362.5,194,3.9768
364.5,200.2,3.9766
366.5,206.4,3.9757
368.5,212.5,3.9756
370.5,218.6,3.9757
372.5,224.7,3.9761
374.5,230.7,3.9757
376.5,236.8,3.976
378.5,242.8,3.9758
380.5,248.9,3.9761
382.5,254.9,3.977
384.5,260.8,3.9745
386.5,266.8,3.9756
388.5,272.8,3.9756
390.5,278.7,3.9756
392.5,284.7,3.9754
394.5,290.6,3.9743
396.5,296.5,3.9743
398.5,302.4,3.9743
400.5,308.3,3.9743
402.5,314.1,3.9742
404.5,319.9,3.9746
406.5,325.7,3.9743
408.5,331.5,3.974
410.5,337.3,3.9726
412.5,343.1,3.9727
414.5,348.8,3.9714
416.5,354.6,3.9717
418.5,360.4,3.9704
420.5,366.1,3.9704
422.5,371.8,3.97
424.5,377.5,3.9691
426.5,383.2,3.9677
428.5,388.9,3.9664
430.5,394.6,3.9658
432.5,400.3,3.9651
434.5,406,3.9651
436.5,411.6,3.9625
438.5,417.3,3.9625
440.5,423,3.9612
442.5,428.6,3.9605
444.5,434.3,3.9592
446.5,440,3.9572
448.5,445.7,3.9548
450.5,451.3,3.9519
452.5,456.9,3.9503
454.5,462.6,3.9467
456.5,468.2,3.9441
458.5,473.8,3.9411
460.5,479.4,3.9356
462.5,485.1,3.9322
464.5,490.7,3.9273
466.5,496.3,3.9232
468.5,501.9,3.9193
470.5,507.5,3.9151
472.5,513.1,3.9108
474.5,518.7,3.9057
476.5,524.3,3.9035
478.5,529.9,3.8986
480.5,535.5,3.8942
482.5,541.1,3.8909
484.5,546.7,3.8868
486.5,552.3,3.8841
488.5,557.9,3.8797
490.5,563.5,3.8755
492.5,569.1,3.8729
494.5,574.7,3.8694
496.5,580.2,3.8665
498.5,585.8,3.862
500.5,591.4,3.859
502.5,597,3.8565
504.5,602.6,3.8536
506.5,608.2,3.851
508.5,613.7,3.8497
510.5,619.3,3.8487
512.5,624.9,3.8461
514.5,630.5,3.8459
516.5,636,3.8448
518.5,641.6,3.8435
520.5,647.1,3.8422
522.5,652.8,3.8408
524.5,658.3,3.8408
526.5,663.9,3.8402
528.5,669.5,3.8397
530.5,675,3.8389
532.5,680.6,3.8372
534.5,686.2,3.8352
536.5,691.8,3.8349
538.5,697.3,3.8336
540.5,702.9,3.8324
542.5,708.5,3.831
544.5,714.1,3.8297
546.5,719.6,3.828
548.5,725.2,3.8242
550.5,730.8,3.8227
552.5,736.4,3.8201
554.5,742,3.8181
556.5,747.6,3.8151
558.5,753.1,3.8111
560.5,758.7,3.8073
562.5,764.3,3.803
564.5,769.9,3.7985
566.5,775.5,3.7922
568.5,781.1,3.7884
570.5,786.7,3.7825
572.5,792.3,3.7745
574.5,797.9,3.7677
576.5,803.5,3.7612
578.5,809.1,3.7535
580.5,814.6,3.7455
582.5,820.3,3.7371
584.5,825.9,3.7283
586.5,831.5,3.7214
588.5,837.1,3.7103
590.5,842.7,3.6993
592.5,848.4,3.6883
594.5,854,3.677
596.5,859.6,3.6642
598.5,865.2,3.6504
600.5,870.9,3.633
602.5,876.5,3.6166
604.5,882.2,3.597
606.5,887.8,3.575
608.5,893.5,3.5493
610.5,899.1,3.5212
612.5,904.8,3.4898
614.5,910.5,3.4516
616.5,916.2,3.4115
618.5,921.9,3.3673
620.5,927.6,3.3131
622.5,933.3,3.2558
624.5,939,3.1903
626.5,944.7,3.1179
628.5,950.5,3.04
630.5,956.2,2.9506
632.5,962,2.8588
634.5,967.7,2.7568
636.5,973.5,2.6445
638.5,979.3,2.5308
640.5,985,2.4058
642.5,990.8,2.2783
644.5,996.6,2.144
646.5,1002.3,2.0055
648.5,1008.1,1.8718
650.5,1013.8,1.7303
652.5,1019.6,1.5927
654.5,1025.3,1.4537
656.5,1031.1,1.3157
658.5,1036.8,1.1861
660.5,1042.5,1.0561
662.5,1048.2,0.9367
664.5,1053.8,0.8245
666.5,1059.5,0.718
668.5,1065.1,0.6262
670.5,1070.8,0.5401
672.5,1076.4,0.461
674.5,1082,0.3942
676.5,1087.7,0.3348
678.5,1093.3,0.2823
680.5,1098.9,0.2372
682.5,1104.6,0.198
684.5,1110.3,0.1659
686.5,1115.9,0.1394
688.5,1121.6,0.1149
690.5,1127.3,0.0972
692.5,1133,0.082
694.5,1138.7,0.0691
696.5,1144.4,0.0592
698.5,1150.1,0.0522
700.5,1155.8,0.0453
702.5,1161.6,0.0406
704.5,1167.3,0.0348
706.5,1173.1,0.032
708.5,1178.8,0.0293
710.5,1184.6,0.0267
712.5,1190.4,0.0254
714.5,1196.1,0.024
716.5,1201.9,0.0241
718.5,1207.6,0.0241
720.5,1213.4,0.0215
722.5,1219.2,0.0215
724.5,1225,0.0215
726.5,1230.8,0.0218
728.5,1236.6,0.0218
730.5,1242.4,0.0218
732.5,1248.2,0.0218
734.5,1254,0.0218
736.5,1259.8,0.021
738.5,1265.7,0.0205
740.5,1271.5,0.0218
742.5,1277.3,0.0212
744.5,1283.2,0.0198
746.5,1289,0.0205
748.5,1294.8,0.0205
750.5,1300.7,0.0205
752.5,1306.5,0.0205
754.5,1312.4,0.0205
756.5,1318.2,0.0218
758.5,1324.1,0.0205
760.5,1329.9,0.0205
762.5,1335.8,0.0205
764.5,1341.6,0.0209
766.5,1347.5,0.0215
768.5,1353.4,0.0223
770.5,1359.2,0.0208
772.5,1365.1,0.0221
774.5,1371,0.0208
776.5,1376.8,0.0208
778.5,1382.7,0.0221
780.5,1388.5,0.0208
782.5,1394.4,0.0221
784.5,1400.3,0.0202
786.5,1406.2,0.0202
788.5,1412,0.0215
790.5,1417.9,0.0204
792.5,1423.8,0.0198
794.5,1429.6,0.0192
796.5,1435.5,0.0205
798.5,1441.4,0.0205
800.5,1447.2,0.0202
802.5,1453.1,0.0215
804.5,1459,0.0218
806.5,1464.9,0.0218
808.5,1470.7,0.0204
810.5,1476.6,0.0205
812.5,1482.5,0.0205
814.5,1488.4,0.0205
816.5,1494.4,0.0202
817.5,1497.3,0.0201