File: PMMA/Calibration_Data/FSRI/FSRI_TGA_N2_10K_3.csv
Temp,time,TGA
[K],[s],[mg]
323,0,3.9002
325,65.4,3.8976
327,85.8,3.8969
329,102.4,3.8958
331,117.3,3.8962
333,131.4,3.8953
335,145.2,3.896
337,158.6,3.8952
339,171.7,3.8954
341,184.6,3.8963
343,197.5,3.8956
345,210.4,3.8942
347,223.1,3.8925
349,235.7,3.8939
351,248.2,3.893
353,260.7,3.8927
355,273.1,3.8916
357,285.5,3.8916
359,297.7,3.8912
361,309.9,3.8916
363,322,3.8903
365,334.1,3.889
367,346.1,3.889
369,358.1,3.889
371,370,3.8877
373,381.8,3.8879
375,393.7,3.8862
377,405.6,3.8864
379,417.4,3.8864
381,429.1,3.8863
383,440.9,3.8855
385,452.6,3.8851
387,464.4,3.8851
389,476.1,3.8838
391,487.8,3.8851
393,499.5,3.8824
395,511.2,3.8824
397,522.9,3.8811
399,534.6,3.8811
401,546.3,3.8809
403,558,3.8788
405,569.7,3.8788
407,581.3,3.8785
409,593,3.8776
411,604.6,3.8771
413,616.2,3.8755
415,627.8,3.8755
417,639.4,3.8742
419,650.9,3.8729
421,662.4,3.8732
423,674.1,3.8712
425,685.7,3.8712
427,697.2,3.8689
429,708.7,3.8671
431,720.2,3.867
433,731.8,3.865
435,743.3,3.8637
437,754.9,3.86
439,766.4,3.8597
441,777.8,3.8581
443,789.4,3.8567
445,800.9,3.8529
447,812.5,3.8501
449,823.9,3.8448
451,835.4,3.8409
453,846.9,3.839
455,858.5,3.8351
457,870,3.8311
459,881.5,3.8258
461,893,3.8219
463,904.5,3.8164
465,915.9,3.8128
467,927.4,3.8084
469,938.8,3.8045
471,950.3,3.7995
473,961.7,3.7941
475,973.2,3.79
477,984.6,3.786
479,996.1,3.7821
481,1007.6,3.7781
483,1019.1,3.7752
485,1030.6,3.7706
487,1042,3.7663
489,1053.5,3.7626
491,1065,3.7597
493,1076.4,3.7584
495,1087.8,3.7557
497,1099.3,3.7544
499,1110.7,3.7521
501,1122.2,3.7521
503,1133.7,3.7508
505,1145.1,3.7492
507,1156.5,3.7489
509,1168,3.7489
511,1179.4,3.7476
513,1190.9,3.7463
515,1202.3,3.7469
517,1213.7,3.7453
519,1225.2,3.745
521,1236.6,3.7427
523,1248.1,3.7417
525,1259.6,3.7404
527,1271.1,3.7404
529,1282.6,3.7377
531,1294.1,3.7377
533,1305.5,3.7351
535,1317,3.7344
537,1328.5,3.7331
539,1340.1,3.7302
541,1351.6,3.7279
543,1363.1,3.7252
545,1374.6,3.7223
547,1386.2,3.7197
549,1397.7,3.7171
551,1409.2,3.7123
553,1420.7,3.7084
555,1432.2,3.7049
557,1443.8,3.7003
559,1455.2,3.6936
561,1466.7,3.6882
563,1478.2,3.6811
565,1489.7,3.6742
567,1501.2,3.6672
569,1512.7,3.6593
571,1524.3,3.6484
573,1535.8,3.6429
575,1547.3,3.633
577,1558.8,3.623
579,1570.3,3.6123
581,1581.9,3.6028
583,1593.4,3.5909
585,1605,3.5799
587,1616.5,3.5649
589,1628.1,3.5507
591,1639.7,3.536
593,1651.2,3.5154
595,1662.7,3.4957
597,1674.3,3.4723
599,1685.9,3.4467
601,1697.5,3.4167
603,1709,3.3845
605,1720.6,3.3458
607,1732.2,3.3051
609,1743.8,3.2568
611,1755.5,3.2008
613,1767.2,3.1381
615,1778.9,3.0693
617,1790.6,2.9928
619,1802.3,2.9101
621,1814.1,2.8173
623,1825.8,2.7173
625,1837.6,2.6073
627,1849.4,2.4912
629,1861.2,2.367
631,1873,2.2359
633,1884.8,2.0993
635,1896.5,1.958
637,1908.2,1.8138
639,1919.9,1.6704
641,1931.6,1.5318
643,1943.2,1.391
645,1954.8,1.2535
647,1966.5,1.1179
649,1978.1,0.9916
651,1989.6,0.8679
653,2001.2,0.7582
655,2012.7,0.6543
657,2024.2,0.5584
659,2035.7,0.4706
661,2047.2,0.3933
663,2058.8,0.3246
665,2070.3,0.2619
667,2081.9,0.2108
669,2093.5,0.1637
671,2105.1,0.1225
673,2116.8,0.0894
675,2128.4,0.0602
677,2140.1,0.0358
679,2151.8,0.0169
681,2163.4,-0.0009
683,2175.1,-0.0129
685,2186.8,-0.0243
687,2198.5,-0.0334
689,2210.2,-0.0407
691,2221.9,-0.0448
693,2233.6,-0.0516
695,2245.3,-0.0559
697,2257,-0.0584
699,2268.8,-0.0594
701,2280.5,-0.0623
703,2292.2,-0.0636
705,2303.9,-0.0646
707,2315.6,-0.0648
709,2327.5,-0.066
711,2339.2,-0.066
713,2351.1,-0.0686
715,2362.9,-0.0692
717,2374.8,-0.0686
719,2386.6,-0.0673
721,2398.5,-0.0672
723,2410.2,-0.066
725,2422.1,-0.0687
727,2433.9,-0.0717
729,2445.7,-0.068
731,2457.4,-0.0667
733,2469.2,-0.068
735,2481,-0.0693
737,2492.9,-0.0657
739,2504.7,-0.0679
741,2516.5,-0.0666
743,2528.3,-0.0693
745,2540.2,-0.0692
747,2552,-0.0679
749,2563.9,-0.0683
751,2575.7,-0.0675
753,2587.6,-0.0696
755,2599.5,-0.0683
757,2611.3,-0.0696
759,2623.2,-0.0696
761,2635.1,-0.0682
763,2646.9,-0.0673
765,2658.8,-0.0669
767,2670.6,-0.0683
769,2682.5,-0.0658
771,2694.4,-0.0669
773,2706.3,-0.0656
775,2718.3,-0.0659
777,2730.2,-0.0676
779,2742.1,-0.0663
781,2754,-0.0679
783,2765.9,-0.0663
785,2777.9,-0.0663
787,2789.7,-0.0673
789,2801.6,-0.0673
791,2813.5,-0.0673
793,2825.4,-0.0663
795,2837.3,-0.0663
797,2849.2,-0.0669
799,2861.1,-0.0666
801,2873,-0.0683
803,2885,-0.0669
805,2897,-0.0683
807,2908.9,-0.0683
809,2920.8,-0.0663
811,2932.8,-0.0663
813,2944.7,-0.0679
815,2956.6,-0.068
817,2968.6,-0.0666
819,2980.6,-0.0671
821,2992.6,-0.0669
822,2998.6,-0.0669