File: PMMA/Validation_Results/Aalto-Model_1-PMMA-Gasification/Aalto_I_Gasification_q50_Mass.csv
s,g
t,m
0,25.63948
2,25.63948
4,25.63948
6.1,25.6394
8.1,25.6393
10.1,25.6386
12.1,25.6367
14.1,25.6325
16.1,25.6247
18.1,25.6127
20,25.5977
22,25.5793
24,25.5597
26,25.5393
28,25.5172
30,25.4916
32,25.4611
34,25.4244
36,25.3811
38,25.3313
40,25.27509
42,25.2131
44,25.1459
46,25.074
48,24.99779
50,24.9177
52,24.8341
54,24.7474
56,24.6576
58,24.5652
60,24.4703
62,24.373
64,24.2736
66,24.1722
68,24.0688
70,23.96356
72,23.8566
74,23.7481
76.1,23.6351
78.1,23.5207
80.1,23.4075
82.1,23.293
84.1,23.1771
86.1,23.0599
88.1,22.9414
90.1,22.8217
92.1,22.7007
94.1,22.5786
96.1,22.4553
98.1,22.33086
100.1,22.2053
102.1,22.0785
104.1,21.9507
106.1,21.8218
108.1,21.6918
110.1,21.5607
112.1,21.4286
114.1,21.2953
116.1,21.161
118.1,21.0256
120.1,20.8891
122.1,20.7516
124.1,20.613
126.1,20.4734
128.1,20.3327
130.1,20.1909
132.1,20.0481
134.1,19.9041
136.1,19.7591
138.1,19.6131
140.1,19.4659
142.1,19.3177
144.1,19.1684
146.1,19.0181
148.1,18.8667
150.1,18.7142
152.1,18.5606
154.1,18.4059
156.1,18.2502
158.1,18.0934
160.1,17.9355
162.1,17.7766
164.1,17.6167
166.1,17.4557
168.1,17.2937
170.1,17.1307
172.1,16.9667
174.1,16.8018
176.1,16.63588
178.1,16.4691
180.1,16.30129
182.1,16.13263
184.1,15.9631
186.1,15.7928
188.1,15.6217
190.1,15.4498
192.1,15.2772
194.1,15.1038
196.1,14.9298
198.1,14.7551
200.1,14.5799
202.1,14.404
204.1,14.2275
206.1,14.0505
208.1,13.8729
210.1,13.6948
212.1,13.5161
214.1,13.3369
216.1,13.1571
218.1,12.9768
220.1,12.7959
222.1,12.6143
224.1,12.4321
226.1,12.2491
228.1,12.0653
230.1,11.8807
232.1,11.6951
234.1,11.5086
236.1,11.3209
238.1,11.13222
240.1,10.9424
242.1,10.7514
244.1,10.5592
246.1,10.3658
248.1,10.1713
250.1,9.975698
252.1,9.778995
254.1,9.581275
256.1,9.382569
258.1,9.182917
260.1,8.982394
262.1,8.78104
264.1,8.578926
266.1,8.376087
268.1,8.172567
270.1,7.968375
272.1,7.763559
274.1,7.558183
276.1,7.352267
278.1,7.145842
280.1,6.938958
282.1,6.731628
284.1,6.523864
286.1,6.31568
288.1,6.107112
290.1,5.898247
292.1,5.68906
294.1,5.479528
296.1,5.26966
298.1,5.059456
300.1,4.84893
302,4.643354
304,4.437504
306,4.226125
308,4.014497
310,3.802671
312,3.59069
314,3.378603
316,3.16648
318,2.954389
320,2.742447
322,2.53082
324,2.319683
326,2.109245
328,1.899806
330,1.691671
332,1.485335
334,1.281413
336,1.080655
338,0.884063
340,0.693013
342,0.509487
344,0.334944
346,0.175869
348,4.36E-02
350,4.42E-06
352,0
354,0
356,0
358,0
360,0
362,0
364,0
366,0
368,0
370,0
372,0
374,0
376,0
378,0
380,0
382,0
384,0
386,0
388,0
390,0
392,0
394,0
396,0
398,0
400,0
402,0
404,0
406,0
408,0
410,0
412,0
414,0
416,0
418,0
420,0
422,0
424,0
426,0
428,0
430,0
432,0
434,0
436,0
438,0
440,0
442,0
444,0
446,0
448,0
450,0
452,0
454,0
456,0
458,0
460,0
462,0
464,0
466,0
468,0
470,0
472,0
474,0
476,0
478,0
480,0
482,0
484,0
486,0
488,0
490,0
492,0
494,0
496,0
498,0
500,0