File: PMMA/Validation_Results/Aalto-Model_1-PMMA-Gasification/Aalto_I_Gasification_q50_Temp.csv
s,K
t,T_back
0,293.15
2,293.14
4,293.12
6.1,293.1
8.1,293.09
10.1,293.07
12.1,293.07
14.1,293.1
16.1,293.19
18.1,293.37
20,293.65
22,294.07
24,294.64
26,295.37
28,296.25
30,297.29
32,298.49
34,299.83
36,301.3
38,302.9
40,304.61
42,306.43
44,308.34
46,310.34
48,312.41
50,314.56
52,316.77
54,319.03
56,321.34
58,323.69
60,326.08
62,328.49
64,330.93
66,333.39
68,335.87
70,338.36
72,340.85
74,343.36
76.1,345.93
78.1,348.5
80.1,351.01
82.1,353.52
84.1,356.02
86.1,358.52
88.1,361.01
90.1,363.5
92.1,365.98
94.1,368.45
96.1,370.91
98.1,373.36
100.1,375.8
102.1,378.23
104.1,380.65
106.1,383.07
108.1,385.47
110.1,387.86
112.1,390.23
114.1,392.6
116.1,394.96
118.1,397.31
120.1,399.64
122.1,401.97
124.1,404.29
126.1,406.59
128.1,408.89
130.1,411.18
132.1,413.45
134.1,415.72
136.1,417.98
138.1,420.23
140.1,422.47
142.1,424.71
144.1,426.93
146.1,429.15
148.1,431.36
150.1,433.56
152.1,435.75
154.1,437.94
156.1,440.12
158.1,442.3
160.1,444.46
162.1,446.63
164.1,448.78
166.1,450.93
168.1,453.08
170.1,455.22
172.1,457.35
174.1,459.49
176.1,461.61
178.1,463.74
180.1,465.86
182.1,467.98
184.1,470.1
186.1,472.22
188.1,474.33
190.1,476.45
192.1,478.56
194.1,480.68
196.1,482.8
198.1,484.93
200.1,487.05
202.1,489.19
204.1,491.32
206.1,493.47
208.1,495.62
210.1,497.78
212.1,499.94
214.1,502.12
216.1,504.31
218.1,506.51
220.1,508.72
222.1,510.94
224.1,513.17
226.1,515.41
228.1,517.67
230.1,519.93
232.1,522.21
234.1,524.49
236.1,526.78
238.1,529.07
240.1,531.37
242.1,533.68
244.1,535.98
246.1,538.29
248.1,540.59
250.1,542.89
252.1,545.19
254.1,547.48
256.1,549.76
258.1,552.04
260.1,554.31
262.1,556.58
264.1,558.84
266.1,561.08
268.1,563.33
270.1,565.56
272.1,567.78
274.1,570
276.1,572.21
278.1,574.4
280.1,576.59
282.1,578.77
284.1,580.94
286.1,583.1
288.1,585.25
290.1,587.39
292.1,589.53
294.1,591.66
296.1,593.78
298.1,595.9
300.1,598.02
302,600.08
304,602.15
306,604.28
308,606.42
310,608.58
312,610.76
314,612.96
316,615.19
318,617.46
320,619.78
322,622.14
324,624.57
326,627.07
328,629.65
330,632.33
332,635.12
334,638.03
336,641.08
338,644.3
340,647.72
342,651.36
344,655.28
346,659.52
348,664.17
350,669.32
352,675.14
354,681.84
356,689.85
358,699.94
360,713.96
362,738.03
364,792.55
366,833.11
368,850.81
370,860.96
372,867.71
374,872.56
376,876.27
378,879.25
380,881.73
382,883.86
384,885.72
386,887.37
388,888.83
390,890.15
392,891.34
394,892.42
396,893.4
398,894.29
400,895.11
402,895.86
404,896.56
406,897.21
408,897.82
410,898.39
412,898.93
414,899.43
416,899.92
418,900.38
420,900.82
422,901.25
424,901.65
426,902.05
428,902.42
430,902.79
432,903.14
434,903.48
436,903.81
438,904.13
440,904.44
442,904.74
444,905.04
446,905.32
448,905.6
450,905.87
452,906.13
454,906.39
456,906.64
458,906.88
460,907.12
462,907.35
464,907.57
466,907.79
468,908
470,908.21
472,908.41
474,908.61
476,908.8
478,908.99
480,909.17
482,909.35
484,909.53
486,909.7
488,909.87
490,910.03
492,910.19
494,910.34
496,910.49
498,910.64
500,910.79