File: PMMA/Validation_Results/Aalto-Model_1-PMMA-Gasification/Aalto_I_Gasification_q25_Temp.csv
s,K
t,T_back
0,293.15
5.1,293.15
10.1,293.15
15.1,293.167
20,293.278
25,293.6319
30,294.367
35,295.573
40,297.287
45,299.502
50,302.191
55,305.309
60,308.805
65,312.629
70,316.729
75,321.058
80.1,325.665
85.1,330.33
90.1,335.108
95.1,339.97
100.1,344.892
105.1,349.851
110.1,354.832
115.1,359.818
120.1,364.797
125.1,369.758
130.1,374.69
135.1,379.584
140.1,384.434
145.1,389.23
150.1,393.968
155.1,398.64
160.1,403.243
165.1,407.769
170.1,412.216
175.1,416.579
180.1,420.854
185.1,425.038
190.1,429.128
195.1,433.1211
200.1,437.016
205.1,440.811
210.1,444.5033
215.1,448.094
220.1,451.582
225.1,454.968
230.1,458.253
235.1,461.4378
240.1,464.525
245.1,467.516
250.1,470.416
255.1,473.227
260.1,475.952
265.1,478.597
270.1,481.167
275.1,483.665
280.1,486.099
285.1,488.471
290.1,490.789
295.1,493.056
300.1,495.278
305,497.417
310,499.564
315,501.68
320,503.767
325,505.829
330,507.868
335,509.888
340,511.888
345,513.87
350,515.834
355,517.78
360,519.707
365,521.612
370,523.495
375,525.353
380,527.182
385,528.98
390,530.741
395,532.465
400,534.149
405,535.788
410,537.38
415,538.925
420,540.42
425,541.866
430,543.261
435,544.6074
440,545.905
445,547.155
450,548.36
455,549.522
460,550.642
465,551.723
470,552.766
475,553.775
480,554.749
485,555.693
490,556.607
495,557.492
500,558.3515
505,559.187
510,560.0001
515,560.793
520,561.565
525,562.321
530,563.059
535,563.781
540,564.488
545,565.183
550,565.865
555,566.537
560,567.198
565,567.849
570,568.493
575,569.127
580,569.755
585,570.376
590,570.992
595,571.602
600,572.208
605,572.81
610,573.406
615,573.999
620,574.591
625,575.179
630,575.765
635,576.35
640,576.931
645,577.515
650,578.095
655,578.674
660,579.2544
665,579.833
670,580.415
675,580.993
680,581.574
685,582.156
690,582.736
695,583.321
700,583.905
705,584.491
710,585.08
715,585.667
720,586.26
725,586.853
730,587.448
735,588.047
740,588.647
745,589.268
750,589.883
755,590.504
760,591.138
765,591.76
770,592.402
775,593.032
780,593.683
785,594.324
790,594.983
795,595.649
800,596.302
805,596.978
810,597.641
815,598.329
820,599.002
825,599.702
830,600.409
835,601.1017
840,601.822
845,602.527
850,603.264
855,603.9843
860,604.737
865,605.494
870,606.244
875,607.022
880,607.786
885,608.585
890,609.37
895,610.193
900,611.012
905,611.841
910,612.699
915,613.54
920,614.4268
925,615.292
930,616.21
935,617.111
940,618.053
945,619.016
950,619.961
955,620.964
960,621.94
965,622.988
970,623.999
975,625.095
980,626.176
985,627.288
990,628.451
995,629.58
1000,630.805
1005,631.978
1010,633.264
1015,634.487
1020,635.84
1025,637.122
1030,638.538
1035,639.897
1040,641.369
1045,642.832
1050,644.334
1055,645.891
1060,647.435
1065,649.061
1070,650.679
1075,652.344
1080,654.064
1085,655.829
1090,657.606
1095,659.5342
1100,661.303
1105,663.508
1110,665.525
1115,667.696
1120,670.754
1125,674.201
1130,678.133
1135,682.634
1140,687.729
1145,693.231
1150,698.509
1155,702.631
1160,705.421
1165,707.108
1170,708.236
1175,708.95
1180,709.529
1185,710.6513
1190,713.432
1195,713.392
1200,713.546