File: PMMA/Validation_Results/Aalto-Model_1-PMMA-Gasification/Aalto_I_Gasification_q25_Mass.csv
s,g
t,m
0,25.63948
5.1,25.63948
10.1,25.6395
15.1,25.6394
20,25.6393
25,25.6389
30,25.6379
35,25.6359
40,25.6324
45,25.6269
50,25.6189
55,25.6083
60,25.5952
65,25.5799
70,25.5632
75,25.5456
80.1,25.5273
85.1,25.5094
90.1,25.4918
95.1,25.4743
100.1,25.4569
105.1,25.4392
110.1,25.42108
115.1,25.4023
120.1,25.3825
125.1,25.3616
130.1,25.3394
135.1,25.3156
140.1,25.29
145.1,25.2625
150.1,25.2329
155.1,25.20093
160.1,25.1665
165.1,25.1295
170.1,25.0899
175.1,25.0475
180.1,25.0022
185.1,24.9541
190.1,24.903
195.1,24.84901
200.1,24.7921
205.1,24.7322
210.1,24.66945
215.1,24.6038
220.1,24.5353
225.1,24.464
230.1,24.39
235.1,24.3133
240.1,24.23395
245.1,24.1521
250.1,24.0678
255.1,23.9812
260.1,23.89234
265.1,23.8013
270.1,23.7083
275.1,23.6133
280.1,23.5164
285.1,23.41789
290.1,23.3177
295.1,23.2161
300.1,23.1131
305,23.0108
310,22.9053
315,22.7987
320,22.691
325,22.5824
330,22.473
335,22.3627
340,22.25159
345,22.1398
350,22.0273
355,21.9141
360,21.8003
365,21.6858
370,21.5706
375,21.4547
380,21.3381
385,21.2207
390,21.10253
395,20.9835
400,20.86357
405,20.7427
410,20.6209
415,20.498
420,20.3741
425,20.2491
430,20.1231
435,19.996
440,19.8678
445,19.7385
450,19.6083
455,19.477
460,19.3447
465,19.2115
470,19.0773
475,18.9423
480,18.8065
485,18.6698
490,18.5325
495,18.3944
500,18.2557
505,18.1163
510,17.9763
515,17.8357
520,17.6947
525,17.5531
530,17.411
535,17.2684
540,17.12544
545,16.982
550,16.8382
555,16.6941
560,16.5496
565,16.4047
570,16.2596
575,16.1141
580,15.9684
585,15.82241
590,15.6761
595,15.5296
600,15.3829
605,15.2359
610,15.0887
615,14.9414
620,14.7938
625,14.646
630,14.4981
635,14.3499
640,14.2017
645,14.0532
650,13.9046
655,13.7558
660,13.6069
665,13.4578
670,13.3086
675,13.1593
680,13.0098
685,12.8602
690,12.7105
695,12.5607
700,12.4107
705,12.2606
710,12.1105
715,11.9602
720,11.8098
725,11.6594
730,11.5088
735,11.3581
740,11.20741
745,11.0566
750,10.90574
755,10.7548
760,10.6037
765,10.4526
770,10.3014
775,10.15006
780,9.998681
785,9.847205
790,9.69568
795,9.544067
800,9.3924
805,9.240663
810,9.088869
815,8.93703
820,8.785125
825,8.633202
830,8.481217
835,8.329219
840,8.177173
845,8.025104
850,7.873022
855,7.720918
860,7.568832
865,7.416728
870,7.264655
875,7.112591
880,6.960549
885,6.808537
890,6.656544
895,6.504617
900,6.352734
905,6.200948
910,6.049237
915,5.897629
920,5.746126
925,5.594742
930,5.443514
935,5.292422
940,5.141516
945,4.990782
950,4.840274
955,4.69
960,4.539987
965,4.390266
970,4.240845
975,4.091783
980,3.943082
985,3.794824
990,3.647004
995,3.499701
1000,3.35295
1005,3.206809
1010,3.061336
1015,2.916601
1020,2.772689
1025,2.62966
1030,2.487626
1035,2.346676
1040,2.206962
1045,2.068553
1050,1.931665
1055,1.796373
1060,1.662972
1065,1.531526
1070,1.402431
1075,1.275754
1080,1.152017
1085,1.031295
1090,0.914229
1095,0.800986
1100,0.692231
1105,0.588492
1110,0.490041
1115,0.398557
1120,0.313752
1125,0.236692
1130,0.168668
1135,0.111125
1140,6.56E-02
1145,3.31E-02
1150,1.37E-02
1155,4.53E-03
1160,1.25E-03
1165,3.01E-04
1170,6.63E-05
1175,1.33E-05
1180,4.42E-06
1185,0
1190,0
1195,0
1200,0