File: PMMA/Validation_Results/DBI/csv_files_calibrated/DBI-cal_Gasification_q50_MLR_R4.csv
Time,MLR
[s],[g/m2/s]
0,0
2,0
4.01,9.07189E-06
6.01,0.000107836
8.01,0.000715223
10.01,0.003266249
12.01,0.0114033
14.01,0.0325514
16.01,0.0792943
18,0.17081
20,0.330992
22,0.587554
24,0.964311
26,1.47498
28,2.11694
30,2.86938
32,3.69733
34,4.55963
36,5.41814
38,6.24481
40,7.02253
42,7.74306
44.01,8.39839
46.01,8.99585
48.01,9.54435
50.01,10.0542
52.01,10.5251
54.01,10.9578
56.01,11.357
58.01,11.725
60.01,12.0658
62.01,12.3869
64.01,12.6925
66.01,12.9799
68.01,13.2492
70.01,13.5006
72.01,13.7368
74,13.972
76,14.2024
78,14.4198
80,14.6282
82,14.8293
84,15.0332
86,15.2414
88,15.4393
90,15.6258
92,15.8092
94,15.9919
96,16.1735
98,16.352
100,16.5244
102,16.6906
104,16.8574
106,17.0319
108,17.2072
110,17.3745
112,17.5358
114,17.6979
116,17.8694
118,18.0451
120,18.2143
122,18.3861
124,18.5579
126,18.7156
128,18.869
130,19.0298
132,19.1969
134,19.3723
136,19.5491
138,19.7182
140,19.8859
142,20.0538
144,20.2196
146,20.3854
148,20.5533
150,20.7237
152,20.8949
154,21.0644
156,21.2292
158,21.3944
160.01,21.5651
162.01,21.7417
164.01,21.9175
166.01,22.0852
168.01,22.2418
170.01,22.3977
172.01,22.5619
174.01,22.7346
176.01,22.9073
178.01,23.0703
180.01,23.2276
182.01,23.3866
184.01,23.5463
186.01,23.6976
188.01,23.8366
190.01,23.9745
192.01,24.121
194.01,24.2773
196.01,24.4358
198.01,24.5885
200.01,24.7353
202.01,24.8765
204.01,25.0076
206.01,25.13
208.01,25.2556
210.01,25.3865
212.01,25.5209
214.01,25.6543
216.01,25.7758
218.01,25.8736
220.01,25.95
222.01,26.0344
224.01,26.1374
226.01,26.2391
228.01,26.3314
230.01,26.4164
232.01,26.496
234.01,26.5707
236.01,26.6324
238.01,26.6797
240.01,26.7318
242.01,26.8008
244.01,26.8776
246.01,26.9453
248.01,26.9947
250.01,27.0331
252.01,27.0799
254.01,27.1366
256.01,27.184
258.01,27.2193
260.01,27.254
262.01,27.2893
264.01,27.3276
266.01,27.3713
268.01,27.4097
270.01,27.4375
272.01,27.4544
274.01,27.463
276.01,27.4716
278.01,27.483
280.01,27.4943
282.01,27.5033
284.01,27.5102
286.01,27.5148
288.01,27.5144
290.01,27.5059
292.01,27.489
294.01,27.4675
296.01,27.4442
298.01,27.4142
300.01,27.371
302.01,27.3138
304.01,27.2449
306.01,27.1602
308.01,27.0516
310.01,26.9233
312.01,26.7825
314.01,26.6295
316.01,26.4607
318.01,26.2591
320.01,26.0019
322.01,25.6886
324.01,25.3314
326.01,24.9175
328.01,24.4316
330.01,23.8626
332.01,23.1839
334.01,22.3711
336.01,21.3681
338.01,20.0369
340.01,18.1247
342.01,14.9639
344.01,9.01152
346.01,2.53894
348.01,0
350.01,0
352.01,0
354.01,0
356.01,0
358.01,0
360.01,0
362.01,0
364.01,0
366.01,0
368.01,0
370.01,0
372.01,0
374.01,0
376.01,0
378.01,0
380.01,0
382.01,0
384.01,0
386.01,0
388.01,0
390.01,0
392.01,0
394.01,0
396.01,0
398.01,0
400.01,0
402.01,0
404.01,0
406.01,0
408.01,0
410.01,0
412.01,0
414.01,0
416.01,0
418.01,0
420.01,0
422.01,0
424.01,0
426.01,0
428.01,0
430.01,0
432.01,0
434.01,0
436.01,0
438.01,0
440.01,0
442.01,0
444.01,0
446.01,0
448.01,0
450.01,0
452.01,0
454.01,0
456.01,0
458.01,0
460.01,0
462.01,0
464.01,0
466.01,0
468.01,0
470.01,0
472.01,0
474.01,0
476.01,0
478.01,0
480.01,0
482.01,0
484.01,0
486.01,0
488.01,0
490.01,0
492.01,0
494.01,0
496.01,0
498.01,0
500,0