File: PMMA/Validation_Results/DBI/csv_files_calibrated/DBI-cal_Gasification_q25_MLR_R1.csv
Time,MLR
[s],[g/m2/s]
0,0
5.01,0
10.01,1.29922E-06
15.01,1.36419E-05
20,8.25007E-05
25,0.000326755
30,0.000996505
35,0.002516597
40,0.00552495
45.01,0.01087849
50.01,0.0196384
55.01,0.0329951
60.01,0.0523873
65.01,0.0792864
70.01,0.115001
75,0.160862
80,0.218292
85,0.287959
90,0.370424
95,0.46629
100,0.575487
105,0.697498
110,0.830754
115,0.974603
120,1.12679
125,1.28861
130,1.45637
135,1.62778
140,1.80565
145,1.9851
150,2.1685
155,2.35121
160.01,2.53397
165.01,2.71582
170.01,2.89515
175.01,3.07715
180.01,3.25335
185.01,3.42701
190.01,3.59588
195.01,3.7659
200.01,3.93044
205.01,4.09694
210.01,4.2588
215.01,4.41975
220.01,4.5711
225.01,4.72989
230.01,4.88232
235.01,5.03094
240.01,5.17476
245.01,5.32009
250.01,5.46375
255.01,5.60058
260.01,5.7383
265.01,5.87256
270.01,6.00595
275.01,6.13264
280.01,6.25873
285.01,6.37829
290.01,6.49786
295.01,6.61871
300.01,6.73374
305.01,6.83809
310.01,6.9531
315.01,7.06244
320.01,7.16307
325.01,7.25639
330.01,7.35115
335.01,7.45004
340.01,7.54701
345.01,7.63859
350.01,7.72407
355.01,7.81083
360.01,7.89422
365.01,7.96959
370.01,8.04566
375.01,8.11644
380.01,8.18229
385.01,8.24293
390.01,8.30274
395.01,8.36139
400.01,8.41555
405.01,8.45421
410.01,8.52085
415.01,8.57619
420.01,8.62353
425.01,8.66535
430.01,8.69766
435.01,8.73984
440.01,8.78465
445.01,8.81506
450.01,8.85257
455.01,8.8823
460.01,8.90951
465.01,8.93882
470.01,8.97543
475.01,9.00169
480.01,9.02775
485.01,9.05265
490.01,9.07319
495.01,9.09615
500.01,9.10773
505.01,9.13469
510.01,9.15471
515.01,9.16934
520.01,9.17604
525.01,9.19511
530.01,9.21059
535.01,9.22805
540.01,9.22953
545.01,9.23697
550.01,9.24451
555.01,9.26276
560.01,9.27033
565.01,9.28521
570.01,9.30455
575.01,9.31586
580.01,9.32291
585.01,9.33319
590.01,9.3444
595.01,9.35392
600.01,9.35583
605.01,9.35606
610.01,9.36941
615.01,9.3802
620.01,9.38246
625.01,9.3942
630.01,9.40396
635.01,9.40636
640.01,9.41363
645.01,9.41518
650.01,9.42124
655.01,9.42903
660.01,9.43198
665.01,9.43658
670.01,9.43608
675.01,9.42401
680.01,9.42216
685.01,9.42138
690.01,9.42479
695.01,9.42011
700.01,9.43524
705.01,9.44935
710.01,9.44833
715.01,9.45676
720.01,9.45854
725.01,9.45815
730.01,9.4575
735.01,9.4577
740.01,9.45742
745.01,9.45831
750.01,9.45692
755.01,9.45096
760.01,9.44567
765.01,9.44939
770.01,9.44768
775.01,9.44424
780.01,9.44123
785.01,9.43236
790.01,9.42563
795.01,9.42271
800.01,9.41665
805.01,9.4087
810.01,9.40214
815.01,9.39228
820.01,9.37554
825.01,9.36545
830.01,9.35046
835.01,9.33549
840.01,9.31123
845.01,9.28163
850.01,9.26481
855.01,9.24755
860.01,9.22843
865.01,9.21697
870.01,9.19895
875.01,9.1733
880.01,9.14026
885.01,9.11084
890.01,9.07853
895.01,9.04405
900.01,9.001488
905.01,8.9606
910.01,8.90954
915.01,8.85141
920.01,8.80751
925.01,8.74656
930.01,8.6831
935.01,8.61776
940.01,8.54539
945.01,8.45781
950.01,8.37542
955.01,8.28538
960.01,8.18279
965.01,8.06579
970.01,7.9393
975.01,7.81088
980.01,7.66914
985.01,7.52472
990.01,7.34962
995.01,7.16804
1000.01,6.96021
1005.01,6.72408
1010.01,6.49913
1015.01,6.23025
1020.01,5.9441
1025.01,5.61744
1030.01,5.26123
1035.01,4.86159
1040.01,4.40168
1045.01,3.87929
1050.01,3.28739
1055.01,2.6475
1060.01,1.96645
1065.01,1.30045
1070.01,0.740191
1075.01,0.360899
1080.01,0.007440851
1085.01,0
1090.01,0
1095.01,0
1100.01,0
1105.01,0
1110.01,0
1115.01,0
1120.01,0
1125.01,0
1130.01,0
1135.01,0
1140.01,0
1145.01,0
1150.01,0
1155.01,0
1160.01,0
1165.01,0
1170.01,0
1175.01,0
1180.01,0
1185.01,0
1190.01,0
1195.01,0
1200,0