File: PMMA/Validation_Results/DBI/csv_files_calibrated/DBI-cal_Gasification_q25_Mass_R2.csv
Time,Mass
[s],[g]
0,27.75
5.01,27.75
10.01,27.75
15.01,27.75
20,27.75
25,27.75
30,27.75
35,27.75
40,27.7499
45.01,27.7497
50.01,27.7495
55.01,27.749
60.01,27.7482
65.01,27.747
70.01,27.7452
75,27.7427
80,27.7391
85,27.7344
90,27.7283
95,27.7205
100,27.7107
105,27.6988
110,27.6844
115,27.6674
120,27.6475
125,27.6246
130,27.5985
135,27.5691
140,27.5362
145,27.5
150,27.4601
155,27.4167
160.01,27.3695
165.01,27.319
170.01,27.2648
175.01,27.2071
180.01,27.146
185.01,27.0814
190.01,27.0134
195.01,26.9421
200.01,26.8674
205.01,26.7895
210.01,26.7083
215.01,26.624
220.01,26.5365
225.01,26.446
230.01,26.3524
235.01,26.2559
240.01,26.1565
245.01,26.0542
250.01,25.9491
255.01,25.8412
260.01,25.7307
265.01,25.6175
270.01,25.5018
275.01,25.3835
280.01,25.2628
285.01,25.1396
290.01,25.0143
295.01,24.8866
300.01,24.7566
305.01,24.6244
310.01,24.4899
315.01,24.3534
320.01,24.2148
325.01,24.0743
330.01,23.932
335.01,23.7879
340.01,23.6418
345.01,23.494
350.01,23.3445
355.01,23.1935
360.01,23.0408
365.01,22.8867
370.01,22.7311
375.01,22.5741
380.01,22.4158
385.01,22.2563
390.01,22.0956
395.01,21.9338
400.01,21.771
405.01,21.6071
410.01,21.4423
415.01,21.2767
420.01,21.1102
425.01,20.9428
430.01,20.7746
435.01,20.6055
440.01,20.4357
445.01,20.2653
450.01,20.0943
455.01,19.9225
460.01,19.7503
465.01,19.5774
470.01,19.4041
475.01,19.2302
480.01,19.0559
485.01,18.8812
490.01,18.706
495.01,18.5304
500.01,18.3546
505.01,18.1786
510.01,18.0021
515.01,17.8253
520.01,17.6482
525.01,17.4709
530.01,17.2932
535.01,17.1152
540.01,16.937
545.01,16.7585
550.01,16.5798
555.01,16.401
560.01,16.222
565.01,16.0429
570.01,15.8635
575.01,15.6837
580.01,15.5039
585.01,15.3241
590.01,15.1442
595.01,14.9645
600.01,14.7846
605.01,14.6046
610.01,14.4244
615.01,14.2442
620.01,14.0636
625.01,13.8827
630.01,13.7016
635.01,13.5204
640.01,13.3391
645.01,13.1576
650.01,12.9762
655.01,12.7947
660.01,12.6131
665.01,12.4314
670.01,12.2496
675.01,12.0679
680.01,11.8861
685.01,11.7043
690.01,11.5226
695.01,11.3408
700.01,11.1588
705.01,10.9768
710.01,10.7947
715.01,10.6126
720.01,10.4304
725.01,10.2483
730.01,10.0662
735.01,9.88425
740.01,9.70228
745.01,9.52016
750.01,9.33805
755.01,9.15595
760.01,8.97386
765.01,8.79186
770.01,8.61016
775.01,8.42856
780.01,8.24711
785.01,8.06577
790.01,7.88452
795.01,7.70338
800.01,7.52236
805.01,7.34147
810.01,7.16083
815.01,6.98037
820.01,6.80014
825.01,6.6203
830.01,6.44067
835.01,6.26136
840.01,6.0824
845.01,5.90386
850.01,5.72588
855.01,5.54829
860.01,5.37131
865.01,5.19473
870.01,5.01861
875.01,4.84297
880.01,4.6679
885.01,4.4935
890.01,4.3201
895.01,4.14764
900.01,3.97607
905.01,3.80537
910.01,3.6357
915.01,3.46692
920.01,3.29931
925.01,3.13297
930.01,2.9679
935.01,2.80421
940.01,2.64224
945.01,2.48193
950.01,2.32352
955.01,2.1671
960.01,2.0129
965.01,1.86112
970.01,1.71202
975.01,1.56589
980.01,1.42284
985.01,1.28329
990.01,1.14736
995.01,1.01533
1000.01,0.887706
1005.01,0.764857
1010.01,0.647315
1015.01,0.535777
1020.01,0.430614
1025.01,0.332859
1030.01,0.243328
1035.01,0.163041
1040.01,0.0932948
1045.01,0.0354294
1050.01,-0.009600448
1055.01,-0.0414289
1060.01,-0.0611848
1065.01,-0.0717218
1070.01,-0.0750708
1075.01,-0.0750708
1080.01,-0.0750708
1085.01,-0.0750708
1090.01,-0.0750708
1095.01,-0.0750708
1100.01,-0.0750708
1105.01,-0.0750708
1110.01,-0.0750708
1115.01,-0.0750708
1120.01,-0.0750708
1125.01,-0.0750708
1130.01,-0.0750708
1135.01,-0.0750708
1140.01,-0.0750708
1145.01,-0.0750708
1150.01,-0.0750708
1155.01,-0.0750708
1160.01,-0.0750708
1165.01,-0.0750708
1170.01,-0.0750708
1175.01,-0.0750708
1180.01,-0.0750708
1185.01,-0.0750708
1190.01,-0.0750708
1195.01,-0.0750708
1200,-0.0750708