File: PMMA/Validation_Results/DBI/csv_files_calibrated/DBI-cal_Gasification_q50_MLR_R5.csv
Time,MLR
[s],[g/m2/s]
0,0
2,6.47992E-07
4.01,9.07189E-06
6.01,0.000107836
8.01,0.00071912
10.01,0.003284438
12.01,0.011465
14.01,0.0327229
16.01,0.0797007
18,0.171651
20,0.332545
22,0.590158
24,0.968294
26,1.48057
28,2.12418
30,2.87809
32,3.70714
34,4.57005
36,5.42867
38,6.255
40,7.03196
42,7.75137
44.01,8.40518
46.01,9.0007
48.01,9.5468
50.01,10.0537
52.01,10.5208
54.01,10.9491
56.01,11.3428
58.01,11.7044
60.01,12.0378
62.01,12.3503
64.01,12.6461
66.01,12.9224
68.01,13.1794
70.01,13.4173
72.01,13.6392
74,13.8594
76,14.0725
78,14.2708
80,14.4587
82,14.6389
84,14.8224
86,15.0086
88,15.1795
90,15.3343
92,15.4934
94,15.6614
96,15.8212
98,15.9688
100,16.1135
102,16.2599
104,16.4053
106,16.5493
108,16.6906
110,16.8283
112,16.9638
114,17.0945
116,17.2212
118,17.3499
120,17.4815
122,17.6234
124,17.7783
126,17.9245
128,18.0557
130,18.1854
132,18.3195
134,18.4554
136,18.5884
138,18.7207
140,18.8545
142,18.9883
144,19.1212
146,19.2543
148,19.3887
150,19.5244
152,19.6598
154,19.793
156,19.9207
158,20.0444
160.01,20.1746
162.01,20.3214
164.01,20.4713
166.01,20.617
168.01,20.7609
170.01,20.9007
172.01,21.0381
174.01,21.1734
176.01,21.3081
178.01,21.4474
180.01,21.5919
182.01,21.7401
184.01,21.8919
186.01,22.0388
188.01,22.1775
190.01,22.313
192.01,22.4505
194.01,22.5914
196.01,22.7341
198.01,22.878
200.01,23.0209
202.01,23.161
204.01,23.2964
206.01,23.4282
208.01,23.5676
210.01,23.7208
212.01,23.8765
214.01,24.0146
216.01,24.1392
218.01,24.2672
220.01,24.3989
222.01,24.5295
224.01,24.6603
226.01,24.7916
228.01,24.919
230.01,25.0442
232.01,25.1696
234.01,25.2865
236.01,25.3957
238.01,25.4974
240.01,25.5868
242.01,25.6834
244.01,25.795
246.01,25.909
248.01,26.0098
250.01,26.0942
252.01,26.1822
254.01,26.2713
256.01,26.3476
258.01,26.417
260.01,26.4863
262.01,26.5572
264.01,26.6306
266.01,26.7072
268.01,26.7868
270.01,26.8618
272.01,26.9218
274.01,26.9737
276.01,27.0276
278.01,27.076
280.01,27.1151
282.01,27.1551
284.01,27.1971
286.01,27.2457
288.01,27.309
290.01,27.3818
292.01,27.4587
294.01,27.556
296.01,27.7388
298.01,27.8796
300.01,27.9334
302.01,27.9801
304.01,27.9982
306.01,28.0258
308.01,28.0566
310.01,28.0713
312.01,28.0884
314.01,28.0978
316.01,28.0903
318.01,28.0747
320.01,28.0599
322.01,28.0505
324.01,28.0616
326.01,28.0571
328.01,28.0057
330.01,27.9597
332.01,27.9336
334.01,27.8803
336.01,27.8117
338.01,27.7524
340.01,27.6478
342.01,27.4988
344.01,27.3872
346.01,27.2323
348.01,27.0011
350.01,26.789
352.01,26.5253
354.01,26.2129
356.01,25.8413
358.01,25.3974
360.01,24.8097
362.01,24.1061
364.01,23.3608
366.01,22.2976
368.01,20.5799
370.01,17.6882
372.01,12.919
374.01,5.75585
376.01,0.764213
378.01,0
380.01,0
382.01,0
384.01,0
386.01,0
388.01,0
390.01,0
392.01,0
394.01,0
396.01,0
398.01,0
400.01,0
402.01,0
404.01,0
406.01,0
408.01,0
410.01,0
412.01,0
414.01,0
416.01,0
418.01,0
420.01,0
422.01,0
424.01,0
426.01,0
428.01,0
430.01,0
432.01,0
434.01,0
436.01,0
438.01,0
440.01,0
442.01,0
444.01,0
446.01,0
448.01,0
450.01,0
452.01,0
454.01,0
456.01,0
458.01,0
460.01,0
462.01,0
464.01,0
466.01,0
468.01,0
470.01,0
472.01,0
474.01,0
476.01,0
478.01,0
480.01,0
482.01,0
484.01,0
486.01,0
488.01,0
490.01,0
492.01,0
494.01,0
496.01,0
498.01,0
500,0