File: PMMA/Validation_Results/DBI/csv_files_calibrated/DBI-cal_Gasification_q25_Temp_R2.csv
Time,Back Surface Temperature
[s],[K]
0,298.15
5.01,298.15
10.01,298.15
15.01,298.161
20,298.246
25,298.539
30,299.181
35,300.28
40,301.893
45.01,304.042
50.01,306.709
55.01,309.899
60.01,313.6
65.01,317.632
70.01,321.915
75,326.398
80,331.078
85,335.918
90,340.885
95,345.948
100,351.08
105,356.259
110,361.465
115,366.678
120,371.885
125,377.071
130,382.2223
135,387.329
140,392.383
145,397.376
150,402.2993
155,407.147
160.01,411.921
165.01,416.608
170.01,421.2024
175.01,425.707
180.01,430.116
185.01,434.432
190.01,438.649
195.01,442.769
200.01,446.79
205.01,450.713
210.01,454.538
215.01,458.263
220.01,461.893
225.01,465.425
230.01,468.861
235.01,472.203
240.01,475.452
245.01,478.608
250.01,481.673
255.01,484.6475
260.01,487.535
265.01,490.335
270.01,493.05
275.01,495.681
280.01,498.229
285.01,500.696
290.01,503.0828
295.01,505.393
300.01,507.627
305.01,509.7849
310.01,511.87
315.01,513.885
320.01,515.83
325.01,517.709
330.01,519.522
335.01,521.271
340.01,522.96
345.01,524.5886
350.01,526.161
355.01,527.677
360.01,529.139
365.01,530.5516
370.01,531.915
375.01,533.231
380.01,534.504
385.01,535.733
390.01,536.921
395.01,538.073
400.01,539.188
405.01,540.267
410.01,541.315
415.01,542.333
420.01,543.3208
425.01,544.2812
430.01,545.217
435.01,546.1295
440.01,547.02
445.01,547.89
450.01,548.743
455.01,549.578
460.01,550.397
465.01,551.204
470.01,551.994
475.01,552.773
480.01,553.541
485.01,554.298
490.01,555.047
495.01,555.788
500.01,556.52
505.01,557.245
510.01,557.9659
515.01,558.679
520.01,559.389
525.01,560.094
530.01,560.796
535.01,561.497
540.01,562.194
545.01,562.89
550.01,563.586
555.01,564.28
560.01,564.974
565.01,565.666
570.01,566.357
575.01,567.052
580.01,567.747
585.01,568.444
590.01,569.141
595.01,569.838
600.01,570.537
605.01,571.234
610.01,571.936
615.01,572.642
620.01,573.35
625.01,574.067
630.01,574.788
635.01,575.515
640.01,576.246
645.01,576.979
650.01,577.719
655.01,578.46
660.01,579.205
665.01,579.959
670.01,580.715
675.01,581.4802
680.01,582.246
685.01,583.021
690.01,583.801
695.01,584.584
700.01,585.381
705.01,586.184
710.01,586.997
715.01,587.818
720.01,588.646
725.01,589.485
730.01,590.327
735.01,591.18
740.01,592.037
745.01,592.912
750.01,593.803
755.01,594.698
760.01,595.6084
765.01,596.5269
770.01,597.447
775.01,598.384
780.01,599.331
785.01,600.296
790.01,601.274
795.01,602.2683
800.01,603.281
805.01,604.305
810.01,605.346
815.01,606.401
820.01,607.474
825.01,608.559
830.01,609.666
835.01,610.795
840.01,611.939
845.01,613.1
850.01,614.278
855.01,615.4855
860.01,616.701
865.01,617.967
870.01,619.25
875.01,620.566
880.01,621.908
885.01,623.263
890.01,624.635
895.01,626.028
900.01,627.478
905.01,628.947
910.01,630.478
915.01,632.025
920.01,633.602
925.01,635.2293
930.01,636.8982
935.01,638.596
940.01,640.316
945.01,642.1068
950.01,643.923
955.01,645.785
960.01,647.694
965.01,649.649
970.01,651.654
975.01,653.696
980.01,655.824
985.01,657.9906
990.01,660.315
995.01,662.698
1000.01,665.2246
1005.01,667.855
1010.01,670.6595
1015.01,673.69
1020.01,677.02
1025.01,680.689
1030.01,684.748
1035.01,689.265
1040.01,694.475
1045.01,699.973
1050.01,706.238
1055.01,712.32
1060.01,717.96
1065.01,722.06
1070.01,728.885
1075.01,730.906
1080.01,731.915
1085.01,732.789
1090.01,733.414
1095.01,734.147
1100.01,734.6702
1105.01,735.231
1110.01,735.676
1115.01,736.016
1120.01,736.5298
1125.01,736.784
1130.01,737.158
1135.01,737.526
1140.01,737.874
1145.01,738.156
1150.01,738.401
1155.01,738.675
1160.01,738.899
1165.01,739.158
1170.01,739.647
1175.01,739.935
1180.01,740.187
1185.01,740.467
1190.01,740.771
1195.01,741.04
1200,741.259