File: PMMA/Validation_Results/DBI/csv_files_calibrated/DBI-cal_Gasification_q25_MLR_R2.csv
Time,MLR
[s],[g/m2/s]
0,0
5.01,0
10.01,1.29922E-06
15.01,1.29922E-05
20,7.86031E-05
25,0.000313763
30,0.000956229
35,0.002417206
40,0.005311228
45.01,0.0104703
50.01,0.0189232
55.01,0.0318329
60.01,0.0506067
65.01,0.07669969
70.01,0.111412
75,0.156089
80,0.212168
85,0.28037
90,0.361227
95,0.455353
100,0.562293
105,0.681272
110,0.813563
115,0.958021
120,1.11173
125,1.27273
130,1.44104
135,1.61598
140,1.79479
145,1.97757
150,2.1648
155,2.35082
160.01,2.53598
165.01,2.72266
170.01,2.90557
175.01,3.08767
180.01,3.26777
185.01,3.4445
190.01,3.62031
195.01,3.79465
200.01,3.96545
205.01,4.13375
210.01,4.30061
215.01,4.46538
220.01,4.6267
225.01,4.78405
230.01,4.94006
235.01,5.09191
240.01,5.24064
245.01,5.38929
250.01,5.5353
255.01,5.6743
260.01,5.81201
265.01,5.94889
270.01,6.08101
275.01,6.20977
280.01,6.34034
285.01,6.45698
290.01,6.57435
295.01,6.69922
300.01,6.81058
305.01,6.93199
310.01,7.04074
315.01,7.14734
320.01,7.25491
325.01,7.34764
330.01,7.44191
335.01,7.54122
340.01,7.63776
345.01,7.72702
350.01,7.80752
355.01,7.8911
360.01,7.97264
365.01,8.04932
370.01,8.12369
375.01,8.19274
380.01,8.25735
385.01,8.31849
390.01,8.38234
395.01,8.43774
400.01,8.48675
405.01,8.54073
410.01,8.58536
415.01,8.62802
420.01,8.67878
425.01,8.72234
430.01,8.76353
435.01,8.80582
440.01,8.83854
445.01,8.87294
450.01,8.90905
455.01,8.93902
460.01,8.96642
465.01,8.99659
470.01,9.02179
475.01,9.04569
480.01,9.07039
485.01,9.09281
490.01,9.11437
495.01,9.13016
500.01,9.14452
505.01,9.15671
510.01,9.18254
515.01,9.1992
520.01,9.20465
525.01,9.22376
530.01,9.2426
535.01,9.25714
540.01,9.26798
545.01,9.28311
550.01,9.29305
555.01,9.29475
560.01,9.30641
565.01,9.3081
570.01,9.33683
575.01,9.34696
580.01,9.3429
585.01,9.34695
590.01,9.34521
595.01,9.34391
600.01,9.35106
605.01,9.35644
610.01,9.36586
615.01,9.37694
620.01,9.39433
625.01,9.40639
630.01,9.41462
635.01,9.41796
640.01,9.42701
645.01,9.42979
650.01,9.43082
655.01,9.4325
660.01,9.44572
665.01,9.44263
670.01,9.44527
675.01,9.4436
680.01,9.45031
685.01,9.44505
690.01,9.44467
695.01,9.45315
700.01,9.45775
705.01,9.46036
710.01,9.46462
715.01,9.46529
720.01,9.46714
725.01,9.46421
730.01,9.4617
735.01,9.45117
740.01,9.46244
745.01,9.46561
750.01,9.46222
755.01,9.46486
760.01,9.46215
765.01,9.44942
770.01,9.43975
775.01,9.43407
780.01,9.42734
785.01,9.42013
790.01,9.41765
795.01,9.41072
800.01,9.40405
805.01,9.39465
810.01,9.38232
815.01,9.3744
820.01,9.35449
825.01,9.34047
830.01,9.32864
835.01,9.30876
840.01,9.2902
845.01,9.26376
850.01,9.23837
855.01,9.21614
860.01,9.18423
865.01,9.16548
870.01,9.14162
875.01,9.11193
880.01,9.08545
885.01,9.03396
890.01,8.99082
895.01,8.93532
900.01,8.89906
905.01,8.83839
910.01,8.79983
915.01,8.74116
920.01,8.67789
925.01,8.61071
930.01,8.54401
935.01,8.46442
940.01,8.37438
945.01,8.28241
950.01,8.18214
955.01,8.0725
960.01,7.95297
965.01,7.81968
970.01,7.67407
975.01,7.51503
980.01,7.34648
985.01,7.15676
990.01,6.96733
995.01,6.74809
1000.01,6.51516
1005.01,6.24972
1010.01,5.95607
1015.01,5.63507
1020.01,5.28078
1025.01,4.87217
1030.01,4.42055
1035.01,3.90792
1040.01,3.32542
1045.01,2.67823
1050.01,1.99615
1055.01,1.32375
1060.01,0.763739
1065.01,0.373854
1070.01,0.01321824
1075.01,0
1080.01,0
1085.01,0
1090.01,0
1095.01,0
1100.01,0
1105.01,0
1110.01,0
1115.01,0
1120.01,0
1125.01,0
1130.01,0
1135.01,0
1140.01,0
1145.01,0
1150.01,0
1155.01,0
1160.01,0
1165.01,0
1170.01,0
1175.01,0
1180.01,0
1185.01,0
1190.01,0
1195.01,0
1200,0