File: PMMA/Validation_Results/DBI/csv_files_calibrated/DBI-cal_Gasification_q50_Temp_R3.csv
Time,Temp
[s],[K]
0,298.15
2,298.15
4.01,298.15
6.01,298.15
8.01,298.15
10.01,298.151
12.01,298.153
14.01,298.163
16.01,298.19
18,298.248
20,298.356
22,298.534
24,298.804
26,299.184
28,299.692
30,300.344
32,301.15
34,302.12
36,303.261
38,304.576
40,306.068
42,307.739
44.01,309.606
46.01,311.67
48.01,313.895
50.01,316.241
52.01,318.696
54.01,321.252
56.01,323.899
58.01,326.632
60.01,329.444
62.01,332.331
64.01,335.286
66.01,338.298
68.01,341.361
70.01,344.466
72.01,347.608
74,350.765
76,353.962
78,357.18
80,360.413
82,363.658
84,366.91
86,370.168
88,373.427
90,376.686
92,379.941
94,383.191
96,386.434
98,389.669
100,392.893
102,396.107
104,399.307
106,402.495
108,405.671
110,408.833
112,411.98
114,415.112
116,418.227
118,421.326
120,424.407
122,427.47
124,430.516
126,433.543
128,436.552
130,439.543
132,442.515
134,445.469
136,448.403
138,451.318
140,454.214
142,457.09
144,459.947
146,462.784
148,465.601
150,468.398
152,471.174
154,473.93
156,476.665
158,479.379
160.01,482.077
162.01,484.753
164.01,487.401
166.01,490.027
168.01,492.629
170.01,495.208
172.01,497.765
174.01,500.298
176.01,502.807
178.01,505.291
180.01,507.751
182.01,510.185
184.01,512.593
186.01,514.975
188.01,517.331
190.01,519.658
192.01,521.959
194.01,524.231
196.01,526.474
198.01,528.689
200.01,530.875
202.01,533.031
204.01,535.157
206.01,537.253
208.01,539.318
210.01,541.353
212.01,543.356
214.01,545.331
216.01,547.273
218.01,549.186
220.01,551.068
222.01,552.921
224.01,554.744
226.01,556.538
228.01,558.305
230.01,560.044
232.01,561.757
234.01,563.444
236.01,565.108
238.01,566.748
240.01,568.366
242.01,569.964
244.01,571.542
246.01,573.103
248.01,574.648
250.01,576.18
252.01,577.7
254.01,579.21
256.01,580.711
258.01,582.207
260.01,583.698
262.01,585.185
264.01,586.673
266.01,588.161
268.01,589.655
270.01,591.154
272.01,592.661
274.01,594.177
276.01,595.703
278.01,597.243
280.01,598.798
282.01,600.37
284.01,601.962
286.01,603.57
288.01,605.201
290.01,606.856
292.01,608.542
294.01,610.262
296.01,612.01
298.01,613.787
300.01,615.599
302.01,617.449
304.01,619.344
306.01,621.277
308.01,623.256
310.01,625.29
312.01,627.374
314.01,629.513
316.01,631.717
318.01,633.986
320.01,636.328
322.01,638.759
324.01,641.322
326.01,643.981
328.01,646.745
330.01,649.544
332.01,652.447
334.01,655.448
336.01,658.574
338.01,661.779
340.01,665.139
342.01,668.624
344.01,672.25
346.01,675.985
348.01,679.928
350.01,683.987
352.01,688.216
354.01,692.776
356.01,697.438
358.01,702.677
360.01,708.175
362.01,714.52
364.01,721.383
366.01,730.19
368.01,743.277
370.01,765.033
372.01,807.627
374.01,844.855
376.01,853.122
378.01,857.757
380.01,860.948
382.01,863.323
384.01,865.207
386.01,866.742
388.01,868.122
390.01,869.404
392.01,870.325
394.01,871.194
396.01,872.097
398.01,872.963
400.01,873.668
402.01,874.261
404.01,874.718
406.01,875.357
408.01,875.983
410.01,876.487
412.01,876.907
414.01,877.276
416.01,877.734
418.01,878.188
420.01,878.576
422.01,878.824
424.01,879.152
426.01,879.511
428.01,879.861
430.01,880.133
432.01,880.459
434.01,880.793
436.01,881.044
438.01,881.278
440.01,881.559
442.01,881.773
444.01,881.924
446.01,882.183
448.01,882.374
450.01,882.613
452.01,882.87
454.01,883.162
456.01,883.32
458.01,883.49
460.01,883.839
462.01,883.91
464.01,884.137
466.01,884.429
468.01,884.624
470.01,884.774
472.01,885.017
474.01,885.112
476.01,885.282
478.01,885.468
480.01,885.563
482.01,885.82
484.01,886.093
486.01,886.213
488.01,886.358
490.01,886.503
492.01,886.669
494.01,886.887
496.01,886.951
498.01,887.139
500,887.376