File: PMMA/Validation_Results/DBI/csv_files_calibrated/DBI-cal_Gasification_q25_MLR_R3.csv
Time,MLR
[s],[g/m2/s]
0,0
5.01,0
10.01,1.29922E-06
15.01,1.36419E-05
20,8.18511E-05
25,0.000324156
30,0.00098741
35,0.00249451
40,0.005477528
45.01,0.0107891
50.01,0.01948901
55.01,0.0327716
60.01,0.0520969
65.01,0.0789837
70.01,0.11482
75,0.161026
80,0.219266
85,0.290385
90,0.37518
95,0.474542
100,0.588695
105,0.716957
110,0.858115
115,1.01142
120,1.17602
125,1.35053
130,1.53444
135,1.72438
140,1.91937
145,2.11736
150,2.31779
155,2.52111
160.01,2.72018
165.01,2.92381
170.01,3.12393
175.01,3.32504
180.01,3.51957
185.01,3.71199
190.01,3.90685
195.01,4.09242
200.01,4.2787
205.01,4.46492
210.01,4.64518
215.01,4.81827
220.01,4.9878
225.01,5.15498
230.01,5.32343
235.01,5.48886
240.01,5.64923
245.01,5.80609
250.01,5.9533
255.01,6.10423
260.01,6.25089
265.01,6.39582
270.01,6.53358
275.01,6.66274
280.01,6.79442
285.01,6.91959
290.01,7.04352
295.01,7.16544
300.01,7.28051
305.01,7.38646
310.01,7.48703
315.01,7.59486
320.01,7.6956
325.01,7.78819
330.01,7.87956
335.01,7.96746
340.01,8.04849
345.01,8.12134
350.01,8.19401
355.01,8.26657
360.01,8.33871
365.01,8.40407
370.01,8.46283
375.01,8.52073
380.01,8.57309
385.01,8.61939
390.01,8.65165
395.01,8.69554
400.01,8.73371
405.01,8.77397
410.01,8.81782
415.01,8.85074
420.01,8.89136
425.01,8.91354
430.01,8.94755
435.01,8.98323
440.01,9.0069
445.01,9.03063
450.01,9.05539
455.01,9.07547
460.01,9.09592
465.01,9.11416
470.01,9.13536
475.01,9.1522
480.01,9.16921
485.01,9.18512
490.01,9.19862
495.01,9.21265
500.01,9.22468
505.01,9.23021
510.01,9.2381
515.01,9.24805
520.01,9.26054
525.01,9.27229
530.01,9.28671
535.01,9.29628
540.01,9.30299
545.01,9.30796
550.01,9.31658
555.01,9.33022
560.01,9.34013
565.01,9.34838
570.01,9.35481
575.01,9.34848
580.01,9.36061
585.01,9.36424
590.01,9.37145
595.01,9.37985
600.01,9.37977
605.01,9.38826
610.01,9.38932
615.01,9.39086
620.01,9.39228
625.01,9.39868
630.01,9.40617
635.01,9.40576
640.01,9.4013
645.01,9.40223
650.01,9.40428
655.01,9.41472
660.01,9.41376
665.01,9.40805
670.01,9.4075
675.01,9.41248
680.01,9.41166
685.01,9.40295
690.01,9.40354
695.01,9.40027
700.01,9.39794
705.01,9.39069
710.01,9.3892
715.01,9.38189
720.01,9.3822
725.01,9.36519
730.01,9.35016
735.01,9.35479
740.01,9.34641
745.01,9.34206
750.01,9.33072
755.01,9.31929
760.01,9.30769
765.01,9.29462
770.01,9.28249
775.01,9.26909
780.01,9.24745
785.01,9.22406
790.01,9.20124
795.01,9.18054
800.01,9.1485
805.01,9.12115
810.01,9.10014
815.01,9.07652
820.01,9.03111
825.01,8.99423
830.01,8.96795
835.01,8.92473
840.01,8.86756
845.01,8.81966
850.01,8.77345
855.01,8.7221
860.01,8.65755
865.01,8.59292
870.01,8.51993
875.01,8.43083
880.01,8.35562
885.01,8.25752
890.01,8.16351
895.01,8.04863
900.01,7.92713
905.01,7.80634
910.01,7.67209
915.01,7.52049
920.01,7.35149
925.01,7.16714
930.01,6.98548
935.01,6.77286
940.01,6.53721
945.01,6.28028
950.01,6.00074
955.01,5.68659
960.01,5.33377
965.01,4.94873
970.01,4.50455
975.01,4.01371
980.01,3.46697
985.01,2.8539
990.01,2.18486
995.01,1.51393
1000.01,0.916407
1005.01,0.475705
1010.01,0.105933
1015.01,0
1020.01,0
1025.01,0
1030.01,0
1035.01,0
1040.01,0
1045.01,0
1050.01,0
1055.01,0
1060.01,0
1065.01,0
1070.01,0
1075.01,0
1080.01,0
1085.01,0
1090.01,0
1095.01,0
1100.01,0
1105.01,0
1110.01,0
1115.01,0
1120.01,0
1125.01,0
1130.01,0
1135.01,0
1140.01,0
1145.01,0
1150.01,0
1155.01,0
1160.01,0
1165.01,0
1170.01,0
1175.01,0
1180.01,0
1185.01,0
1190.01,0
1195.01,0
1200,0