File: PMMA/Validation_Results/DBI/csv_files_calibrated/DBI-cal_Gasification_q50_Temp_R4.csv
Time,Temp
[s],[K]
0,298.15
2,298.15
4.01,298.15
6.01,298.15
8.01,298.15
10.01,298.151
12.01,298.154
14.01,298.165
16.01,298.194
18,298.258
20,298.375
22,298.568
24,298.857
26,299.263
28,299.803
30,300.492
32,301.342
34,302.362
36,303.558
38,304.934
40,306.491
42,308.234
44.01,310.183
46.01,312.326
48.01,314.622
50.01,317.034
52.01,319.555
54.01,322.177
56.01,324.89
58.01,327.689
60.01,330.568
62.01,333.521
64.01,336.539
66.01,339.614
68.01,342.736
70.01,345.9
72.01,349.099
74,352.309
76,355.559
78,358.828
80,362.11
82,365.402
84,368.7
86,372.002
88,375.304
90,378.603
92,381.897
94,385.186
96,388.465
98,391.735
100,394.994
102,398.24
104,401.472
106,404.69
108,407.896
110,411.088
112,414.262
114,417.421
116,420.561
118,423.684
120,426.789
122,429.875
124,432.943
126,435.992
128,439.022
130,442.033
132,445.024
134,447.995
136,450.947
138,453.878
140,456.79
142,459.68
144,462.55
146,465.4
148,468.229
150,471.037
152,473.824
154,476.589
156,479.333
158,482.055
160.01,484.759
162.01,487.44
164.01,490.093
166.01,492.722
168.01,495.327
170.01,497.908
172.01,500.465
174.01,502.999
176.01,505.505
178.01,507.987
180.01,510.444
182.01,512.874
184.01,515.276
186.01,517.651
188.01,519.999
190.01,522.317
192.01,524.607
194.01,526.869
196.01,529.1
198.01,531.303
200.01,533.473
202.01,535.614
204.01,537.725
206.01,539.803
208.01,541.851
210.01,543.866
212.01,545.852
214.01,547.805
216.01,549.727
218.01,551.619
220.01,553.481
222.01,555.313
224.01,557.116
226.01,558.891
228.01,560.636
230.01,562.356
232.01,564.049
234.01,565.719
236.01,567.366
238.01,568.993
240.01,570.6
242.01,572.188
244.01,573.759
246.01,575.315
248.01,576.858
250.01,578.389
252.01,579.91
254.01,581.422
256.01,582.928
258.01,584.429
260.01,585.927
262.01,587.427
264.01,588.93
266.01,590.438
268.01,591.952
270.01,593.472
272.01,595.004
274.01,596.547
276.01,598.107
278.01,599.682
280.01,601.273
282.01,602.885
284.01,604.519
286.01,606.18
288.01,607.867
290.01,609.579
292.01,611.322
294.01,613.095
296.01,614.904
298.01,616.754
300.01,618.642
302.01,620.575
304.01,622.554
306.01,624.577
308.01,626.65
310.01,628.781
312.01,630.98
314.01,633.248
316.01,635.581
318.01,637.981
320.01,640.455
322.01,643.001
324.01,645.629
326.01,648.339
328.01,651.13
330.01,654.025
332.01,657.025
334.01,660.132
336.01,663.345
338.01,666.653
340.01,670.08
342.01,673.645
344.01,677.335
346.01,681.14
348.01,685.115
350.01,689.28
352.01,693.619
354.01,698.199
356.01,703.124
358.01,708.528
360.01,714.688
362.01,722.139
364.01,731.889
366.01,746.043
368.01,770.043
370.01,818.1
372.01,846.582
374.01,853.991
376.01,858.338
378.01,861.357
380.01,863.706
382.01,865.633
384.01,867.212
386.01,868.502
388.01,869.607
390.01,870.619
392.01,871.499
394.01,872.325
396.01,873.034
398.01,873.794
400.01,874.293
402.01,874.867
404.01,875.463
406.01,876
408.01,876.513
410.01,876.945
412.01,877.408
414.01,877.78
416.01,878.261
418.01,878.658
420.01,878.898
422.01,879.278
424.01,879.594
426.01,879.764
428.01,880.093
430.01,880.391
432.01,880.718
434.01,880.978
436.01,881.186
438.01,881.582
440.01,881.81
442.01,881.986
444.01,882.279
446.01,882.484
448.01,882.779
450.01,882.958
452.01,883.207
454.01,883.417
456.01,883.63
458.01,883.819
460.01,883.996
462.01,884.264
464.01,884.332
466.01,884.568
468.01,884.848
470.01,885.03
472.01,885.187
474.01,885.301
476.01,885.439
478.01,885.637
480.01,885.84
482.01,886.009
484.01,886.197
486.01,886.312
488.01,886.423
490.01,886.686
492.01,886.932
494.01,887.063
496.01,887.223
498.01,887.389
500,887.516