File: PMMA/Validation_Results/DBI/csv_files_calibrated/DBI-cal_Gasification_q50_MLR_R3.csv
Time,MLR
[s],[g/m2/s]
0,0
2,6.47992E-07
4.01,9.71988E-06
6.01,0.000109784
8.01,0.000729514
10.01,0.00333251
12.01,0.0116313
14.01,0.0331828
16.01,0.0807805
18,0.173883
20,0.336665
22,0.597049
24,0.978813
26,1.49531
28,2.14327
30,2.90108
32,3.73312
34,4.59789
36,5.45728
38,6.28352
40,7.05984
42,7.7783
44.01,8.43109
46.01,9.02572
48.01,9.57125
50.01,10.0779
52.01,10.5452
54.01,10.974
56.01,11.3688
58.01,11.7321
60.01,12.0677
62.01,12.3832
64.01,12.6824
66.01,12.9629
68.01,13.2248
70.01,13.4684
72.01,13.6972
74,13.925
76,14.1447
78,14.3494
80,14.5446
82,14.7335
84,14.928
86,15.1255
88,15.3047
90,15.4705
92,15.641
94,15.8184
96,15.9978
98,16.1724
100,16.3377
102,16.4938
104,16.6459
106,16.7995
108,16.9561
110,17.1087
112,17.2564
114,17.4043
116,17.5524
118,17.703
120,17.8574
122,18.0124
124,18.1662
126,18.3194
128,18.4721
130,18.6258
132,18.7806
134,18.9341
136,19.0851
138,19.2334
140,19.3821
142,19.5343
144,19.6879
146,19.8398
148,19.9909
150,20.142
152,20.2939
154,20.4484
156,20.6012
158,20.749
160.01,20.895
162.01,21.0456
164.01,21.2044
166.01,21.3696
168.01,21.5326
170.01,21.6925
172.01,21.8559
174.01,22.0183
176.01,22.1732
178.01,22.317
180.01,22.4471
182.01,22.5785
184.01,22.7334
186.01,22.907
188.01,23.0749
190.01,23.2317
192.01,23.3748
194.01,23.5056
196.01,23.6487
198.01,23.8118
200.01,23.9724
202.01,24.1193
204.01,24.2626
206.01,24.407
208.01,24.5477
210.01,24.6833
212.01,24.8157
214.01,24.942
216.01,25.0669
218.01,25.2003
220.01,25.3333
222.01,25.454
224.01,25.5618
226.01,25.6627
228.01,25.7603
230.01,25.8595
232.01,25.9662
234.01,26.0682
236.01,26.1531
238.01,26.2247
240.01,26.2907
242.01,26.3578
244.01,26.433
246.01,26.5094
248.01,26.5845
250.01,26.6637
252.01,26.7338
254.01,26.7912
256.01,26.857
258.01,26.935
260.01,27.0097
262.01,27.0653
264.01,27.1004
266.01,27.1373
268.01,27.1769
270.01,27.2122
272.01,27.2517
274.01,27.2904
276.01,27.3163
278.01,27.3339
280.01,27.3532
282.01,27.3795
284.01,27.4165
286.01,27.4566
288.01,27.4933
290.01,27.52
292.01,27.5303
294.01,27.5284
296.01,27.5179
298.01,27.5059
300.01,27.4992
302.01,27.4933
304.01,27.4917
306.01,27.5046
308.01,27.5124
310.01,27.4841
312.01,27.4197
314.01,27.3309
316.01,27.2392
318.01,27.1746
320.01,27.1291
322.01,27.0626
324.01,26.9526
326.01,26.8017
328.01,26.6201
330.01,26.4008
332.01,26.1402
334.01,25.8707
336.01,25.5781
338.01,25.2101
340.01,24.7689
342.01,24.2624
344.01,23.665
346.01,22.9491
348.01,22.0725
350.01,20.9542
352.01,19.4568
354.01,17.2337
356.01,13.31
358.01,6.48816
360.01,1.11639
362.01,0
364.01,0
366.01,0
368.01,0
370.01,0
372.01,0
374.01,0
376.01,0
378.01,0
380.01,0
382.01,0
384.01,0
386.01,0
388.01,0
390.01,0
392.01,0
394.01,0
396.01,0
398.01,0
400.01,0
402.01,0
404.01,0
406.01,0
408.01,0
410.01,0
412.01,0
414.01,0
416.01,0
418.01,0
420.01,0
422.01,0
424.01,0
426.01,0
428.01,0
430.01,0
432.01,0
434.01,0
436.01,0
438.01,0
440.01,0
442.01,0
444.01,0
446.01,0
448.01,0
450.01,0
452.01,0
454.01,0
456.01,0
458.01,0
460.01,0
462.01,0
464.01,0
466.01,0
468.01,0
470.01,0
472.01,0
474.01,0
476.01,0
478.01,0
480.01,0
482.01,0
484.01,0
486.01,0
488.01,0
490.01,0
492.01,0
494.01,0
496.01,0
498.01,0
500,0