File: PMMA/Validation_Results/DBI/csv_files_calibrated/DBI_Gasification_q50_Mass_R5.csv
Time,Mass
[s],[g]
0,28.113
2,28.113
4.01,28.113
6.01,28.113
8.01,28.113
10.01,28.113
12.01,28.1129
14.01,28.1128
16.01,28.1124
18,28.1116
20,28.1098
22,28.1065
24,28.1007
26,28.0916
28,28.0779
30,28.0589
32,28.0336
34,28.0018
36,27.9633
38,27.9182
40,27.867
42,27.81
44.01,27.7474
46.01,27.6803
48.01,27.6088
50.01,27.5333
52.01,27.454
54.01,27.3714
56.01,27.2855
58.01,27.1967
60.01,27.1053
62.01,27.0114
64.01,26.9152
66.01,26.8168
68.01,26.7163
70.01,26.6139
72.01,26.5097
74,26.4044
76,26.2969
78,26.1878
80,26.0772
82,25.9652
84,25.8519
86,25.7371
88,25.6209
90,25.5034
92,25.3848
94,25.2649
96,25.1437
98,25.0214
100,24.8979
102,24.7733
104,24.6476
106,24.5208
108,24.3928
110,24.2638
112,24.1338
114,24.0027
116,23.8706
118,23.7376
120,23.6035
122,23.4685
124,23.3323
126,23.1948
128,23.0563
130,22.9169
132,22.7764
134,22.6349
136,22.4923
138,22.3487
140,22.2041
142,22.0585
144,21.9118
146,21.7641
148,21.6154
150,21.4657
152,21.3149
154,21.163
156,21.0102
158,20.8564
160.01,20.7008
162.01,20.545
164.01,20.388
166.01,20.2299
168.01,20.0706
170.01,19.9103
172.01,19.7489
174.01,19.5864
176.01,19.423
178.01,19.2584
180.01,19.0928
182.01,18.9261
184.01,18.7581
186.01,18.5891
188.01,18.4189
190.01,18.2477
192.01,18.0754
194.01,17.9021
196.01,17.7276
198.01,17.5521
200.01,17.3754
202.01,17.1977
204.01,17.0189
206.01,16.8391
208.01,16.6583
210.01,16.4763
212.01,16.2931
214.01,16.1088
216.01,15.9234
218.01,15.7372
220.01,15.5499
222.01,15.3616
224.01,15.1723
226.01,14.9819
228.01,14.7906
230.01,14.5983
232.01,14.4051
234.01,14.2109
236.01,14.0158
238.01,13.82
240.01,13.6233
242.01,13.4261
244.01,13.228
246.01,13.029
248.01,12.8291
250.01,12.6286
252.01,12.4275
254.01,12.2256
256.01,12.023
258.01,11.82
260.01,11.6164
262.01,11.4122
264.01,11.2076
266.01,11.0023
268.01,10.7964
270.01,10.59
272.01,10.3829
274.01,10.1755
276.01,9.96771
278.01,9.75947
280.01,9.5509
282.01,9.34206
284.01,9.13288
286.01,8.9234
288.01,8.71347
290.01,8.50301
292.01,8.29196
294.01,8.08031
296.01,7.86777
298.01,7.65331
300.01,7.43859
302.01,7.2233
304.01,7.007875
306.01,6.79231
308.01,6.57645
310.01,6.36041
312.01,6.14433
314.01,5.92802
316.01,5.7118
318.01,5.4956
320.01,5.27962
322.01,5.06366
324.01,4.84781
326.01,4.63168
328.01,4.41591
330.01,4.20057
332.01,3.9855
334.01,3.77056
336.01,3.55632
338.01,3.34244
340.01,3.1291
342.01,2.91683
344.01,2.70579
346.01,2.49524
348.01,2.28658
350.01,2.07959
352.01,1.8742
354.01,1.67126
356.01,1.47068
358.01,1.27347
360.01,1.07972
362.01,0.891551
364.01,0.708638
366.01,0.531939
368.01,0.365394
370.01,0.215137
372.01,0.093105
374.01,0.0162647
376.01,0.004500547
378.01,0.004500547
380.01,0.004500547
382.01,0.004500547
384.01,0.004500547
386.01,0.004500547
388.01,0.004500547
390.01,0.004500547
392.01,0.004500547
394.01,0.004500547
396.01,0.004500547
398.01,0.004500547
400.01,0.004500547
402.01,0.004500547
404.01,0.004500547
406.01,0.004500547
408.01,0.004500547
410.01,0.004500547
412.01,0.004500547
414.01,0.004500547
416.01,0.004500547
418.01,0.004500547
420.01,0.004500547
422.01,0.004500547
424.01,0.004500547
426.01,0.004500547
428.01,0.004500547
430.01,0.004500547
432.01,0.004500547
434.01,0.004500547
436.01,0.004500547
438.01,0.004500547
440.01,0.004500547
442.01,0.004500547
444.01,0.004500547
446.01,0.004500547
448.01,0.004500547
450.01,0.004500547
452.01,0.004500547
454.01,0.004500547
456.01,0.004500547
458.01,0.004500547
460.01,0.004500547
462.01,0.004500547
464.01,0.004500547
466.01,0.004500547
468.01,0.004500547
470.01,0.004500547
472.01,0.004500547
474.01,0.004500547
476.01,0.004500547
478.01,0.004500547
480.01,0.004500547
482.01,0.004500547
484.01,0.004500547
486.01,0.004500547
488.01,0.004500547
490.01,0.004500547
492.01,0.004500547
494.01,0.004500547
496.01,0.004500547
498.01,0.004500547
500,0.004500547