File: PMMA/Validation_Results/DBI/csv_files_calibrated/DBI_Gasification_q50_Mass_R4.csv
Time,Mass
[s],[g]
0,25.643
2,25.643
4.01,25.643
6.01,25.643
8.01,25.643
10.01,25.643
12.01,25.6429
14.01,25.6428
16.01,25.6424
18,25.6416
20,25.6398
22,25.6365
24,25.6308
26,25.6217
28,25.6081
30,25.5891
32,25.5639
34,25.5322
36,25.4937
38,25.4487
40,25.3976
42,25.3406
44.01,25.2781
46.01,25.211
48.01,25.1396
50.01,25.0641
52.01,24.9848
54.01,24.9021
56.01,24.8162
58.01,24.7273
60.01,24.6357
62.01,24.5415
64.01,24.445
66.01,24.3461
68.01,24.2452
70.01,24.1422
72.01,24.0373
74,23.9313
76,23.8228
78,23.7126
80,23.6008
82,23.4874
84,23.3725
86,23.256
88,23.1379
90,23.0184
92,22.8974
94,22.775
96,22.6512
98,22.526
100,22.3995
102,22.2716
104,22.1426
106,22.0121
108,21.8804
110,21.7473
112,21.6129
114,21.4773
116,21.3405
118,21.2022
120,21.0627
122,20.9219
124,20.7797
126,20.6362
128,20.4915
130,20.3457
132,20.1986
134,20.0502
136,19.9004
138,19.7493
140,19.5969
142,19.4431
144,19.2882
146,19.1319
148,18.9743
150,18.8155
152,18.6553
154,18.4938
156,18.3311
158,18.167
160.01,18.0009
162.01,17.8342
164.01,17.6662
166.01,17.4968
168.01,17.3262
170.01,17.1545
172.01,16.9815
174.01,16.8071
176.01,16.6315
178.01,16.4545
180.01,16.2763
182.01,16.097
184.01,15.9163
186.01,15.7345
188.01,15.5515
190.01,15.3676
192.01,15.1825
194.01,14.9962
196.01,14.8088
198.01,14.6201
200.01,14.4302
202.01,14.2393
204.01,14.0473
206.01,13.8543
208.01,13.6605
210.01,13.4656
212.01,13.2697
214.01,13.0727
216.01,12.8747
218.01,12.6759
220.01,12.4765
222.01,12.2764
224.01,12.0757
226.01,11.8741
228.01,11.6718
230.01,11.4688
232.01,11.2651
234.01,11.0609
236.01,10.8561
238.01,10.6509
240.01,10.4454
242.01,10.2394
244.01,10.0328
246.01,9.82565
248.01,9.61803
250.01,9.4101
252.01,9.20189
254.01,8.99324
256.01,8.78415
258.01,8.57477
260.01,8.36514
262.01,8.15523
264.01,7.94506
266.01,7.73455
268.01,7.52371
270.01,7.31261
272.01,7.10134
274.01,6.88999
276.01,6.67858
278.01,6.4671
280.01,6.25552
282.01,6.04385
284.01,5.83213
286.01,5.62037
288.01,5.40858
290.01,5.19682
292.01,4.98516
294.01,4.77366
296.01,4.56233
298.01,4.35119
300.01,4.14032
302.01,3.92984
304.01,3.71985
306.01,3.51044
308.01,3.30176
310.01,3.09401
312.01,2.8873
314.01,2.68173
316.01,2.47737
318.01,2.2744
320.01,2.07315
322.01,1.87413
324.01,1.6777
326.01,1.48418
328.01,1.29413
330.01,1.10809
332.01,0.92679
334.01,0.751199
336.01,0.582414
338.01,0.422262
340.01,0.273969
342.01,0.143255
344.01,0.0436171
346.01,0.004533194
348.01,0.004533194
350.01,0.004533194
352.01,0.004533194
354.01,0.004533194
356.01,0.004533194
358.01,0.004533194
360.01,0.004533194
362.01,0.004533194
364.01,0.004533194
366.01,0.004533194
368.01,0.004533194
370.01,0.004533194
372.01,0.004533194
374.01,0.004533194
376.01,0.004533194
378.01,0.004533194
380.01,0.004533194
382.01,0.004533194
384.01,0.004533194
386.01,0.004533194
388.01,0.004533194
390.01,0.004533194
392.01,0.004533194
394.01,0.004533194
396.01,0.004533194
398.01,0.004533194
400.01,0.004533194
402.01,0.004533194
404.01,0.004533194
406.01,0.004533194
408.01,0.004533194
410.01,0.004533194
412.01,0.004533194
414.01,0.004533194
416.01,0.004533194
418.01,0.004533194
420.01,0.004533194
422.01,0.004533194
424.01,0.004533194
426.01,0.004533194
428.01,0.004533194
430.01,0.004533194
432.01,0.004533194
434.01,0.004533194
436.01,0.004533194
438.01,0.004533194
440.01,0.004533194
442.01,0.004533194
444.01,0.004533194
446.01,0.004533194
448.01,0.004533194
450.01,0.004533194
452.01,0.004533194
454.01,0.004533194
456.01,0.004533194
458.01,0.004533194
460.01,0.004533194
462.01,0.004533194
464.01,0.004533194
466.01,0.004533194
468.01,0.004533194
470.01,0.004533194
472.01,0.004533194
474.01,0.004533194
476.01,0.004533194
478.01,0.004533194
480.01,0.004533194
482.01,0.004533194
484.01,0.004533194
486.01,0.004533194
488.01,0.004533194
490.01,0.004533194
492.01,0.004533194
494.01,0.004533194
496.01,0.004533194
498.01,0.004533194
500,0.004533194