File: PMMA/Validation_Results/DBI/csv_files_calibrated/DBI_Gasification_q50_Temp_R5.csv
Time,Temp
[s],[K]
0,298.15
2,298.15
4.01,298.15
6.01,298.15
8.01,298.15
10.01,298.15
12.01,298.152
14.01,298.16
16.01,298.18
18,298.227
20,298.314
22,298.462
24,298.69
26,299.015
28,299.454
30,300.024
32,300.735
34,301.597
36,302.618
38,303.802
40,305.153
42,306.671
44.01,308.366
46.01,310.247
48.01,312.303
50.01,314.503
52.01,316.811
54.01,319.219
56.01,321.72
58.01,324.306
60.01,326.971
62.01,329.711
64.01,332.519
66.01,335.39
68.01,338.315
70.01,341.287
72.01,344.299
74,347.331
76,350.406
78,353.506
80,356.625
82,359.76
84,362.907
86,366.062
88,369.223
90,372.387
92,375.551
94,378.713
96,381.872
98,385.025
100,388.172
102,391.31
104,394.439
106,397.557
108,400.665
110,403.763
112,406.849
114,409.921
116,412.98
118,416.024
120,419.054
122,422.068
124,425.067
126,428.05
128,431.016
130,433.967
132,436.901
134,439.818
136,442.718
138,445.602
140,448.467
142,451.316
144,454.147
146,456.961
148,459.756
150,462.534
152,465.293
154,468.034
156,470.757
158,473.46
160.01,476.151
162.01,478.824
164.01,481.468
166.01,484.092
168.01,486.695
170.01,489.279
172.01,491.842
174.01,494.383
176.01,496.902
178.01,499.4
180.01,501.875
182.01,504.328
184.01,506.757
186.01,509.163
188.01,511.545
190.01,513.902
192.01,516.235
194.01,518.542
196.01,520.822
198.01,523.078
200.01,525.306
202.01,527.506
204.01,529.68
206.01,531.824
208.01,533.941
210.01,536.03
212.01,538.088
214.01,540.118
216.01,542.118
218.01,544.089
220.01,546.031
222.01,547.943
224.01,549.827
226.01,551.681
228.01,553.509
230.01,555.307
232.01,557.079
234.01,558.824
236.01,560.545
238.01,562.239
240.01,563.911
242.01,565.559
244.01,567.186
246.01,568.792
248.01,570.381
250.01,571.95
252.01,573.505
254.01,575.043
256.01,576.57
258.01,578.086
260.01,579.594
262.01,581.096
264.01,582.591
266.01,584.084
268.01,585.574
270.01,587.063
272.01,588.557
274.01,590.051
276.01,591.555
278.01,593.065
280.01,594.587
282.01,596.121
284.01,597.67
286.01,599.235
288.01,600.817
290.01,602.418
292.01,604.044
294.01,605.69
296.01,607.362
298.01,609.061
300.01,610.788
302.01,612.547
304.01,614.339
306.01,616.166
308.01,618.033
310.01,619.942
312.01,621.897
314.01,623.905
316.01,625.967
318.01,628.086
320.01,630.262
322.01,632.496
324.01,634.796
326.01,637.161
328.01,639.597
330.01,642.111
332.01,644.701
334.01,647.376
336.01,650.144
338.01,653.006
340.01,655.971
342.01,659.041
344.01,662.213
346.01,665.495
348.01,668.886
350.01,672.407
352.01,676.047
354.01,679.824
356.01,683.743
358.01,687.82
360.01,692.082
362.01,696.585
364.01,701.38
366.01,706.596
368.01,712.491
370.01,719.394
372.01,728.112
374.01,740.278
376.01,759.833
378.01,797.235
380.01,842.3
382.01,851.98
384.01,857.042
386.01,860.451
388.01,862.993
390.01,865.019
392.01,866.677
394.01,868.051
396.01,869.29
398.01,870.359
400.01,871.272
402.01,872.026
404.01,872.894
406.01,873.613
408.01,874.271
410.01,874.893
412.01,875.483
414.01,876.007
416.01,876.524
418.01,876.94
420.01,877.388
422.01,877.747
424.01,878.107
426.01,878.518
428.01,878.902
430.01,879.145
432.01,879.471
434.01,879.824
436.01,880.136
438.01,880.444
440.01,880.713
442.01,880.906
444.01,881.233
446.01,881.368
448.01,881.654
450.01,881.984
452.01,882.281
454.01,882.429
456.01,882.612
458.01,882.826
460.01,883.055
462.01,883.408
464.01,883.58
466.01,883.667
468.01,883.917
470.01,884.15
472.01,884.324
474.01,884.641
476.01,884.796
478.01,884.982
480.01,885.186
482.01,885.389
484.01,885.547
486.01,885.703
488.01,885.871
490.01,886.052
492.01,886.225
494.01,886.409
496.01,886.556
498.01,886.73
500,886.833