File: Non-charring/PMMA/FM/FM_FPA_65kW_3.csv
Time,Mass,Temperature Front
[s],[g],[K]
1,168.191,294.508
2,168.305,296.667
3,168.286,332.687
4,168.295,375.497
5,168.279,405.566
6,168.27,429.431
7,168.273,450.769
8,168.342,470.02
9,168.41,487.335
10,168.402,503.709
11,168.408,518.764
12,168.392,532.255
13,168.389,544.987
14,168.386,557.929
15,168.372,569.504
16,168.396,579.877
17,168.375,590.732
18,168.367,601.553
19,168.351,612.005
20,168.363,619.339
21,168.342,627.211
22,168.318,632.321
23,168.308,637.943
24,168.268,646.411
25,168.244,650.962
26,168.183,653.241
27,168.132,653.703
28,168.071,650.305
29,167.946,648.797
30,167.854,647.031
31,167.741,645.936
32,167.607,651.353
33,167.465,649.662
34,167.311,654.044
35,167.202,655.823
36,167.035,654.638
37,166.88,656.454
38,166.733,644.896
39,166.59,638.309
40,166.415,641.321
41,166.247,641.23
42,166.118,635.918
43,165.919,626.756
44,165.725,620.948
45,165.571,627.297
46,165.401,618.176
47,165.236,625.254
48,165.076,631.604
49,164.863,622.568
50,164.67,602.134
51,164.485,617.078
52,164.305,635.341
53,164.119,618
54,163.939,632.138
55,163.728,626.206
56,163.553,606.007
57,163.35,599.923
58,163.16,620.86
59,162.995,625.422
60,162.802,634.853
61,162.597,625.931
62,162.389,631.775
63,162.224,625.3
64,162.006,643.142
65,161.842,641.589
66,161.655,618.395
67,161.468,610.993
68,161.267,619.229
69,161.077,639.196
70,160.888,641.34
71,160.691,623.249
72,160.494,628.748
73,160.283,624.103
74,160.084,639.558
75,159.883,630.643
76,159.691,616.025
77,159.5,621.747
78,159.294,631.515
79,159.128,626.962
80,158.906,615.89
81,158.708,640.147
82,158.526,635.071
83,158.299,626.462
84,158.123,625.689
85,157.916,643.182
86,157.691,634.293
87,157.49,630.643
88,157.257,628.103
89,157.054,619.486
90,156.856,634.49
91,156.664,636.107
92,156.43,625.309
93,156.237,624.094
94,156.011,625.694
95,155.824,628.893
96,155.586,633.29
97,155.363,640.236
98,155.175,633.047
99,154.929,625.056
100,154.746,633.581
101,154.541,629.412
102,154.293,628.855
103,154.07,638.706
104,153.87,636.305
105,153.669,629.942
106,153.456,627.437
107,153.233,636.325
108,152.991,646.291
109,152.756,643.025
110,152.548,650.137
111,152.333,643.017
112,152.098,639.27
113,151.88,652.144
114,151.672,652.063
115,151.441,654.948
116,151.192,634.334
117,150.9697,628.962
118,150.725,632.543
119,150.508,642.332
120,150.273,639.861
121,150.047,643.95
122,149.824,646.625
123,149.548,650.664
124,149.337,648.85
125,149.099,653.429
126,148.865,650.742
127,148.629,639.912
128,148.373,638.673
129,148.145,648.704
130,147.889,652.892
131,147.649,638.375
132,147.407,649.133
133,147.177,645.62
134,146.931,644.929
135,146.68,640.143
136,146.422,650.397
137,146.19,646.706
138,145.929,637.214
139,145.673,633.199
140,145.434,642.644
141,145.186,644.554
142,144.912,640.279
143,144.671,650.159
144,144.387,644.933
145,144.175,637.569
146,143.884,641.34
147,143.623,654.027
148,143.351,647.696
149,143.102,645.813
150,142.834,640.521
151,142.521,648.22
152,142.281,652.58
153,142.024,654.436
154,141.762,650.525
155,141.485,649.503
156,141.226,653.217
157,140.958,647.279
158,140.65,646.364
159,140.404,652.735
160,140.128,658.243
161,139.86,646.812
162,139.543,645.872
163,139.277,645.041
164,138.996,638.149
165,138.691,634.693
166,138.404,638.341
167,138.136,637.836
168,137.831,618.978
169,137.534,619.87
170,137.264,624.783
171,136.944,622.232
172,136.621,610.028
173,136.33,616.188
174,136.014,618.608
175,135.69,621.041
176,135.386,620.384
177,135.095,618.783
178,134.753,615.863
179,134.41,613.926
180,134.116,606.678
181,133.757,614.676
182,133.458,616.526
183,133.087,627.369
184,132.769,619.68
185,132.409,626.629
186,132.039,618.551
187,131.688,623.176
188,131.315,616.515
189,130.945,621.477
190,130.56,619.364
191,130.216,618.171
192,129.828,621.74
193,129.439,614.127
194,129.052,616.682
195,128.657,618.196
196,128.285,619.805
197,127.886,620.44
198,127.461,614.865
199,127.088,610.903
200,126.709,612.727
201,126.346,622.383
202,126.019,626.239
203,125.694,618.806
204,125.324,608.83
205,125.029,623.574
206,124.748,620.712
207,124.512,625.95
208,124.326,663.79
209,124.171,708.252
210,124.042,738.803
211,123.915,758.295
212,123.825,781.439
213,123.7233,796.325
214,123.648,779.758
215,123.601,778.285
216,123.54,794.8
217,123.498,796.487
218,123.442,800.353
219,123.41,810.317
220,123.37,811.983
221,123.326,809.252
222,123.327,837.986
223,123.29,851.042
224,123.309,859.04
225,123.283,856.663
226,123.278,862.454
227,123.276,866.859
228,123.249,873.312
229,123.247,879.017
230,123.213,881.155
231,123.21,885.853
232,123.205,887.951
233,123.192,891.03
234,123.191,892.5
235,123.175,893.709
236,123.186,890.645
237,123.157,892.395
238,123.17,892.938
239,123.162,896.323
240,123.147,896.363
241,123.137,896.091
242,123.124,900.034
243,123.121,900.089
244,123.106,900.683
245,123.11,899.455
246,123.078,900.338
247,123.057,901.343
248,123.083,901.041
249,123.07,902.599
250,123.053,902.31
251,123.053,906.178
252,123.032,907.094
253,123.009,904.981
254,122.994,905.571
255,123.012,905.606
256,122.993,907.772