File: Non-charring/PMMA/FM/FM_FPA_50kW_3.csv
Time,Mass,Temperature
[s],[g],[K]
1,167.404,305.864
3,167.443,332.034
5,167.344,390.858
7,167.387,426.475
9,167.651,455.116
11,167.806,479.933
13,167.801,501.362
15,167.751,520.102
17,167.726,538.009
19,167.701,553.848
21,167.696,568.53
23,167.693,581.709
25,167.716,595.188
27,167.688,607.063
29,167.665,617.728
31,167.668,626.257
33,167.634,635.566
35,167.613,646.056
37,167.554,650.561
39,167.503,654.485
41,167.414,650.314
43,167.319,650.44
45,167.151,645.601
47,166.948,651.47
49,166.753,645.894
51,166.571,643.601
53,166.359,644.359
55,166.13,646.912
57,165.946,644.376
59,165.726,646.261
61,165.471,644.798
63,165.239,648.278
65,164.993,652.023
67,164.747,643.051
69,164.48,639.48
71,164.209,641.173
73,163.923,647.003
75,163.64,656.057
77,163.391,649.523
79,163.119,653.915
81,162.832,656.804
83,162.549,647.423
85,162.249,651.509
87,161.967,657.952
89,161.661,646.78
91,161.398,639.295
93,161.117,658.691
95,160.83,652.419
97,160.541,648.29
99,160.238,658.092
101,159.922,649.109
103,159.605,644.114
105,159.326,662.807
107,159.023,650.6
109,158.695,638.306
111,158.414,661.38
113,158.1,647.434
115,157.81,650.782
117,157.467,650.637
119,157.118,655.558
121,156.791,656.608
123,156.473,644.233
125,156.191,660.394
127,155.902,654.114
129,155.522,647.966
131,155.202,653.627
133,154.881,649.664
135,154.57,654.523
137,154.236,653.171
139,153.867,645.387
141,153.546,638.363
143,153.204,644.129
145,152.848,643.45
147,152.534,647.25
149,152.141,656.704
151,151.81,648.255
153,151.398,647.767
155,151.017,647.236
157,150.711,646.698
159,150.325,653.678
161,149.972,660.717
163,149.605,652.1
165,149.255,649.598
167,148.921,657.215
169,148.53,648.62
171,148.132,648.016
173,147.735,649.881
175,147.355,641.831
177,147.001,647.149
179,146.624,650.291
181,146.23,646.513
183,145.815,649.611
185,145.492,650.459
187,145.097,646.959
189,144.664,647.248
191,144.221,634.24
193,143.813,650.327
195,143.425,654.246
197,142.997,650.433
199,142.587,654.022
201,142.132,647.672
203,141.666,658.919
205,141.295,651.656
207,140.868,651.776
209,140.384,656.747
211,139.943,652.081
213,139.484,645.442
215,139.03,639.529
217,138.569,649.26
219,138.095,640.313
221,137.636,649.942
223,137.141,648.944
225,136.687,650.301
227,136.198,652.526
229,135.657,644.336
231,135.135,651.616
233,134.612,648.09
235,134.117,648.303
237,133.6,653.754
239,133.045,650.815
241,132.508,651.252
243,131.924,646.641
245,131.383,655.6
247,130.808,652.318
249,130.216,639.634
251,129.614,628.364
253,129.023,634.125
255,128.467,643.811
257,127.857,636.995
259,127.257,651.871
261,126.67,633.533
263,126.096,632.005
265,125.553,635.833
267,124.991,634.01
269,124.496,637.958
271,124.002,640.144
273,123.598,658.826
275,123.25,661.013
277,122.945,680.64
279,122.681,711.496
281,122.511,770.246
283,122.444,803.36
285,122.346,820.332
287,122.271,848.172
289,122.231,852.729
291,122.175,862.398
293,122.214,862.249
295,122.161,864.135
297,122.126,866.239
299,122.112,866.567
301,122.118,867.271
303,122.137,865.581
305,122.113,866.143
307,122.105,865.637
309,122.065,865.729
311,122.023,866.469
313,122.064,864.806
315,122.036,865.5