File: Non-charring/PMMA/FM/FM_FPA_50kW_2.csv
Time,Mass,Temperature Front
[s],[g],[K]
1,167.831,296.912
3,168.051,323.384
5,167.961,383.602
7,168.002,419.92
9,168.593,447.868
11,168.26,472.897
13,167.947,493.676
15,167.852,513.158
17,167.78,529.986
19,167.741,545.966
21,167.722,561.574
23,167.638,574.681
25,167.626,586.857
27,167.641,598.536
29,167.6,609.768
31,167.563,617.315
33,167.508,626.225
35,167.467,638.718
37,167.379,646.209
39,167.274,646.865
41,167.175,652.622
43,167.052,655.237
45,166.893,651.376
47,166.676,651.89
49,166.453,650.121
51,166.29,655.193
53,166.117,656.415
55,165.885,660.273
57,165.667,655.796
59,165.423,658.66
61,165.214,651.706
63,164.955,654.569
65,164.696,650.848
67,164.485,651.236
69,164.215,658.862
71,163.972,653.928
73,163.686,652.105
75,163.54,655.902
77,163.244,650.085
79,163.021,647.137
81,162.725,663.485
83,162.43,659.609
85,162.123,665.33
87,161.791,657.677
89,161.512,651.99
91,161.236,663.827
93,160.959,654.691
95,160.644,664.352
97,160.273,662.071
99,160.039,662.971
101,159.923,666.903
103,159.613,664.336
105,159.253,654.945
107,158.978,657.534
109,158.678,658.81
111,158.343,664.416
113,158.021,645.564
115,157.705,657.871
117,157.389,661.372
119,157.095,663.178
121,156.816,662.091
123,156.645,661.026
125,156.35,647.298
127,156.005,650.902
129,155.708,651.41
131,155.345,658.397
133,155.005,661.642
135,154.715,656.61
137,154.334,660.138
139,154.012,662.909
141,153.685,654.467
143,153.363,650.902
145,152.966,655.087
147,152.623,646.572
149,152.396,653.731
151,152.153,654.327
153,151.773,655.588
155,151.436,645.255
157,151.147,642.856
159,150.763,647.098
161,150.394,652.945
163,150.131,644.541
165,149.79,658.348
167,149.432,651.348
169,149.105,642.255
171,148.864,644.638
173,148.538,638.999
175,148.152,662.5
177,147.763,643.558
179,147.391,645.078
181,147.04,647.281
183,146.665,644.792
185,146.286,649.941
187,145.864,651.764
189,145.5056,647.137
191,145.093,654.845
193,144.579,654.346
195,144.028,651.679
197,143.713,641.045
199,143.327,643.334
201,142.901,645.037
203,142.501,639.193
205,142.053,655.674
207,141.671,652.713
209,141.257,641.262
211,140.859,645.064
213,140.438,647.885
215,140.018,652.414
217,139.573,657.684
219,139.152,643.38
221,138.79,637.203
223,138.416,648.733
225,138.005,648.827
227,137.538,640.568
229,137.047,649.301
231,136.573,651.211
233,136.088,638.642
235,135.586,647.053
237,135.025,641.329
239,134.506,644.984
241,133.883,640.034
243,133.293,659.938
245,132.9,650.428
247,132.381,645.896
249,131.808,652.166
251,131.301,638.529
253,130.8,657.483
255,130.247,645.625
257,129.668,648.677
259,129.113,636.906
261,128.515,638.746
263,127.942,638.044
265,127.399,646.373
267,126.795,655.33
269,126.202,655.198
271,125.641,655.498
273,125.086,657.059
275,124.569,667.677
277,124.086,647.18
279,123.685,661.536
281,123.369,678.66
283,123.134,710.284
285,122.946,760.874
287,122.811,822.279
289,122.696,837.585
291,122.562,866.499
293,122.572,883.23
295,122.537,886.182
297,122.485,892.587
299,122.461,894.032
301,122.44,895.616
303,122.424,900.504
305,122.396,900.02
307,122.37,902.399
309,122.366,900.851
311,122.356,901.043
313,122.371,901.867
315,122.411,902.793