File: Non-charring/PMMA/FM/FM_Gasification_50kWm2_1.csv
Time,Mass,Temperature
[s],[g],[K]
1,168.01,308.497
2,168.03,311.559
3,168.013,341.899
4,167.976,373.028
5,167.982,396
6,167.988,413.855
7,167.997,429.852
8,168.101,444.394
9,168.128,457.488
10,168.181,469.802
11,168.243,481.5
12,168.254,492.436
13,168.272,502.702
14,168.309,512.242
15,168.293,521.406
16,168.311,530.287
17,168.304,538.613
18,168.318,546.266
19,168.304,554.09
20,168.274,561.944
21,168.28,569.142
22,168.272,575.994
23,168.247,582.449
24,168.255,589.031
25,168.239,595.741
26,168.233,602.192
27,168.225,607.535
28,168.223,613.36
29,168.22,618.502
30,168.215,622.588
31,168.22,625.441
32,168.206,628.817
33,168.178,635.624
34,168.161,640.21
35,168.14,644.696
36,168.117,648.419
37,168.111,650.68
38,168.068,650.368
39,168.048,650.574
40,167.991,648.523
41,167.955,647.29
42,167.923,640.794
43,167.824,644.124
44,167.766,641.842
45,167.682,637.191
46,167.597,634.626
47,167.499,629.972
48,167.421,635.717
49,167.319,640.442
50,167.222,639.951
51,167.117,633.687
52,167.014,628.287
53,166.88,626.254
54,166.783,626.272
55,166.667,628.638
56,166.5716,629.436
57,166.464,629.908
58,166.373,635.058
59,166.241,636.913
60,166.151,628.649
61,166.009,624.906
62,165.908,625.731
63,165.786,629.704
64,165.656,626.034
65,165.55,626.604
66,165.415,628.858
67,165.296,628.291
68,165.158,627.077
69,165.031,623.747
70,164.923,619.064
71,164.771,628.885
72,164.65,623.851
73,164.511,629.968
74,164.362,632.921
75,164.236,625.704
76,164.107,626.803
77,163.974,624.121
78,163.848,626.115
79,163.708,644.63
80,163.544,631.55
81,163.418,623.976
82,163.277,622.376
83,163.14,623.667
84,163.008,621.998
85,162.904,629.339
86,162.728,637.897
87,162.61,634.341
88,162.471,625.572
89,162.314,635.63
90,162.17,637.603
91,162.033,634.634
92,161.895,632.141
93,161.745,641.151
94,161.591,636.53
95,161.44,641.948
96,161.303,633.92
97,161.16,624.96
98,161.0334,638.152
99,160.865,637.674
100,160.741,630.292
101,160.585,634.455
102,160.434,633.81
103,160.298,634.479
104,160.155,629.663
105,159.992,637.992
106,159.819,640.134
107,159.66,639.582
108,159.538,635.177
109,159.347,638.847
110,159.222,641.961
111,159.081,647.097
112,158.902,642.511
113,158.753,644.008
114,158.605,639.396
115,158.462,643.655
116,158.305,630.801
117,158.161,635.798
118,158.005,632.749
119,157.845,630.171
120,157.68,639.909
121,157.538,636.85
122,157.355,623.704
123,157.207,623.921
124,157.043,622.81
125,156.909,640.199
126,156.723,635.43
127,156.583,634.617
128,156.436,631.615
129,156.262,630.719
130,156.093,639.496
131,155.947,639.196
132,155.779,630.213
133,155.613,625.667
134,155.422,628.202
135,155.266,635.208
136,155.094,624.75
137,154.946,628.219
138,154.77,633.403
139,154.616,636.19
140,154.441,637.376
141,154.263,641.02
142,154.091,641.888
143,153.938,636.527
144,153.752,636.378
145,153.597,637.646
146,153.421,640.425
147,153.235,635.87
148,153.059,629.484
149,152.873,633.425
150,152.718,642.765
151,152.532,648.192
152,152.33,642.102
153,152.164,634.368
154,151.978,632.415
155,151.803,627.195
156,151.615,633.132
157,151.46,638.631
158,151.282,632.713
159,151.094,642.796
160,150.918,642.333
161,150.698,640.227
162,150.522,642.545
163,150.357,627.415
164,150.183,629.916
165,149.975,640.159
166,149.827,643.96
167,149.641,642.484
168,149.447,640.94
169,149.276,644.309
170,149.061,639.494
171,148.89,636.782
172,148.707,630.647
173,148.497,632.269
174,148.299,634.725
175,148.107,633.049
176,147.925,637.239
177,147.72,641.874
178,147.549,641.559
179,147.371,640.849
180,147.186,638.402
181,146.978,638.363
182,146.803,636.975
183,146.62,643.399
184,146.411,635.263
185,146.215,636.925
186,146.013,642.64
187,145.814,630.65
188,145.631,633.945
189,145.401,632.392
190,145.198,642.756
191,145.008,642.722
192,144.804,645.078
193,144.607,637.303
194,144.408,637.938
195,144.217,634.221
196,144.013,638.771
197,143.784,642.593
198,143.588,642.029
199,143.35,633.405
200,143.148,637.409
201,142.919,631.756
202,142.694,635.075
203,142.468,632.283
204,142.24,624.896
205,142.048,623.952
206,141.84,625.349
207,141.618,634.562
208,141.39,639.21
209,141.161,627.168
210,140.924,633.78
211,140.727,641.194
212,140.487,632.524
213,140.265,629.818
214,140.044,624.442
215,139.805,618.582
216,139.563,621.067
217,139.347,625.394
218,139.087,634.339
219,138.854,622.179
220,138.614,619.078
221,138.372,617.885
222,138.156,629.82
223,137.905,627.907
224,137.675,631.558
225,137.449,636.578
226,137.218,619.797
227,136.983,623.738
228,136.721,615.77
229,136.47,625.253
230,136.234,626.729
231,135.97,633.657
232,135.708,635.971
233,135.453,620.985
234,135.196,616.161
235,134.932,621.342
236,134.655,631.659
237,134.381,621.068
238,134.1081,625.992
239,133.849,631.293
240,133.564,622.44
241,133.312,620.661
242,133.052,624.601
243,132.753,627.168
244,132.487,619.573
245,132.198,626.103
246,131.894,631.27
247,131.62,626.274
248,131.324,622.693
249,131.027,633.704
250,130.712,634.176
251,130.415,622.945
252,130.128,615.123
253,129.847,618.921
254,129.549,621.789
255,129.27,626.548
256,128.95,623.805
257,128.679,623.973
258,128.367,637.733
259,128.048,639.694
260,127.769,641.665
261,127.451,639.883
262,127.164,645.744
263,126.881,646.412
264,126.592,644.882
265,126.314,647.535
266,126.057,641.006
267,125.801,639.273
268,125.515,635.951
269,125.272,638.877
270,125.003,639.55
271,124.794,628.066
272,124.6125,638.108
273,124.444,643.401
274,124.276,653.14
275,124.132,670.549
276,124.003,698.746
277,123.891,737.748
278,123.749,760.453
279,123.668,763.484
280,123.564,782.203
281,123.475,786.647
282,123.401,803.887
283,123.348,790.319
284,123.262,802.401
285,123.208,805.202
286,123.171,817.28
287,123.15,826.563
288,123.093,824.777
289,123.085,838.204
290,123.049,836.395
291,123.036,842.312
292,123.022,845.732
293,123.03,846.964
294,123.002,853.735
295,122.996,851.399
296,122.982,850.004
297,122.97,853.841
298,122.951,854.529
299,122.914,856.141