File: Non-charring/PMMA/FM/FM_Gasification_65kWm2_2.csv
Time,Mass,Temperature
[s],[g],[K]
1,166.066,302.02
2,166.264,310.736
3,166.023,356.076
4,165.948,394.233
5,165.942,421.009
6,165.912,444.406
7,166.064,465.381
8,166.39,484.268
9,166.607,501.53
10,166.707,517.425
11,166.765,531.685
12,166.773,545.338
13,166.728,557.942
14,166.728,570.258
15,166.723,581.682
16,166.698,593.369
17,166.694,604.367
18,166.677,614.252
19,166.654,623.214
20,166.642,631.126
21,166.626,637.905
22,166.587,646.116
23,166.546,655.365
24,166.516,660.669
25,166.474,663.217
26,166.391,662.66
27,166.318,663.587
28,166.217,663.547
29,166.113,661.976
30,166.017,663.936
31,165.895,663.583
32,165.752,664.101
33,165.617,669.51
34,165.46,666.831
35,165.354,671.779
36,165.182,670.915
37,165.055,671.119
38,164.877,668.848
39,164.738,672.405
40,164.549,675.343
41,164.4,670.495
42,164.217,674.42
43,164.051,667.342
44,163.868,667.74
45,163.699,666.25
46,163.524,672.678
47,163.334,671.616
48,163.164,668.77
49,162.962,670.27
50,162.838,672.45
51,162.65,668.859
52,162.481,662.606
53,162.273,668.849
54,162.097,668.398
55,161.903,672.766
56,161.694,667.639
57,161.532,665.872
58,161.342,674.506
59,161.151,666.296
60,160.986,667.002
61,160.808,671.594
62,160.623,663.571
63,160.423,671.755
64,160.235,670.372
65,160.018,665.52
66,159.825,651.164
67,159.627,643.247
68,159.471,654.753
69,159.26,654.334
70,159.054,667.357
71,158.879,659.045
72,158.666,651.745
73,158.487,661.443
74,158.282,669.571
75,158.048,677.396
76,157.835,674.428
77,157.666,667.679
78,157.484,664.166
79,157.26,667.553
80,157.062,665.592
81,156.844,662.725
82,156.646,663.055
83,156.441,666.4
84,156.247,662.952
85,156.044,658.83
86,155.822,658.773
87,155.623,659.382
88,155.425,665.545
89,155.205,655.668
90,154.989,668.457
91,154.801,676.514
92,154.572,664.905
93,154.384,648.885
94,154.154,655.438
95,153.959,656.048
96,153.739,666.099
97,153.528,658.109
98,153.318,654.243
99,153.102,657.374
100,152.913,655.043
101,152.695,653.592
102,152.467,664.186
103,152.251,664.188
104,152.019,666.4
105,151.783,655.444
106,151.589,659.808
107,151.338,657.904
108,151.1179,655.65
109,150.887,657.553
110,150.661,660.353
111,150.435,668.519
112,150.208,664.158
113,149.976,661.601
114,149.711,657.245
115,149.499,663.682
116,149.287,661.886
117,149.039,666.265
118,148.805,667.168
119,148.586,658.309
120,148.349,656.764
121,148.076,659.593
122,147.804,661.166
123,147.519,669.687
124,147.302,669.655
125,147.118,666.104
126,146.864,664.339
127,146.638,657.627
128,146.379,660.009
129,146.09,658.67
130,145.88,655.88
131,145.633,662.659
132,145.371,661.317
133,145.134,664.809
134,144.9,656.828
135,144.651,654.147
136,144.41,649.144
137,144.146,654.749
138,143.885,650.338
139,143.618,645.066
140,143.378,648.182
141,143.11,662.9
142,142.864,667.882
143,142.594,657.99
144,142.333,650.772
145,142.076,647.207
146,141.852,647.24
147,141.618,655.689
148,141.342,668.157
149,141.086,654.589
150,140.841,653.492
151,140.564,657.161
152,140.292,652.866
153,140.016,659.92
154,139.739,660.923
155,139.461,659.133
156,139.164,657.144
157,138.907,652.924
158,138.6,650.231
159,138.328,653.122
160,138.044,658.181
161,137.772,661.938
162,137.468,663.129
163,137.192,664.545
164,136.895,673.016
165,136.588,667.156
166,136.31,654.75
167,135.988,667.499
168,135.665,668.272
169,135.308,659.122
170,134.959,653.939
171,134.653,641.362
172,134.351,650.57
173,134.058,642.905
174,133.765,640.58
175,133.417,636.209
176,133.11,641.472
177,132.753,646.496
178,132.447,648.203
179,132.084,651.818
180,131.74,665.297
181,131.404,662.888
182,131.042,666.757
183,130.67,656.848
184,130.32,656.828
185,129.951,656.692
186,129.57,649.235
187,129.227,647.926
188,128.822,655.648
189,128.463,666.078
190,128.089,657.996
191,127.711,659.017
192,127.332,657.355
193,126.936,653.268
194,126.554,638.817
195,126.181,642.367
196,125.838,647.736
197,125.492,650.35
198,125.166,655.588
199,124.834,653.315
200,124.584,649.337
201,124.31,650.056
202,124.061,669.718
203,123.904,688.255
204,123.715,709.856
205,123.581,769.551
206,123.463,792.905
207,123.361,798.082
208,123.268,832.341
209,123.185,851.672
210,123.11,851.951
211,123.042,868.712
212,122.992,879.111
213,122.928,886.409
214,122.898,886.894
215,122.851,895.401
216,122.809,904.258
217,122.796,906.889
218,122.752,917.472
219,122.734,919.951
220,122.718,922.035
221,122.673,923.577
222,122.63,925.808
223,122.602,937.166
224,122.626,939.347
225,122.612,940.809
226,122.609,948.568
227,122.589,950.737
228,122.578,948.241
229,122.547,949.057
230,122.562,949.635
231,122.511,950.161
232,122.523,952.574
233,122.489,954.599
234,122.462,956.174
235,122.4,956.575
236,122.382,958.456
237,122.361,960.036
238,122.311,962.294
239,122.339,966.4
240,122.298,966.934