File: Non-charring/PMMA/FM/FM_Gasification_25kWm2_1.csv
Time,Mass,Temperature
[s],[g],[K]
1,168.333,299.763
4,168.085,346.596
7,168.605,373.252
10,168.497,393.735
13,168.544,409.872
16,168.604,423.646
19,168.617,435.679
22,168.59,448.223
25,168.588,458.499
28,168.558,468.292
31,168.487,477.696
34,168.486,485.64
37,168.473,493.415
40,168.435,500.983
43,168.422,507.924
46,168.386,514.772
49,168.373,520.858
52,168.373,526.876
55,168.3545,531.759
58,168.325,538.541
61,168.321,542.921
64,168.309,548.916
67,168.314,553.464
70,168.301,557.965
73,168.3,563.039
76,168.303,567.371
79,168.286,572.013
82,168.27,577.038
85,168.281,581.846
88,168.272,585.55
91,168.24,589.677
94,168.216,593.505
97,168.188,597.178
100,168.188,600.238
103,168.204,604.226
106,168.153,607.31
109,168.1244,610.17
112,168.104,613.408
115,168.089,618.183
118,168.046,622.041
121,168.029,625.256
124,167.98,628.918
127,167.976,631.025
130,167.925,632.962
133,167.886,635.46
136,167.87,638.05
139,167.927,639.229
142,167.856,641.634
145,167.832,642.547
148,167.83,644.992
151,167.761,645.139
154,167.716,645.785
157,167.663,648.015
160,167.613,648.876
163,167.555,648.624
166,167.456,652.532
169,167.391,651.69
172,167.273,649.117
175,167.182,651.671
178,167.08,652.074
181,166.995,652.402
184,166.871,653.549
187,166.751,652.88
190,166.647,656.588
193,166.535,656.525
196,166.396,652.944
199,166.274,658.602
202,166.13,658.512
205,165.979,662.052
208,165.852,654.087
211,165.697,663.895
214,165.566,662.305
217,165.416,657.37
220,165.284,659.459
223,165.13,658.148
226,164.977,664.494
229,164.867,667.725
232,164.68,666.747
235,164.512,665.852
238,164.352,668.81
241,164.219,670.326
244,164.074,670.958
247,163.907,666.079
250,163.747,671.464
253,163.571,670.735
256,163.46,672.758
259,163.298,669.362
262,163.189,673.509
265,163.031,670.935
268,162.843,671.44
271,162.652,674.888
274,162.533,677.495
277,162.316,671.05
280,162.146,675.1
283,161.97,670.32
286,161.76,676.358
289,161.574,673.728
292,161.403,674.472
295,161.174,671.742
298,160.942,673.931
301,160.782,675.406
304,160.576,670.422
307,160.443,680.751
310,160.208,672.588
313,160.038,677.12
316,159.826,678.364
319,159.603,677.535
322,159.394,679.454
325,159.172,676.156
328,158.966,680.538
331,158.751,676.398
334,158.54,677.352
337,158.282,676.477
340,158.027,672.668
343,157.808,677.697
346,157.558,678.235
349,157.33,676.017
352,157.098,671.422
355,156.846,678.982
358,156.642,674.366
361,156.393,679.492
364,156.154,678.252
367,155.867,678.631
370,155.649,676.656
373,155.429,668.732
376,155.172,675.808
379,154.9485,673.182
382,154.732,674.088
385,154.512,677.552
388,154.233,673.063
391,153.971,670.698
394,153.715,678.362
397,153.455,674.574
400,153.213,679.93
403,152.929,676.922
406,152.686,674.88
409,152.4,671.371
412,152.183,665.002
415,151.906,661.541
418,151.655,675.655
421,151.36,672.891
424,151.154,672.245
427,150.925,666.03
430,150.639,668.822
433,150.394,674.947
436,150.114,664.463
439,149.858,653.203
442,149.533,651.432
445,149.263,655.835
448,148.966,655.561
451,148.663,667.468
454,148.4,665.026
457,148.108,672.009
460,147.81,663.854
463,147.557,667.899
466,147.26,670.628
469,146.952,660.082
472,146.641,663.197
475,146.382,649.753
478,146.094,665.072
481,145.784,664.107
484,145.473,663.801
487,145.2156,660.404
490,144.84,661.461
493,144.548,647.201
496,144.227,648.32
499,143.963,644.743
502,143.594,671.088
505,143.318,653.408
508,142.94,645.382
511,142.654,630.846
514,142.319,661.477
517,142.043,644.871
520,141.684,642.455
523,141.362,641.368
526,140.99,637.914
529,140.691,627.789
532,140.31,636.536
535,140.029,647.97
538,139.6353,642.735
541,139.276,634.616
544,138.909,634.584
547,138.576,643.536
550,138.291,642.254
553,137.927,627.819
556,137.567,642.644
559,137.13,628.864
562,136.763,631.23
565,136.398,631.949
568,136.114,634.699
571,135.738,627.85
574,135.387,622.557
577,134.965,631.376
580,134.624,619.176
583,134.213,623.635
586,133.885,632.577
589,133.464,628.86
592,133.149,637.985
595,132.715,631.878
598,132.396,627.025
601,131.974,629.399
604,131.657,632.723
607,131.284,637.788
610,130.905,633.065
613,130.523,619.48
616,130.139,633.63
619,129.757,625.758
622,129.403,628.594
625,129.038,621.79
628,128.6577,624.302
631,128.312,627.906
634,127.914,630.454
637,127.552,634.246
640,127.202,641.082
643,126.849,646.997
646,126.515,634.829
649,126.176,649.76
652,125.849,648.26
655,125.569,673.931
658,125.317,692.263
661,125.087,710.572
664,124.891,711.339
667,124.714,711.653
670,124.55,728.156
673,124.379,743.021
676,124.277,745.925
679,124.177,747.886
682,124.082,747.038
685,124.004,754.984
688,123.938,757.055
691,123.858,762.194
694,123.816,763.264
697,123.757,765.015
700,123.724,767.479
703,123.683,767.142
706,123.633,770.909
709,123.636,771.124
712,123.58,775.541
715,123.562,777.492
718,123.544,778.862
721,123.526,781.549
724,123.491,781.711
727,123.506,781.982
730,123.471,780.178
733,123.458,780.663
736,123.479,779.912
739,123.46,782.557
742,123.461,782.116
745,123.428,783.998
748,123.423,783.431
749,123.426,782.339