File: Wood/Calibration_Data/Aalto/Aalto_Wood_TGA_N2_10K_R2.csv
Time (s),Temperature (K),Mass (mg)
0,313.1,8.077
82.9776,316.1,8.050
113.0922,319.1,8.038
138.4542,322.1,8.030
161.8614,325.1,8.025
183.7278,328.1,8.020
204.3138,331.1,8.016
223.5708,334.1,8.012
241.7844,337.1,8.006
259.197,340.1,8.002
275.9034,343.1,7.998
292.1706,346.1,7.994
308.121,349.1,7.989
323.754,352.1,7.982
339.1956,355.1,7.977
354.4386,358.1,7.973
369.4932,361.1,7.969
384.4326,364.1,7.966
399.2814,367.1,7.962
414.042,370.1,7.960
428.811,373.1,7.958
443.5674,376.1,7.955
458.37,379.1,7.953
473.2194,382.1,7.951
488.16,385.1,7.951
503.1354,388.1,7.949
518.1834,391.1,7.949
533.3286,394.1,7.949
548.5242,397.1,7.949
563.7684,400.1,7.948
579.0504,403.1,7.947
594.4566,406.1,7.947
609.9354,409.1,7.947
625.458,412.1,7.948
641.1102,415.1,7.945
656.865,418.1,7.945
672.6984,421.1,7.944
688.662,424.1,7.944
704.7276,427.1,7.944
720.9384,430.1,7.942
737.283,433.1,7.941
753.6876,436.1,7.939
770.2566,439.1,7.936
786.9276,442.1,7.935
803.6964,445.1,7.932
820.5834,448.1,7.929
837.5508,451.1,7.925
854.589,454.1,7.918
871.6776,457.1,7.914
888.8364,460.1,7.908
906.102,463.1,7.900
923.37,466.1,7.892
940.752,469.1,7.883
958.1388,472.1,7.872
975.6642,475.1,7.860
993.2136,478.1,7.849
1010.88,481.1,7.838
1028.56,484.1,7.822
1046.28,487.1,7.807
1064.058,490.1,7.793
1081.85,493.1,7.779
1099.68,496.1,7.763
1117.59,499.1,7.746
1135.48,502.1,7.729
1153.41,505.1,7.710
1171.36,508.1,7.689
1189.329,511.1,7.669
1207.34,514.1,7.644
1225.344,517.1,7.618
1243.36,520.1,7.588
1261.38,523.1,7.556
1279.45,526.1,7.523
1297.46,529.1,7.486
1315.45,532.1,7.448
1333.545,535.1,7.407
1351.614,538.1,7.360
1369.69,541.1,7.312
1387.743,544.1,7.262
1405.81,547.1,7.209
1423.92,550.1,7.149
1442.05,553.1,7.089
1460.154,556.1,7.027
1478.27,559.1,6.960
1496.41,562.1,6.887
1514.49,565.1,6.816
1532.61,568.1,6.735
1550.73,571.1,6.649
1568.84,574.1,6.562
1586.91,577.1,6.468
1605.03,580.1,6.367
1623.16,583.1,6.261
1641.29,586.1,6.153
1659.4,589.1,6.037
1677.46,592.1,5.916
1695.57,595.1,5.791
1713.69,598.1,5.658
1731.77,601.1,5.524
1749.88,604.1,5.380
1767.981,607.1,5.233
1786.1,610.1,5.080
1804.15,613.1,4.925
1822.22,616.1,4.763
1840.31,619.1,4.594
1858.344,622.1,4.421
1876.46,625.1,4.236
1894.57,628.1,4.043
1912.7,631.1,3.839
1930.81,634.1,3.623
1948.96,637.1,3.395
1967.09,640.1,3.159
1985.22,643.1,2.921
2003.27,646.1,2.691
2021.32,649.1,2.482
2039.28,652.1,2.307
2057.23,655.1,2.175
2075.08,658.1,2.094
2093.31,661.1,2.041
2111.88,664.1,2.012
2130.22,667.1,1.990
2148.41,670.1,1.969
2166.49,673.1,1.949
2184.61,676.1,1.929
2202.76,679.1,1.911
2220.89,682.1,1.894
2238.95,685.1,1.877
2257.02,688.1,1.861
2275.08,691.1,1.846
2293.17,694.1,1.830
2311.27,697.1,1.815
2329.35,700.1,1.801
2347.434,703.1,1.786
2365.48,706.1,1.772
2383.54,709.1,1.756
2401.617,712.1,1.743
2419.731,715.1,1.730
2437.83,718.1,1.716
2455.92,721.1,1.704
2474.03,724.1,1.693
2492.16,727.1,1.681
2510.29,730.1,1.670
2528.39,733.1,1.659
2546.51,736.1,1.647
2564.64,739.1,1.637
2582.83,742.1,1.628
2601.06,745.1,1.619
2619.26,748.1,1.609
2637.39,751.1,1.599
2655.396,754.1,1.592
2673.4,757.1,1.585
2691.39,760.1,1.577
2709.37,763.1,1.569
2727.363,766.1,1.563
2745.42,769.1,1.556
2763.441,772.1,1.549
2781.5,775.1,1.537
2799.525,778.1,1.527
2817.57,781.1,1.520
2835.65,784.1,1.512
2853.72,787.1,1.507
2871.771,790.1,1.502
2889.82,793.1,1.496
2907.84,796.1,1.489
2925.85,799.1,1.483
2943.92,802.1,1.475
2961.89,805.1,1.468
2979.91,808.1,1.462
2997.94,811.1,1.455
3015.99,814.1,1.449
3034.01,817.1,1.443
3052.05,820.1,1.436
3070.07,823.1,1.428
3088.095,826.1,1.421
3106.12,829.1,1.415
3124.15,832.1,1.407
3142.179,835.1,1.400
3160.24,838.1,1.393
3178.254,841.1,1.390
3196.26,844.1,1.384
3214.27,847.1,1.375
3232.26,850.1,1.370
3250.31,853.1,1.366
3268.329,856.1,1.360
3286.35,859.1,1.354
3304.33,862.1,1.347
3322.31,865.1,1.339
3340.284,868.1,1.332
3358.275,871.1,1.325
3376.31,874.1,1.317
3394.31,877.1,1.315
3412.34,880.1,1.308
3430.34,883.1,1.301
3448.33,886.1,1.288
3466.33,889.1,1.288
3484.35,892.1,1.282
3502.34,895.1,1.277
3520.33,898.1,1.271
3538.33,901.1,1.267
3556.31,904.1,1.256
3574.33,907.1,1.257
3592.389,910.1,1.252
3610.37,913.1,1.246
3628.368,916.1,1.241
3646.35,919.1,1.237
3664.37,922.1,1.233
3682.36,925.1,1.227
3700.35,928.1,1.222
3718.33,931.1,1.218
3736.34,934.1,1.213
3754.35,937.1,1.209
3772.38,940.1,1.206
3790.42,943.1,1.202
3808.41,946.1,1.199
3826.4,949.1,1.196
3844.37,952.1,1.189
3862.36,955.1,1.182
3880.33,958.1,1.178
3898.25,961.1,1.176
3916.2,964.1,1.173
3934.18,967.1,1.170
3952.182,970.1,1.165
3970.14,973.1,1.161
3988.11,976.1,1.158
4006.06,979.1,1.154
4024.01,982.1,1.149
4041.99,985.1,1.145
4059.98,988.1,1.142
4077.96,991.1,1.138
4095.94,994.1,1.135
4113.91,997.1,1.133
4131.888,1000.1,1.129
4149.91,1003.1,1.126
4167.87,1006.1,1.123
4185.88,1009.1,1.120
4203.91,1012.1,1.116
4221.93,1015.1,1.114
4239.88,1018.1,1.113
4257.837,1021.1,1.109
4275.789,1024.1,1.107
4293.681,1027.1,1.103
4311.65,1030.1,1.100
4329.66,1033.1,1.096
4347.7,1036.1,1.086
4365.72,1039.1,1.090
4383.7,1042.1,1.088
4401.67,1045.1,1.084
4419.627,1048.1,1.080
4437.6,1051.1,1.077
4455.63,1054.1,1.076
4473.62,1057.1,1.073
4491.59,1060.1,1.070
4509.58,1063.1,1.067
4527.55,1066.1,1.062
4545.483,1069.1,1.062
4554.44,1070.6,1.061