File: Wood/Calibration_Data/Aalto/Aalto_ExpDat_mcfp_STA_10N2800Trial04-1.csv
##Temp./›C,Time/min,DSC/(uV/mg),Mass/%,Gas Flow(purge2)/(ml/min),Gas Flow(protective)/(ml/min),DTG/(%/min),Sensit./(uV/mW)
40.012,0,-6.92E-03,100,0.00E+00,70,6.19821,1
44.512,1.65918,-4.80E-02,99.60932,0.00E+00,70,-0.31497,1
49.012,2.32141,-4.69E-02,99.44337,0.00E+00,70,-0.23405,1
53.512,2.89758,-4.72E-02,99.31345,0.00E+00,70,-0.19388,1
58.012,3.42017,-5.60E-02,99.24032,0.00E+00,70,-0.12093,1
62.512,3.8933,-7.15E-02,99.17561,0.00E+00,70,-0.16918,1
67.012,4.3319,-8.72E-02,99.10065,0.00E+00,70,-0.13776,1
71.512,4.74725,-0.10391,99.05149,0.00E+00,70,-0.14472,1
76.012,5.14678,-0.1217,98.97859,0.00E+00,70,-0.23239,1
80.512,5.53667,-0.14276,98.86675,0.00E+00,70,-0.22623,1
85.012,5.9184,-0.16759,98.8072,0.00E+00,70,-0.15212,1
89.512,6.29293,-0.19921,98.75187,0.00E+00,70,-0.16442,1
94.012,6.66376,-0.23401,98.67745,0.00E+00,70,-0.15557,1
98.512,7.03328,-0.27248,98.64379,0.00E+00,70,-0.13115,1
103.012,7.40223,-0.30933,98.5851,0.00E+00,70,-0.12698,1
107.512,7.7729,-0.34319,98.54457,0.00E+00,70,-4.28E-02,1
112.012,8.14466,-0.37671,98.56774,0.00E+00,70,-4.75E-03,1
116.512,8.52019,-0.40876,98.53467,0.00E+00,70,-1.86E-02,1
121.012,8.89723,-0.43948,98.54452,0.00E+00,70,5.33E-03,1
125.512,9.2768,-0.47137,98.55297,0.00E+00,70,-2.74E-02,1
130.012,9.65886,-0.50158,98.52716,0.00E+00,70,-2.90E-02,1
134.512,10.04343,-0.53267,98.51852,0.00E+00,70,-3.14E-02,1
139.012,10.43149,-0.56237,98.51053,0.00E+00,70,-5.61E-02,1
143.512,10.82321,-0.59243,98.48007,0.00E+00,70,-9.69E-03,1
148.012,11.21812,-0.62333,98.4839,0.00E+00,70,-3.27E-03,1
152.512,11.61766,-0.65422,98.48183,0.00E+00,70,-3.17E-02,1
157.012,12.02192,-0.6807,98.45627,0.00E+00,70,-5.86E-02,1
161.512,12.43061,-0.70481,98.43883,0.00E+00,70,-6.63E-02,1
166.012,12.84377,-0.72705,98.39685,0.00E+00,70,-0.10374,1
170.512,13.26039,-0.74912,98.3606,0.00E+00,70,-0.11408,1
175.012,13.68091,-0.76945,98.29609,0.00E+00,70,-0.16164,1
179.512,14.10465,-0.78907,98.22827,0.00E+00,70,-0.18587,1
184.012,14.53155,-0.8092,98.12717,0.00E+00,70,-0.25001,1
188.512,14.96054,-0.82687,98.01393,0.00E+00,70,-0.28799,1
193.012,15.39189,-0.84449,97.87797,0.00E+00,70,-0.33467,1
197.512,15.82653,-0.86157,97.73531,0.00E+00,70,-0.37074,1
202.012,16.26293,-0.8789,97.55368,0.00E+00,70,-0.45109,1
206.512,16.70196,-0.89678,97.33639,0.00E+00,70,-0.52629,1
211.012,17.14315,-0.91685,97.08054,0.00E+00,70,-0.58307,1
215.512,17.58663,-0.93745,96.82854,0.00E+00,70,-0.58124,1
220.012,18.03152,-0.96078,96.56286,0.00E+00,70,-0.64288,1
224.512,18.47799,-0.98409,96.26033,0.00E+00,70,-0.69714,1
229.012,18.92597,-1.01126,95.93986,0.00E+00,70,-0.76631,1
233.512,19.37452,-1.03784,95.57805,0.00E+00,70,-0.84801,1
238.012,19.82414,-1.06725,95.16951,0.00E+00,70,-0.95446,1
242.512,20.27355,-1.09616,94.71881,0.00E+00,70,-1.06479,1
247.012,20.72463,-1.12761,94.21252,0.00E+00,70,-1.21587,1
251.512,21.17569,-1.15853,93.61915,0.00E+00,70,-1.41317,1
256.012,21.6274,-1.19097,92.93771,0.00E+00,70,-1.53835,1
260.512,22.07895,-1.22479,92.21924,0.00E+00,70,-1.6934,1
265.012,22.53124,-1.25874,91.42354,0.00E+00,70,-1.86176,1
269.512,22.98239,-1.29225,90.5444,0.00E+00,70,-2.06547,1
274.012,23.43481,-1.32604,89.55556,0.00E+00,70,-2.26933,1
278.512,23.8868,-1.35978,88.49224,0.00E+00,70,-2.43876,1
283.012,24.33966,-1.39155,87.33801,0.00E+00,70,-2.65034,1
287.512,24.79219,-1.42467,86.0923,0.00E+00,70,-2.88416,1
292.012,25.24565,-1.45655,84.74142,0.00E+00,70,-3.20012,1
296.512,25.69897,-1.48951,83.15274,0.00E+00,70,-3.45829,1
301.012,26.15178,-1.51925,81.55755,0.00E+00,70,-3.73982,1
305.512,26.605,-1.54907,79.86452,0.00E+00,70,-4.00037,1
310.012,27.05842,-1.57526,77.9164,0.00E+00,70,-4.33395,1
314.512,27.51168,-1.60095,75.90224,0.00E+00,70,-4.69066,1
319.012,27.96453,-1.62386,73.68886,0.00E+00,70,-5.00057,1
323.512,28.41765,-1.64516,71.36177,0.00E+00,70,-5.32834,1
328.012,28.87116,-1.66226,68.87457,0.00E+00,70,-5.66558,1
332.512,29.32439,-1.68192,66.21605,0.00E+00,70,-5.96504,1
337.012,29.77669,-1.69425,63.44922,0.00E+00,70,-6.27942,1
341.512,30.2297,-1.70223,60.55082,0.00E+00,70,-6.60163,1
346.012,30.68287,-1.70202,57.45039,0.00E+00,70,-7.02691,1
350.512,31.13669,-1.6921,54.17807,0.00E+00,70,-7.51858,1
355.012,31.59049,-1.67084,50.62465,0.00E+00,70,-8.18587,1
359.512,32.04403,-1.64337,46.75482,0.00E+00,70,-8.88169,1
364.012,32.49762,-1.6025,42.58298,0.00E+00,70,-9.50982,1
368.512,32.95024,-1.56271,38.13351,0.00E+00,70,-9.81699,1
373.012,33.40338,-1.54064,33.71861,0.00E+00,70,-9.35163,1
377.512,33.857,-1.55498,29.70962,0.00E+00,70,-7.75189,1
382.012,34.30881,-1.6141,26.7314,0.00E+00,70,-5.16087,1
386.512,34.7602,-1.6956,25.06615,0.00E+00,70,-2.63627,1
391.012,35.21085,-1.7571,24.298,0.00E+00,70,-1.28185,1
395.512,35.66158,-1.7807,23.84138,0.00E+00,70,-0.95118,1
400.012,36.11271,-1.79632,23.44896,0.00E+00,70,-0.87433,1
404.512,36.56399,-1.8127,23.05494,0.00E+00,70,-0.80293,1
409.012,37.01519,-1.831,22.69898,0.00E+00,70,-0.76602,1
413.512,37.46675,-1.84854,22.36086,0.00E+00,70,-0.74523,1
418.012,37.91785,-1.86341,22.02851,0.00E+00,70,-0.74345,1
422.512,38.36956,-1.87462,21.71488,0.00E+00,70,-0.67886,1
427.012,38.82033,-1.88271,21.40337,0.00E+00,70,-0.68955,1
431.512,39.27155,-1.88035,21.09559,0.00E+00,70,-0.6742,1
436.012,39.72197,-1.87166,20.78176,0.00E+00,70,-0.67128,1
440.512,40.17167,-1.85415,20.49781,0.00E+00,70,-0.59773,1
445.012,40.62095,-1.8242,20.24209,0.00E+00,70,-0.58785,1
449.512,41.06908,-1.77768,19.98833,0.00E+00,70,-0.52859,1
454.012,41.51633,-1.71975,19.75914,0.00E+00,70,-0.52922,1
458.512,41.96441,-1.65632,19.5158,0.00E+00,70,-0.51323,1
463.012,42.41369,-1.58946,19.28385,0.00E+00,70,-0.47359,1
467.512,42.86204,-1.52303,19.10482,0.00E+00,70,-0.40907,1
472.012,43.3101,-1.45161,18.90626,0.00E+00,70,-0.41995,1
476.512,43.75846,-1.3808,18.7343,0.00E+00,70,-0.37738,1
481.012,44.2074,-1.30502,18.57355,0.00E+00,70,-0.32706,1
485.512,44.65616,-1.22728,18.42309,0.00E+00,70,-0.33658,1
490.012,45.1053,-1.14969,18.28067,0.00E+00,70,-0.33266,1
494.512,45.55443,-1.06916,18.12964,0.00E+00,70,-0.29392,1
499.012,46.00448,-0.99326,18.00795,0.00E+00,70,-0.33548,1
503.512,46.45457,-0.91973,17.81411,0.00E+00,70,-0.38679,1
508.012,46.90509,-0.84877,17.6861,0.00E+00,70,-0.25907,1
512.512,47.35657,-0.78689,17.58938,0.00E+00,70,-0.20862,1
517.012,47.80864,-0.73474,17.481,0.00E+00,70,-0.2299,1
521.512,48.26103,-0.69366,17.37918,0.00E+00,70,-0.22159,1
526.012,48.71415,-0.66436,17.2889,0.00E+00,70,-0.20683,1
530.512,49.16842,-0.6483,17.18487,0.00E+00,70,-0.22493,1
535.012,49.62299,-0.64803,17.0794,0.00E+00,70,-0.20938,1
539.512,50.07819,-0.66108,16.99592,0.00E+00,70,-0.21447,1
544.012,50.53339,-0.69027,16.88733,0.00E+00,70,-0.22305,1
548.512,50.9884,-0.73652,16.79321,0.00E+00,70,-0.23348,1
553.012,51.44393,-0.79987,16.67844,0.00E+00,70,-0.23132,1
557.512,51.89936,-0.88237,16.58405,0.00E+00,70,-0.19736,1
562.012,52.35593,-0.98045,16.49573,0.00E+00,70,-0.21736,1
566.512,52.81295,-1.09491,16.38993,0.00E+00,70,-0.18808,1
571.012,53.2692,-1.22141,16.31725,0.00E+00,70,-0.181,1
575.512,53.72593,-1.3611,16.21734,0.00E+00,70,-0.13467,1
580.012,54.18223,-1.50288,16.18427,0.00E+00,70,-0.15898,1
584.512,54.63716,-1.64848,16.08762,0.00E+00,70,-0.21612,1
589.012,55.09136,-1.79101,15.98854,0.00E+00,70,-0.24927,1
593.512,55.54437,-1.93368,15.87879,0.00E+00,70,-0.20415,1
598.012,55.99609,-2.06739,15.7922,0.00E+00,70,-0.21934,1
602.512,56.44758,-2.18943,15.71799,0.00E+00,70,-0.10431,1
607.012,56.89897,-2.30374,15.65657,0.00E+00,70,-0.1968,1
611.512,57.34967,-2.40924,15.55977,0.00E+00,70,-0.25276,1
616.012,57.79964,-2.50303,15.46642,0.00E+00,70,-0.11591,1
620.512,58.24943,-2.5856,15.39938,0.00E+00,70,-0.13402,1
625.012,58.69878,-2.66177,15.34733,0.00E+00,70,-0.14072,1
629.512,59.1473,-2.72719,15.29057,0.00E+00,70,-0.19176,1
634.012,59.59672,-2.77787,15.21686,0.00E+00,70,-0.10342,1
638.512,60.04548,-2.8253,15.1516,0.00E+00,70,-0.1177,1
643.012,60.49365,-2.8659,15.109,0.00E+00,70,-9.17E-02,1
647.512,60.94196,-2.89843,15.05379,0.00E+00,70,-0.11754,1
652.012,61.39019,-2.92688,15.00412,0.00E+00,70,-0.11489,1
656.512,61.83833,-2.94846,14.95521,0.00E+00,70,-0.11911,1
661.012,62.28769,-2.96204,14.89958,0.00E+00,70,-0.10463,1
665.512,62.73659,-2.97714,14.87501,0.00E+00,70,-4.91E-02,1
670.012,63.18504,-2.99186,14.84263,0.00E+00,70,-6.41E-02,1
674.512,63.63351,-2.99963,14.81877,0.00E+00,70,-0.11657,1
679.012,64.08343,-3.00595,14.74404,0.00E+00,70,-0.14218,1
683.512,64.53185,-3.00703,14.68278,0.00E+00,70,-5.72E-02,1
688.012,64.97948,-3.01041,14.68531,0.00E+00,70,-4.12E-02,1
692.512,65.42733,-3.01116,14.65835,0.00E+00,70,-6.86E-02,1
697.012,65.87557,-3.01121,14.59606,0.00E+00,70,-0.13687,1
701.512,66.32523,-3.01176,14.55869,0.00E+00,70,-9.67E-02,1
706.012,66.77451,-3.01011,14.51175,0.00E+00,70,-0.10584,1
710.512,67.2244,-3.00864,14.46753,0.00E+00,70,-9.20E-02,1
715.012,67.6741,-3.00506,14.42945,0.00E+00,70,-7.30E-02,1
719.512,68.12339,-3.00408,14.39093,0.00E+00,70,-8.71E-02,1
724.012,68.5739,-2.99008,14.36446,0.00E+00,70,-1.42E-02,1
728.512,69.02436,-2.98248,14.36072,0.00E+00,70,-5.80E-02,1
733.012,69.474,-2.97126,14.31841,0.00E+00,70,-0.10225,1
737.512,69.92397,-2.95259,14.27377,0.00E+00,70,-6.57E-02,1
742.012,70.37448,-2.93227,14.26049,0.00E+00,70,3.84E-03,1
746.512,70.82361,-2.91389,14.25338,0.00E+00,70,-5.29E-02,1
751.012,71.27396,-2.88921,14.23042,0.00E+00,70,-7.18E-02,1
755.512,71.72446,-2.86652,14.18863,0.00E+00,70,-7.36E-02,1
760.012,72.17429,-2.84333,14.15913,0.00E+00,70,-0.16449,1
764.512,72.6241,-2.81555,14.11408,0.00E+00,70,1.94E-02,1
769.012,73.07381,-2.7907,14.1026,0.00E+00,70,-5.17E-02,1
773.512,73.52402,-2.76541,14.06722,0.00E+00,70,-0.11636,1
778.012,73.97395,-2.73721,14.01627,0.00E+00,70,-6.24E-02,1
782.512,74.42306,-2.71014,13.99452,0.00E+00,70,-5.60E-02,1
787.012,74.87228,-2.68133,13.96699,0.00E+00,70,-7.68E-02,1
791.512,75.32209,-2.65741,13.85489,0.00E+00,70,-6.17E-02,1
796.012,75.7718,-2.62779,13.93258,0.00E+00,70,-2.05E-02,1
797.512,75.92149,-2.61904,13.92328,0.00E+00,70,-6.45E-02,1