File: Wood/Calibration_Data/Aalto/Aalto_ExpDat_mcfp_STA_10N2800Trial03-1.csv
##Temp./?C,Time/min,DSC/(uV/mg),Mass/%,Gas Flow(purge2)/(ml/min),Gas Flow(protective)/(ml/min),DTG/(%/min),Sensit./(uV/mW)
39.979,0,-3.40E-03,100,0.00E+00,70,6.15784,1
44.479,1.64853,-4.79E-02,99.58869,0.00E+00,70,-0.32075,1
48.979,2.30757,-4.82E-02,99.41879,0.00E+00,70,-0.20556,1
53.479,2.88293,-4.71E-02,99.3148,0.00E+00,70,-0.16856,1
57.979,3.40523,-5.29E-02,99.24637,0.00E+00,70,-0.15196,1
62.479,3.87973,-6.68E-02,99.16092,0.00E+00,70,-0.20969,1
66.979,4.31995,-8.15E-02,99.07169,0.00E+00,70,-0.1836,1
71.479,4.73484,-9.80E-02,98.98567,0.00E+00,70,-0.18282,1
75.979,5.13535,-0.11615,98.92173,0.00E+00,70,-0.24331,1
80.479,5.52509,-0.13725,98.80649,0.00E+00,70,-0.25524,1
84.979,5.90731,-0.16389,98.72081,0.00E+00,70,-0.20299,1
89.479,6.28302,-0.19676,98.65695,0.00E+00,70,-0.16691,1
93.979,6.65469,-0.23332,98.58569,0.00E+00,70,-0.15729,1
98.479,7.02372,-0.27209,98.54691,0.00E+00,70,-0.11886,1
102.979,7.39279,-0.31108,98.49777,0.00E+00,70,-0.11692,1
107.479,7.76314,-0.34614,98.4582,0.00E+00,70,-7.93E-02,1
111.979,8.136,-0.38072,98.44775,0.00E+00,70,-6.03E-02,1
116.479,8.51071,-0.4148,98.41499,0.00E+00,70,-2.50E-02,1
120.979,8.88881,-0.44416,98.41784,0.00E+00,70,-6.52E-03,1
125.479,9.26914,-0.47712,98.4196,0.00E+00,70,-2.83E-02,1
129.979,9.65084,-0.50857,98.40158,0.00E+00,70,-1.98E-02,1
134.479,10.03656,-0.54021,98.39329,0.00E+00,70,-1.70E-03,1
138.979,10.4243,-0.5686,98.40418,0.00E+00,70,-4.23E-02,1
143.479,10.8162,-0.59696,98.36838,0.00E+00,70,-3.17E-02,1
147.979,11.21164,-0.62646,98.36398,0.00E+00,70,-1.32E-02,1
152.479,11.61135,-0.65351,98.36167,0.00E+00,70,-2.97E-02,1
156.979,12.01564,-0.67869,98.33628,0.00E+00,70,-6.25E-02,1
161.479,12.42439,-0.70131,98.3194,0.00E+00,70,-9.59E-02,1
165.979,12.83761,-0.7231,98.26113,0.00E+00,70,-8.53E-02,1
170.479,13.2549,-0.74593,98.23606,0.00E+00,70,-0.12478,1
174.979,13.67639,-0.76613,98.16823,0.00E+00,70,-0.17382,1
179.479,14.10128,-0.78781,98.06311,0.00E+00,70,-0.22369,1
183.979,14.52796,-0.80837,97.98974,0.00E+00,70,-0.22562,1
188.479,14.95776,-0.82824,97.88172,0.00E+00,70,-0.31868,1
192.979,15.3895,-0.84763,97.71048,0.00E+00,70,-0.3828,1
197.479,15.82372,-0.86623,97.54362,0.00E+00,70,-0.44611,1
201.979,16.26107,-0.88748,97.32523,0.00E+00,70,-0.4923,1
206.479,16.70074,-0.90747,97.11724,0.00E+00,70,-0.51523,1
210.979,17.14274,-0.93112,96.85035,0.00E+00,70,-0.63201,1
215.479,17.58591,-0.95645,96.57605,0.00E+00,70,-0.58942,1
219.979,18.03091,-0.98543,96.31973,0.00E+00,70,-0.63996,1
224.479,18.47722,-1.01285,96.01137,0.00E+00,70,-0.69708,1
228.979,18.92468,-1.04414,95.69436,0.00E+00,70,-0.75098,1
233.479,19.37295,-1.0753,95.33772,0.00E+00,70,-0.82809,1
237.979,19.82215,-1.1077,94.9546,0.00E+00,70,-0.95239,1
242.479,20.27259,-1.14098,94.49182,0.00E+00,70,-1.10015,1
246.979,20.72266,-1.17582,93.95623,0.00E+00,70,-1.25444,1
251.479,21.17346,-1.21221,93.35751,0.00E+00,70,-1.39908,1
255.979,21.62428,-1.24992,92.69211,0.00E+00,70,-1.53738,1
260.479,22.07493,-1.2876,91.97182,0.00E+00,70,-1.72121,1
264.979,22.5269,-1.32204,91.1286,0.00E+00,70,-1.94073,1
269.479,22.9788,-1.35715,90.23002,0.00E+00,70,-2.05168,1
273.979,23.43011,-1.39304,89.26353,0.00E+00,70,-2.30104,1
278.479,23.88298,-1.42845,88.15569,0.00E+00,70,-2.4901,1
282.979,24.3359,-1.46297,87.00125,0.00E+00,70,-2.66725,1
287.479,24.78906,-1.4982,85.75544,0.00E+00,70,-2.912,1
291.979,25.24153,-1.53285,84.38724,0.00E+00,70,-3.13072,1
296.479,25.6946,-1.56448,82.89155,0.00E+00,70,-3.52805,1
300.979,26.14727,-1.59535,81.24531,0.00E+00,70,-3.77424,1
305.479,26.59924,-1.62371,79.42357,0.00E+00,70,-4.08178,1
309.979,27.05267,-1.64952,77.52476,0.00E+00,70,-4.36743,1
314.479,27.50542,-1.67339,75.485,0.00E+00,70,-4.73216,1
318.979,27.95767,-1.69194,73.24779,0.00E+00,70,-5.07207,1
323.479,28.41073,-1.70824,70.88605,0.00E+00,70,-5.3962,1
327.979,28.86284,-1.72137,68.39057,0.00E+00,70,-5.702,1
332.479,29.31555,-1.73211,65.71845,0.00E+00,70,-6.04089,1
336.979,29.76831,-1.73634,62.89937,0.00E+00,70,-6.34136,1
341.479,30.21963,-1.73453,59.97863,0.00E+00,70,-6.6533,1
345.979,30.67187,-1.72575,56.87947,0.00E+00,70,-7.04567,1
350.479,31.12333,-1.70945,53.60775,0.00E+00,70,-7.55021,1
354.979,31.57618,-1.68299,50.05404,0.00E+00,70,-8.15972,1
359.479,32.02929,-1.65278,46.20929,0.00E+00,70,-8.85269,1
363.979,32.48266,-1.6134,42.03861,0.00E+00,70,-9.46809,1
368.479,32.93594,-1.57731,37.64281,0.00E+00,70,-9.65904,1
372.979,33.38791,-1.55864,33.32311,0.00E+00,70,-8.95444,1
377.479,33.83837,-1.56654,29.59601,0.00E+00,70,-7.13981,1
381.979,34.28716,-1.62084,26.92737,0.00E+00,70,-4.47543,1
386.479,34.73484,-1.67196,25.55196,0.00E+00,70,-2.22968,1
390.979,35.19793,-1.89011,24.90894,0.00E+00,70,-1.07215,1
395.479,35.65549,-1.99392,24.50464,0.00E+00,70,-0.85903,1
399.979,36.10824,-2.03815,24.13488,0.00E+00,70,-0.80829,1
404.479,36.56129,-2.05613,23.77855,0.00E+00,70,-0.75223,1
408.979,37.01481,-2.07551,23.44935,0.00E+00,70,-0.71103,1
413.479,37.4664,-2.09628,23.11857,0.00E+00,70,-0.65318,1
417.979,37.91794,-2.1171,22.85578,0.00E+00,70,-0.62927,1
422.479,38.37025,-2.13343,22.57369,0.00E+00,70,-0.60921,1
426.979,38.82257,-2.15538,22.29927,0.00E+00,70,-0.60559,1
431.479,39.27426,-2.17926,22.01831,0.00E+00,70,-0.60536,1
435.979,39.72562,-2.20262,21.74718,0.00E+00,70,-0.57493,1
440.479,40.17776,-2.22595,21.49542,0.00E+00,70,-0.55797,1
444.979,40.63057,-2.25717,21.24671,0.00E+00,70,-0.52029,1
449.479,41.08291,-2.29468,21.02495,0.00E+00,70,-0.47776,1
453.979,41.53604,-2.34192,20.81435,0.00E+00,70,-0.47092,1
458.479,41.98886,-2.39062,20.6093,0.00E+00,70,-0.45296,1
462.979,42.44177,-2.44992,20.39826,0.00E+00,70,-0.43527,1
467.479,42.89532,-2.50454,20.21651,0.00E+00,70,-0.38611,1
471.979,43.351,-2.55905,20.04294,0.00E+00,70,-0.39091,1
476.479,43.80564,-2.62296,19.87032,0.00E+00,70,-0.36208,1
480.979,44.2566,-2.68288,19.71639,0.00E+00,70,-0.32586,1
485.479,44.70659,-2.73053,19.56779,0.00E+00,70,-0.31638,1
489.979,45.15619,-2.7645,19.42482,0.00E+00,70,-0.29783,1
494.479,45.60655,-2.79033,19.30424,0.00E+00,70,-0.28898,1
498.979,46.05735,-2.80893,19.17371,0.00E+00,70,-0.37075,1
503.479,46.50865,-2.82263,18.94808,0.00E+00,70,-0.407,1
507.979,46.95951,-2.8257,18.81762,0.00E+00,70,-0.29147,1
512.479,47.41125,-2.82088,18.68608,0.00E+00,70,-0.2406,1
516.979,47.86285,-2.82095,18.60001,0.00E+00,70,-0.23184,1
521.479,48.31397,-2.82096,18.45765,0.00E+00,70,-0.28533,1
525.979,48.76413,-2.82565,18.35703,0.00E+00,70,-0.27957,1
530.479,49.21515,-2.8326,18.22278,0.00E+00,70,-0.27675,1
534.979,49.66513,-2.83898,18.101,0.00E+00,70,-0.2693,1
539.479,50.11631,-2.84358,17.97236,0.00E+00,70,-0.26575,1
543.979,50.56689,-2.84914,17.86213,0.00E+00,70,-0.27191,1
548.479,51.0175,-2.85699,17.72763,0.00E+00,70,-0.29938,1
552.979,51.46825,-2.86185,17.59113,0.00E+00,70,-0.2893,1
557.479,51.919,-2.86884,17.46465,0.00E+00,70,-0.3038,1
561.979,52.36965,-2.87252,17.32857,0.00E+00,70,-0.27025,1
566.479,52.82088,-2.87814,17.22528,0.00E+00,70,-0.19267,1
570.979,53.27103,-2.88284,17.1416,0.00E+00,70,-0.26756,1
575.479,53.72102,-2.8916,16.98236,0.00E+00,70,-0.24181,1
579.979,54.17188,-2.89123,16.90774,0.00E+00,70,-0.22218,1
584.479,54.6225,-2.89489,16.79325,0.00E+00,70,-0.26333,1
588.979,55.07221,-2.89732,16.67886,0.00E+00,70,-0.30258,1
593.479,55.52168,-2.90198,16.53956,0.00E+00,70,-0.29232,1
597.979,55.97125,-2.90325,16.40947,0.00E+00,70,-0.30603,1
602.479,56.42205,-2.90088,16.30437,0.00E+00,70,-0.17279,1
606.979,56.87234,-2.89917,16.19935,0.00E+00,70,-0.2802,1
611.479,57.32208,-2.89892,16.07848,0.00E+00,70,-0.32651,1
615.979,57.77219,-2.89765,15.94793,0.00E+00,70,-0.19523,1
620.479,58.22249,-2.89756,15.84057,0.00E+00,70,-0.22405,1
624.979,58.67222,-2.89384,15.74245,0.00E+00,70,-0.21527,1
629.479,59.12178,-2.89172,15.64246,0.00E+00,70,-0.24992,1
633.979,59.57212,-2.88877,15.56377,0.00E+00,70,-0.15635,1
638.479,60.02316,-2.88799,15.46702,0.00E+00,70,-0.21936,1
642.979,60.4728,-2.88477,15.37129,0.00E+00,70,-0.18934,1
647.479,60.92268,-2.88088,15.28775,0.00E+00,70,-0.18995,1
651.979,61.37273,-2.87081,15.19372,0.00E+00,70,-0.21593,1
656.479,61.82224,-2.86856,15.10395,0.00E+00,70,-0.19541,1
660.979,62.27232,-2.86036,15.01522,0.00E+00,70,-0.16613,1
665.479,62.72255,-2.85449,14.95544,0.00E+00,70,-0.15304,1
669.979,63.17373,-2.84791,14.87974,0.00E+00,70,-0.14412,1
674.479,63.6235,-2.845,14.81599,0.00E+00,70,-0.17874,1
678.979,64.07286,-2.83985,14.71603,0.00E+00,70,-0.24765,1
683.479,64.52249,-2.83044,14.60075,0.00E+00,70,-0.17049,1
687.979,64.97091,-2.82473,14.56292,0.00E+00,70,-0.10586,1
692.479,65.41974,-2.81507,14.51031,0.00E+00,70,-0.14262,1
696.979,65.8697,-2.80316,14.43012,0.00E+00,70,-0.16839,1
701.479,66.31878,-2.79165,14.3641,0.00E+00,70,-0.15653,1
705.979,66.76768,-2.78022,14.28346,0.00E+00,70,-0.18664,1
710.479,67.2166,-2.76884,14.19671,0.00E+00,70,-0.15613,1
714.979,67.66631,-2.75611,14.13998,0.00E+00,70,-0.14093,1
719.479,68.11596,-2.74404,14.07344,0.00E+00,70,-0.14719,1
723.979,68.56516,-2.72869,14.02224,0.00E+00,70,-0.10953,1
728.479,69.01496,-2.71174,13.9633,0.00E+00,70,-0.13041,1
732.979,69.46452,-2.69919,13.9069,0.00E+00,70,-0.13008,1
737.479,69.91497,-2.68231,13.83969,0.00E+00,70,-0.13981,1
741.979,70.3655,-2.66518,13.7907,0.00E+00,70,-6.76E-02,1
746.479,70.81423,-2.65455,13.75848,0.00E+00,70,-0.11671,1
750.979,71.26315,-2.63922,13.70581,0.00E+00,70,-0.13201,1
755.479,71.71098,-2.62657,13.63898,0.00E+00,70,-0.15097,1
759.979,72.16104,-2.6049,13.57053,0.00E+00,70,-0.21845,1
764.479,72.61191,-2.58229,13.49995,0.00E+00,70,-4.69E-02,1
768.979,73.06168,-2.56715,13.47367,0.00E+00,70,-0.10887,1
773.479,73.5109,-2.55206,13.39674,0.00E+00,70,-0.15527,1
777.979,73.96004,-2.52967,13.33334,0.00E+00,70,-9.73E-02,1
782.479,74.41057,-2.50383,13.29403,0.00E+00,70,-9.69E-02,1
786.979,74.85984,-2.47985,13.25361,0.00E+00,70,-0.15179,1
791.479,75.30947,-2.45726,13.08567,0.00E+00,70,-0.13938,1
795.979,75.75805,-2.4315,13.14949,0.00E+00,70,-1.87E-02,1
797.479,75.90741,-2.42337,13.14187,0.00E+00,70,-3.27E-02,1