File: Wood/Calibration_Data/Aalto/Aalto_Wood_TGA_N2_10K_R1.csv
Time (s),Temperature (K),Mass (mg)
0,313.2,7.427
84.0258,316.1,7.421
113.7846,319.1,7.420
138.9312,322.1,7.419
162.0252,325.1,7.419
183.6252,328.1,7.417
204.1512,331.1,7.413
223.4418,334.1,7.410
241.6422,337.1,7.407
258.9354,340.1,7.402
275.7276,343.1,7.398
291.9924,346.1,7.394
307.8636,349.1,7.391
323.5194,352.1,7.385
338.9196,355.1,7.382
354.1296,358,7.379
369.1512,361,7.378
384.042,364,7.375
398.8488,367,7.371
413.5926,370,7.369
428.3232,373,7.366
443.0424,376,7.364
457.7982,379,7.364
472.6506,382,7.363
487.5582,385,7.364
502.5492,388,7.361
517.572,391,7.361
532.6614,394,7.361
547.7832,397,7.360
563.0166,400,7.359
578.2686,402.9,7.359
593.5542,405.9,7.358
608.9736,408.9,7.357
624.4722,411.9,7.357
640.0656,414.9,7.354
655.7208,417.9,7.355
671.5236,420.9,7.353
687.426,423.9,7.352
703.4244,426.9,7.351
719.544,429.9,7.349
735.84,432.9,7.348
752.1582,435.9,7.347
768.6618,438.9,7.344
785.28,441.9,7.341
802.0146,444.9,7.338
818.802,447.8,7.336
835.7028,450.8,7.331
852.6372,453.8,7.326
869.6538,456.8,7.321
886.8114,459.8,7.315
904.0248,462.8,7.309
921.2856,465.8,7.301
938.6208,468.8,7.291
956.0088,471.8,7.281
973.449,474.8,7.269
990.9702,477.8,7.259
1008.55,480.8,7.246
1026.16,483.8,7.233
1043.838,486.8,7.220
1061.58,489.8,7.205
1079.34,492.7,7.191
1097.13,495.7,7.177
1114.971,498.7,7.163
1132.854,501.7,7.144
1150.79,504.7,7.127
1168.683,507.7,7.107
1186.6,510.7,7.089
1204.57,513.7,7.068
1222.599,516.7,7.043
1240.57,519.7,7.017
1258.59,522.7,6.989
1276.6,525.7,6.958
1294.65,528.7,6.924
1312.68,531.7,6.890
1330.74,534.7,6.850
1348.78,537.6,6.810
1366.8,540.6,6.766
1384.83,543.6,6.721
1402.9,546.6,6.669
1420.91,549.6,6.618
1438.99,552.6,6.566
1457.06,555.6,6.511
1475.15,558.6,6.449
1493.2,561.6,6.383
1511.33,564.6,6.315
1529.38,567.6,6.233
1547.48,570.6,6.167
1565.58,573.6,6.089
1583.69,576.6,5.996
1601.76,579.5,5.914
1619.86,582.5,5.821
1637.94,585.5,5.720
1656.01,588.5,5.617
1674.04,591.5,5.507
1692.11,594.5,5.393
1710.21,597.5,5.275
1728.28,600.5,5.153
1746.4,603.5,5.023
1764.5,606.5,4.891
1782.61,609.5,4.753
1800.687,612.5,4.611
1818.756,615.5,4.465
1836.85,618.5,4.313
1854.915,621.5,4.154
1873.01,624.4,3.988
1891.1,627.4,3.815
1909.18,630.4,3.627
1927.32,633.4,3.429
1945.39,636.4,3.223
1963.49,639.4,3.007
1981.59,642.4,2.787
1999.68,645.4,2.567
2017.76,648.4,2.358
2035.83,651.4,2.173
2053.84,654.4,2.022
2071.842,657.4,1.919
2089.82,660.4,1.850
2107.76,663.4,1.814
2125.755,666.4,1.790
2143.79,669.3,1.770
2161.82,672.3,1.750
2179.86,675.3,1.731
2197.902,678.3,1.715
2215.93,681.3,1.698
2233.92,684.3,1.682
2251.92,687.3,1.665
2269.93,690.3,1.650
2287.93,693.3,1.633
2305.88,696.3,1.619
2323.83,699.3,1.604
2341.79,702.3,1.589
2359.78,705.3,1.574
2377.77,708.3,1.561
2395.73,711.3,1.546
2413.67,714.2,1.534
2431.659,717.2,1.521
2449.61,720.2,1.506
2467.52,723.2,1.495
2485.48,726.2,1.484
2503.38,729.2,1.473
2521.311,732.2,1.460
2539.27,735.2,1.449
2557.19,738.2,1.440
2575.09,741.2,1.431
2593.01,744.2,1.423
2610.94,747.2,1.413
2628.91,750.2,1.405
2646.93,753.2,1.396
2664.94,756.2,1.388
2682.95,759.1,1.382
2700.98,762.1,1.374
2719.04,765.1,1.367
2737.12,768.1,1.362
2755.22,771.1,1.355
2773.34,774.1,1.348
2791.48,777.1,1.337
2809.61,780.1,1.330
2827.75,783.1,1.324
2845.93,786.1,1.320
2864.142,789.1,1.317
2882.37,792.1,1.313
2900.57,795.1,1.305
2918.77,798.1,1.302
2936.99,801,1.297
2955.22,804,1.291
2973.45,807,1.286
2991.64,810,1.280
3009.77,813,1.276
3027.91,816,1.272
3046.008,819,1.267
3064.14,822,1.269
3082.18,825,1.254
3100.22,828,1.250
3118.233,831,1.246
3136.245,834,1.242
3154.221,837,1.237
3172.2,840,1.234
3190.2,843,1.231
3208.14,845.9,1.225
3226.09,848.9,1.220
3244.01,851.9,1.223
3261.95,854.9,1.217
3279.84,857.9,1.212
3297.75,860.9,1.210
3315.72,863.9,1.204
3333.68,866.9,1.199
3351.62,869.9,1.194
3369.54,872.9,1.186
3387.47,875.9,1.187
3405.41,878.9,1.184
3423.375,881.9,1.181
3441.29,884.9,1.177
3459.25,887.9,1.171
3477.21,890.8,1.169
3495.2,893.8,1.165
3513.18,896.8,1.162
3531.1,899.8,1.158
3549.06,902.8,1.153
3566.98,905.8,1.151
3584.9,908.8,1.150
3602.86,911.8,1.146
3620.81,914.8,1.143
3638.739,917.8,1.142
3656.66,920.8,1.139
3674.613,923.8,1.137
3692.54,926.8,1.134
3710.45,929.8,1.131
3728.39,932.8,1.129
3746.32,935.7,1.127
3764.28,938.7,1.126
3782.22,941.7,1.124
3800.15,944.7,1.121
3818.09,947.7,1.121
3836.08,950.7,1.117
3854.01,953.7,1.114
3871.94,956.7,1.111
3889.89,959.7,1.112
3907.81,962.7,1.109
3925.722,965.7,1.107
3943.67,968.7,1.104
3961.63,971.7,1.112
3979.569,974.7,1.105
3997.45,977.7,1.101
4015.37,980.6,1.100
4033.28,983.6,1.092
4051.24,986.6,1.094
4069.15,989.6,1.086
4087.08,992.6,1.086
4105.02,995.6,1.086
4122.96,998.6,1.088
4140.9,1001.6,1.086
4158.82,1004.6,1.085
4176.77,1007.6,1.082
4194.747,1010.6,1.081
4212.621,1013.6,1.079
4230.5,1016.6,1.080
4248.42,1019.6,1.079
4266.36,1022.5,1.078
4284.32,1025.5,1.076
4302.279,1028.5,1.074
4320.21,1031.5,1.071
4338.17,1034.5,1.068
4356.11,1037.5,1.065
4374.06,1040.5,1.065
4391.997,1043.5,1.064
4409.89,1046.5,1.063
4427.82,1049.5,1.060
4445.78,1052.5,1.059
4463.69,1055.5,1.057
4481.62,1058.5,1.057
4499.55,1061.5,1.055
4517.45,1064.5,1.046
4535.4,1067.4,1.052
4553.34,1070.4,1.052
4556.35,1070.9,1.052