File: Wood/Calibration_Data/Aalto/Aalto_Wood_STA_N2_10K_R3.csv
Time (s),Temperature (K),Mass (mg),,,,
0,313.162,8.054,,,,
83.4786,316.162,8.02961,,,,
113.6928,319.162,8.01774,,,,
139.2846,322.162,8.00917,,,,
162.6846,325.162,8.00294,,,,
184.677,328.162,7.99625,,,,
205.2102,331.162,7.99282,,,,
224.391,334.162,7.99009,,,,
242.5662,337.162,7.98519,,,,
259.914,340.162,7.98157,,,,
276.6588,343.162,7.97904,,,,
292.9098,346.162,7.97638,,,,
308.8068,349.162,7.97174,,,,
324.4572,352.162,7.966,,,,
339.8664,355.162,7.96044,,,,
355.104,358.162,7.95793,,,,
370.1208,361.162,7.95482,,,,
385.0062,364.162,7.95185,,,,
399.8256,367.162,7.94748,,,,
414.6102,370.162,7.94587,,,,
429.372,373.162,7.94309,,,,
444.1338,376.162,7.94004,,,,
458.9442,379.162,7.93767,,,,
473.8026,382.162,7.93627,,,,
488.6796,385.162,7.93865,,,,
503.6658,388.162,7.93683,,,,
518.7588,391.162,7.93636,,,,
533.8338,394.162,7.93678,,,,
549.0132,397.162,7.93677,,,,
564.2142,400.162,7.93603,,,,
579.5316,403.162,7.93538,,,,
594.8898,406.162,7.9348,,,,
610.3458,409.162,7.93417,,,,
625.8894,412.162,7.93404,,,,
641.5446,415.162,7.93134,,,,
657.2538,418.162,7.93216,,,,
673.0872,421.162,7.93189,,,,
689.0346,424.162,7.93208,,,,
705.1158,427.162,7.93126,,,,
721.3152,430.162,7.92967,,,,
737.6418,433.162,7.9284,,,,
754.0632,436.162,7.92793,,,,
770.6262,439.162,7.92488,,,,
787.257,442.162,7.92269,,,,
804.0078,445.162,7.92046,,,,
820.8546,448.162,7.91677,,,,
837.7866,451.162,7.91337,,,,
854.8014,454.162,7.90892,,,,
871.893,457.162,7.90316,,,,
889.0572,460.162,7.89754,,,,
906.2292,463.162,7.89108,,,,
923.5134,466.162,7.88309,,,,
940.8864,469.162,7.87522,,,,
958.2852,472.162,7.86681,,,,
975.7758,475.162,7.85697,,,,
993.3108,478.162,7.84584,,,,
1010.93,481.162,7.83282,,,,
1028.589,484.162,7.81887,,,,
1046.313,487.162,7.80613,,,,
1064.1,490.162,7.7911,,,,
1081.89,493.162,7.77717,,,,
1099.749,496.162,7.76163,,,,
1117.641,499.162,7.74456,,,,
1135.56,502.162,7.727,,,,
1153.5,505.162,7.70723,,,,
1171.46,508.162,7.68732,,,,
1189.45,511.162,7.66495,,,,
1207.43,514.162,7.6409,,,,
1225.41,517.162,7.61531,,,,
1243.48,520.162,7.58788,,,,
1261.51,523.162,7.55604,,,,
1279.57,526.162,7.52232,,,,
1297.644,529.162,7.4852,,,,
1315.71,532.162,7.44742,,,,
1333.79,535.162,7.40668,,,,
1351.87,538.162,7.36325,,,,
1369.91,541.162,7.3165,,,,
1387.99,544.162,7.26644,,,,
1406.09,547.162,7.2128,,,,
1424.18,550.162,7.15478,,,,
1442.26,553.162,7.097,,,,
1460.38,556.162,7.0342,,,,
1478.48,559.162,6.96812,,,,
1496.59,562.162,6.89687,,,,
1514.739,565.162,6.82507,,,,
1532.87,568.162,6.74022,,,,
1551,571.162,6.66068,,,,
1569.11,574.162,6.56865,,,,
1587.24,577.162,6.474,,,,
1605.37,580.162,6.37688,,,,
1623.51,583.162,6.27539,,,,
1641.64,586.162,6.16929,,,,
1659.76,589.162,6.05389,,,,
1677.87,592.162,5.9349,,,,
1695.99,595.162,5.81175,,,,
1714.11,598.162,5.68144,,,,
1732.27,601.162,5.54716,,,,
1750.386,604.162,5.40562,,,,
1768.52,607.162,5.26148,,,,
1786.6,610.162,5.1102,,,,
1804.71,613.162,4.95543,,,,
1822.85,616.162,4.7955,,,,
1840.97,619.162,4.62705,,,,
1859.12,622.162,4.45341,,,,
1877.25,625.162,4.27186,,,,
1895.43,628.162,4.07731,,,,
1913.562,631.162,3.87212,,,,
1931.7,634.162,3.65421,,,,
1949.86,637.162,3.42963,,,,
1967.96,640.162,3.19213,,,,
1986.09,643.162,2.95058,,,,
2004.2,646.162,2.7157,,,,
2022.35,649.162,2.49221,,,,
2040.48,652.162,2.30078,,,,
2058.53,655.162,2.15295,,,,
2076.6,658.162,2.05234,,,,
2094.62,661.162,1.99133,,,,
2112.651,664.162,1.95696,,,,
2130.69,667.162,1.93197,,,,
2148.702,670.162,1.90904,,,,
2166.76,673.162,1.88858,,,,
2184.82,676.162,1.86688,,,,
2202.84,679.162,1.84765,,,,
2220.91,682.162,1.82818,,,,
2238.97,685.162,1.81081,,,,
2257.05,688.162,1.79269,,,,
2275.071,691.162,1.77418,,,,
2293.15,694.162,1.75602,,,,
2311.185,697.162,1.74108,,,,
2329.22,700.162,1.72383,,,,
2347.25,703.162,1.70686,,,,
2365.32,706.162,1.69102,,,,
2383.32,709.162,1.67376,,,,
2401.317,712.162,1.65848,,,,
2419.28,715.162,1.64434,,,,
2437.257,718.162,1.6303,,,,
2455.18,721.162,1.61572,,,,
2473.1,724.162,1.60375,,,,
2490.98,727.162,1.5914,,,,
2508.91,730.162,1.57799,,,,
2526.86,733.162,1.56615,,,,
2544.82,736.162,1.55312,,,,
2562.76,739.162,1.54308,,,,
2580.696,742.162,1.53379,,,,
2598.606,745.162,1.52271,,,,
2616.53,748.162,1.5133,,,,
2634.48,751.162,1.50397,,,,
2652.444,754.162,1.49591,,,,
2670.4,757.162,1.48844,,,,
2688.35,760.162,1.48012,,,,
2706.318,763.162,1.47233,,,,
2724.26,766.162,1.46373,,,,
2742.28,769.162,1.45724,,,,
2760.27,772.162,1.45036,,,,
2778.273,775.162,1.44183,,,,
2796.27,778.162,1.43029,,,,
2814.31,781.162,1.42444,,,,
2832.372,784.162,1.41791,,,,
2850.42,787.162,1.4136,,,,
2868.52,790.162,1.40792,,,,
2886.61,793.162,1.40238,,,,
2904.71,796.162,1.3963,,,,
2922.849,799.162,1.39245,,,,
2941.023,802.162,1.3867,,,,
2959.19,805.162,1.38195,,,,
2977.38,808.162,1.37557,,,,
2995.58,811.162,1.37145,,,,
3013.8,814.162,1.3653,,,,
3032,817.162,1.36011,,,,
3050.2,820.162,1.3551,,,,
3068.42,823.162,1.34942,,,,
3086.64,826.162,1.34328,,,,
3104.83,829.162,1.33771,,,,
3123.084,832.162,1.33325,,,,
3141.36,835.162,1.32857,,,,
3159.63,838.162,1.32256,,,,
3177.903,841.162,1.31842,,,,
3196.152,844.162,1.31419,,,,
3214.43,847.162,1.30819,,,,
3232.695,850.162,1.30614,,,,
3250.93,853.162,1.30348,,,,
3269.13,856.162,1.29866,,,,
3287.33,859.162,1.29362,,,,
3305.48,862.162,1.28772,,,,
3323.61,865.162,1.28127,,,,
3341.7,868.162,1.27655,,,,
3359.77,871.162,1.2719,,,,
3377.817,874.162,1.26672,,,,
3395.88,877.162,1.26468,,,,
3413.94,880.162,1.26098,,,,
3431.98,883.162,1.25527,,,,
3449.99,886.162,1.24516,,,,
3467.98,889.162,1.24567,,,,
3485.98,892.162,1.24197,,,,
3503.95,895.162,1.23967,,,,
3521.93,898.162,1.23607,,,,
3539.86,901.162,1.23218,,,,
3557.81,904.162,1.22358,,,,
3575.8,907.162,1.22557,,,,
3593.75,910.162,1.2209,,,,
3611.69,913.162,1.21873,,,,
3629.619,916.162,1.21688,,,,
3647.55,919.162,1.21427,,,,
3665.48,922.162,1.21159,,,,
3683.41,925.162,1.20843,,,,
3701.34,928.162,1.20588,,,,
3719.27,931.162,1.20306,,,,
3737.26,934.162,1.20001,,,,
3755.232,937.162,1.19792,,,,
3773.16,940.162,1.19724,,,,
3791.1,943.162,1.19543,,,,
3809.03,946.162,1.19403,,,,
3827.01,949.162,1.19198,,,,
3845.01,952.162,1.18748,,,,
3862.95,955.162,1.18396,,,,
3880.87,958.162,1.18298,,,,
3898.77,961.162,1.18275,,,,
3916.67,964.162,1.18108,,,,
3934.6,967.162,1.18051,,,,
3952.53,970.162,1.17557,,,,
3970.53,973.162,1.17327,,,,
3988.49,976.162,1.17114,,,,
4006.47,979.162,1.16878,,,,
4024.47,982.162,1.1657,,,,
4042.452,985.162,1.16345,,,,
4060.446,988.162,1.16215,,,,
4078.42,991.162,1.16039,,,,
4096.41,994.162,1.15752,,,,
4114.434,997.162,1.15691,,,,
4132.46,1000.162,1.15741,,,,
4150.44,1003.162,1.15535,,,,
4168.44,1006.162,1.1532,,,,
4186.42,1009.162,1.15078,,,,
4204.44,1012.162,1.14904,,,,
4222.47,1015.162,1.14854,,,,
4240.42,1018.162,1.1491,,,,
4258.42,1021.162,1.14726,,,,
4276.44,1024.162,1.14612,,,,
4294.46,1027.162,1.14358,,,,
4312.473,1030.162,1.14257,,,,
4330.46,1033.162,1.14038,,,,
4348.443,1036.162,1.13199,,,,
4366.46,1039.162,1.13733,,,,
4384.43,1042.162,1.13582,,,,
4402.44,1045.162,1.13449,,,,
4420.428,1048.162,1.13112,,,,
4438.437,1051.162,1.12887,,,,
4456.4,1054.162,1.12813,,,,
4474.37,1057.162,1.12647,,,,
4492.34,1060.162,1.1249,,,,
4510.34,1063.162,1.12488,,,,
4528.32,1066.162,1.1209,,,,
4546.308,1069.162,1.12213,,,,
4555.29,1070.662,1.12138,,,,