File: Wood/Calibration_Data/Aalto/Aalto_Wood_STA_N2_10K_R2.csv
Time (s),Temperature (K),Mass (mg),,,,
0,313.129,8.0765,,,,
82.9776,316.129,8.05019,,,,
113.0922,319.129,8.03848,,,,
138.4542,322.129,8.02956,,,,
161.8614,325.129,8.02533,,,,
183.7278,328.129,8.01966,,,,
204.3138,331.129,8.01563,,,,
223.5708,334.129,8.01184,,,,
241.7844,337.129,8.00556,,,,
259.197,340.129,8.00153,,,,
275.9034,343.129,7.99752,,,,
292.1706,346.129,7.9938,,,,
308.121,349.129,7.98941,,,,
323.754,352.129,7.98234,,,,
339.1956,355.129,7.97746,,,,
354.4386,358.129,7.97319,,,,
369.4932,361.129,7.96884,,,,
384.4326,364.129,7.96643,,,,
399.2814,367.129,7.96227,,,,
414.042,370.129,7.96009,,,,
428.811,373.129,7.95783,,,,
443.5674,376.129,7.95517,,,,
458.37,379.129,7.95301,,,,
473.2194,382.129,7.95119,,,,
488.16,385.129,7.95113,,,,
503.1354,388.129,7.94919,,,,
518.1834,391.129,7.94867,,,,
533.3286,394.129,7.94872,,,,
548.5242,397.129,7.94861,,,,
563.7684,400.129,7.94773,,,,
579.0504,403.129,7.9474,,,,
594.4566,406.129,7.94676,,,,
609.9354,409.129,7.94709,,,,
625.458,412.129,7.94761,,,,
641.1102,415.129,7.9447,,,,
656.865,418.129,7.94481,,,,
672.6984,421.129,7.94437,,,,
688.662,424.129,7.94431,,,,
704.7276,427.129,7.94372,,,,
720.9384,430.129,7.94213,,,,
737.283,433.129,7.94086,,,,
753.6876,436.129,7.93887,,,,
770.2566,439.129,7.93606,,,,
786.9276,442.129,7.93517,,,,
803.6964,445.129,7.93187,,,,
820.5834,448.129,7.92856,,,,
837.5508,451.129,7.92463,,,,
854.589,454.129,7.9182,,,,
871.6776,457.129,7.91414,,,,
888.8364,460.129,7.90803,,,,
906.102,463.129,7.89983,,,,
923.37,466.129,7.89159,,,,
940.752,469.129,7.88343,,,,
958.1388,472.129,7.87222,,,,
975.6642,475.129,7.86047,,,,
993.2136,478.129,7.84905,,,,
1010.88,481.129,7.8378,,,,
1028.56,484.129,7.82212,,,,
1046.28,487.129,7.8067,,,,
1064.058,490.129,7.7932,,,,
1081.85,493.129,7.77926,,,,
1099.68,496.129,7.76313,,,,
1117.59,499.129,7.74592,,,,
1135.48,502.129,7.72875,,,,
1153.41,505.129,7.70993,,,,
1171.36,508.129,7.68936,,,,
1189.329,511.129,7.66901,,,,
1207.34,514.129,7.64408,,,,
1225.344,517.129,7.6176,,,,
1243.36,520.129,7.58837,,,,
1261.38,523.129,7.5557,,,,
1279.45,526.129,7.52286,,,,
1297.46,529.129,7.48628,,,,
1315.45,532.129,7.44753,,,,
1333.545,535.129,7.40693,,,,
1351.614,538.129,7.36,,,,
1369.69,541.129,7.3121,,,,
1387.743,544.129,7.26193,,,,
1405.81,547.129,7.209369,,,,
1423.92,550.129,7.14943,,,,
1442.05,553.129,7.08933,,,,
1460.154,556.129,7.02666,,,,
1478.27,559.129,6.95958,,,,
1496.41,562.129,6.887,,,,
1514.49,565.129,6.81554,,,,
1532.61,568.129,6.73526,,,,
1550.73,571.129,6.64936,,,,
1568.84,574.129,6.56178,,,,
1586.91,577.129,6.46774,,,,
1605.03,580.129,6.36712,,,,
1623.16,583.129,6.26129,,,,
1641.29,586.129,6.15324,,,,
1659.4,589.129,6.03673,,,,
1677.46,592.129,5.91586,,,,
1695.57,595.129,5.79081,,,,
1713.69,598.129,5.65798,,,,
1731.77,601.129,5.52356,,,,
1749.88,604.129,5.38029,,,,
1767.981,607.129,5.23349,,,,
1786.1,610.129,5.08007,,,,
1804.15,613.129,4.92545,,,,
1822.22,616.129,4.7625,,,,
1840.31,619.129,4.59387,,,,
1858.344,622.129,4.42095,,,,
1876.46,625.129,4.23616,,,,
1894.57,628.129,4.04261,,,,
1912.7,631.129,3.83885,,,,
1930.81,634.129,3.62265,,,,
1948.96,637.129,3.39525,,,,
1967.09,640.129,3.15894,,,,
1985.22,643.129,2.9214,,,,
2003.27,646.129,2.69134,,,,
2021.32,649.129,2.48186,,,,
2039.28,652.129,2.30728,,,,
2057.23,655.129,2.17479,,,,
2075.08,658.129,2.09433,,,,
2093.31,661.129,2.04125,,,,
2111.88,664.129,2.01177,,,,
2130.22,667.129,1.98994,,,,
2148.41,670.129,1.9686,,,,
2166.49,673.129,1.94925,,,,
2184.61,676.129,1.92922,,,,
2202.76,679.129,1.91095,,,,
2220.89,682.129,1.89389,,,,
2238.95,685.129,1.87702,,,,
2257.02,688.129,1.86084,,,,
2275.08,691.129,1.84595,,,,
2293.17,694.129,1.83011,,,,
2311.27,697.129,1.81525,,,,
2329.35,700.129,1.801,,,,
2347.434,703.129,1.78593,,,,
2365.48,706.129,1.7717,,,,
2383.54,709.129,1.75641,,,,
2401.617,712.129,1.7431,,,,
2419.731,715.129,1.72984,,,,
2437.83,718.129,1.71599,,,,
2455.92,721.129,1.70402,,,,
2474.03,724.129,1.6928,,,,
2492.16,727.129,1.68107,,,,
2510.29,730.129,1.67003,,,,
2528.39,733.129,1.65866,,,,
2546.51,736.129,1.64747,,,,
2564.64,739.129,1.63727,,,,
2582.83,742.129,1.62845,,,,
2601.06,745.129,1.61877,,,,
2619.26,748.129,1.60937,,,,
2637.39,751.129,1.59949,,,,
2655.396,754.129,1.59239,,,,
2673.4,757.129,1.58477,,,,
2691.39,760.129,1.57715,,,,
2709.37,763.129,1.56885,,,,
2727.363,766.129,1.56311,,,,
2745.42,769.129,1.5556,,,,
2763.441,772.129,1.54856,,,,
2781.5,775.129,1.53746,,,,
2799.525,778.129,1.5269,,,,
2817.57,781.129,1.51981,,,,
2835.65,784.129,1.51232,,,,
2853.72,787.129,1.50655,,,,
2871.771,790.129,1.50223,,,,
2889.82,793.129,1.49596,,,,
2907.84,796.129,1.48856,,,,
2925.85,799.129,1.48261,,,,
2943.92,802.129,1.47486,,,,
2961.89,805.129,1.46842,,,,
2979.91,808.129,1.46193,,,,
2997.94,811.129,1.4553,,,,
3015.99,814.129,1.44872,,,,
3034.01,817.129,1.44263,,,,
3052.05,820.129,1.43552,,,,
3070.07,823.129,1.42809,,,,
3088.095,826.129,1.42075,,,,
3106.12,829.129,1.41474,,,,
3124.15,832.129,1.40684,,,,
3142.179,835.129,1.39954,,,,
3160.24,838.129,1.39326,,,,
3178.254,841.129,1.39004,,,,
3196.26,844.129,1.38444,,,,
3214.27,847.129,1.37507,,,,
3232.26,850.129,1.37046,,,,
3250.31,853.129,1.36555,,,,
3268.329,856.129,1.36013,,,,
3286.35,859.129,1.35388,,,,
3304.33,862.129,1.34707,,,,
3322.31,865.129,1.33916,,,,
3340.284,868.129,1.33238,,,,
3358.275,871.129,1.32531,,,,
3376.31,874.129,1.31651,,,,
3394.31,877.129,1.31509,,,,
3412.34,880.129,1.30834,,,,
3430.34,883.129,1.30104,,,,
3448.33,886.129,1.28799,,,,
3466.33,889.129,1.28803,,,,
3484.35,892.129,1.28183,,,,
3502.34,895.129,1.27691,,,,
3520.33,898.129,1.27144,,,,
3538.33,901.129,1.26708,,,,
3556.31,904.129,1.25617,,,,
3574.33,907.129,1.25701,,,,
3592.389,910.129,1.25183,,,,
3610.37,913.129,1.24552,,,,
3628.368,916.129,1.24146,,,,
3646.35,919.129,1.23677,,,,
3664.37,922.129,1.23276,,,,
3682.36,925.129,1.22712,,,,
3700.35,928.129,1.22181,,,,
3718.33,931.129,1.2176,,,,
3736.34,934.129,1.2127,,,,
3754.35,937.129,1.20917,,,,
3772.38,940.129,1.20564,,,,
3790.42,943.129,1.20176,,,,
3808.41,946.129,1.19882,,,,
3826.4,949.129,1.19554,,,,
3844.37,952.129,1.18854,,,,
3862.36,955.129,1.18239,,,,
3880.33,958.129,1.17805,,,,
3898.25,961.129,1.17617,,,,
3916.2,964.129,1.17347,,,,
3934.18,967.129,1.16993,,,,
3952.182,970.129,1.16545,,,,
3970.14,973.129,1.1611,,,,
3988.11,976.129,1.15828,,,,
4006.06,979.129,1.1536,,,,
4024.01,982.129,1.14909,,,,
4041.99,985.129,1.14534,,,,
4059.98,988.129,1.14202,,,,
4077.96,991.129,1.13829,,,,
4095.94,994.129,1.13458,,,,
4113.91,997.129,1.13251,,,,
4131.888,1000.129,1.12917,,,,
4149.91,1003.129,1.12603,,,,
4167.87,1006.129,1.12319,,,,
4185.88,1009.129,1.12001,,,,
4203.91,1012.129,1.11572,,,,
4221.93,1015.129,1.11381,,,,
4239.88,1018.129,1.11314,,,,
4257.837,1021.129,1.10934,,,,
4275.789,1024.129,1.10695,,,,
4293.681,1027.129,1.10321,,,,
4311.65,1030.129,1.09964,,,,
4329.66,1033.129,1.09602,,,,
4347.7,1036.129,1.08569,,,,
4365.72,1039.129,1.08959,,,,
4383.7,1042.129,1.0882,,,,
4401.67,1045.129,1.08415,,,,
4419.627,1048.129,1.07982,,,,
4437.6,1051.129,1.07687,,,,
4455.63,1054.129,1.07559,,,,
4473.62,1057.129,1.07297,,,,
4491.59,1060.129,1.07043,,,,
4509.58,1063.129,1.06708,,,,
4527.55,1066.129,1.06155,,,,
4545.483,1069.129,1.06202,,,,
4554.44,1070.629,1.0614,,,,