File: Wood/Calibration_Data/Aalto/Aalto_Wood_TGA_N2_10K_R3.csv
Time (s),Temperature (K),Mass (mg)
0,313.2,8.054
83.4786,316.2,8.030
113.6928,319.2,8.018
139.2846,322.2,8.009
162.6846,325.2,8.003
184.677,328.2,7.996
205.2102,331.2,7.993
224.391,334.2,7.990
242.5662,337.2,7.985
259.914,340.2,7.982
276.6588,343.2,7.979
292.9098,346.2,7.976
308.8068,349.2,7.972
324.4572,352.2,7.966
339.8664,355.2,7.960
355.104,358.2,7.958
370.1208,361.2,7.955
385.0062,364.2,7.952
399.8256,367.2,7.947
414.6102,370.2,7.946
429.372,373.2,7.943
444.1338,376.2,7.940
458.9442,379.2,7.938
473.8026,382.2,7.936
488.6796,385.2,7.939
503.6658,388.2,7.937
518.7588,391.2,7.936
533.8338,394.2,7.937
549.0132,397.2,7.937
564.2142,400.2,7.936
579.5316,403.2,7.935
594.8898,406.2,7.935
610.3458,409.2,7.934
625.8894,412.2,7.934
641.5446,415.2,7.931
657.2538,418.2,7.932
673.0872,421.2,7.932
689.0346,424.2,7.932
705.1158,427.2,7.931
721.3152,430.2,7.930
737.6418,433.2,7.928
754.0632,436.2,7.928
770.6262,439.2,7.925
787.257,442.2,7.923
804.0078,445.2,7.920
820.8546,448.2,7.917
837.7866,451.2,7.913
854.8014,454.2,7.909
871.893,457.2,7.903
889.0572,460.2,7.898
906.2292,463.2,7.891
923.5134,466.2,7.883
940.8864,469.2,7.875
958.2852,472.2,7.867
975.7758,475.2,7.857
993.3108,478.2,7.846
1010.93,481.2,7.833
1028.589,484.2,7.819
1046.313,487.2,7.806
1064.1,490.2,7.791
1081.89,493.2,7.777
1099.749,496.2,7.762
1117.641,499.2,7.745
1135.56,502.2,7.727
1153.5,505.2,7.707
1171.46,508.2,7.687
1189.45,511.2,7.665
1207.43,514.2,7.641
1225.41,517.2,7.615
1243.48,520.2,7.588
1261.51,523.2,7.556
1279.57,526.2,7.522
1297.644,529.2,7.485
1315.71,532.2,7.447
1333.79,535.2,7.407
1351.87,538.2,7.363
1369.91,541.2,7.317
1387.99,544.2,7.266
1406.09,547.2,7.213
1424.18,550.2,7.155
1442.26,553.2,7.097
1460.38,556.2,7.034
1478.48,559.2,6.968
1496.59,562.2,6.897
1514.739,565.2,6.825
1532.87,568.2,6.740
1551,571.2,6.661
1569.11,574.2,6.569
1587.24,577.2,6.474
1605.37,580.2,6.377
1623.51,583.2,6.275
1641.64,586.2,6.169
1659.76,589.2,6.054
1677.87,592.2,5.935
1695.99,595.2,5.812
1714.11,598.2,5.681
1732.27,601.2,5.547
1750.386,604.2,5.406
1768.52,607.2,5.261
1786.6,610.2,5.110
1804.71,613.2,4.955
1822.85,616.2,4.796
1840.97,619.2,4.627
1859.12,622.2,4.453
1877.25,625.2,4.272
1895.43,628.2,4.077
1913.562,631.2,3.872
1931.7,634.2,3.654
1949.86,637.2,3.430
1967.96,640.2,3.192
1986.09,643.2,2.951
2004.2,646.2,2.716
2022.35,649.2,2.492
2040.48,652.2,2.301
2058.53,655.2,2.153
2076.6,658.2,2.052
2094.62,661.2,1.991
2112.651,664.2,1.957
2130.69,667.2,1.932
2148.702,670.2,1.909
2166.76,673.2,1.889
2184.82,676.2,1.867
2202.84,679.2,1.848
2220.91,682.2,1.828
2238.97,685.2,1.811
2257.05,688.2,1.793
2275.071,691.2,1.774
2293.15,694.2,1.756
2311.185,697.2,1.741
2329.22,700.2,1.724
2347.25,703.2,1.707
2365.32,706.2,1.691
2383.32,709.2,1.674
2401.317,712.2,1.658
2419.28,715.2,1.644
2437.257,718.2,1.630
2455.18,721.2,1.616
2473.1,724.2,1.604
2490.98,727.2,1.591
2508.91,730.2,1.578
2526.86,733.2,1.566
2544.82,736.2,1.553
2562.76,739.2,1.543
2580.696,742.2,1.534
2598.606,745.2,1.523
2616.53,748.2,1.513
2634.48,751.2,1.504
2652.444,754.2,1.496
2670.4,757.2,1.488
2688.35,760.2,1.480
2706.318,763.2,1.472
2724.26,766.2,1.464
2742.28,769.2,1.457
2760.27,772.2,1.450
2778.273,775.2,1.442
2796.27,778.2,1.430
2814.31,781.2,1.424
2832.372,784.2,1.418
2850.42,787.2,1.414
2868.52,790.2,1.408
2886.61,793.2,1.402
2904.71,796.2,1.396
2922.849,799.2,1.392
2941.023,802.2,1.387
2959.19,805.2,1.382
2977.38,808.2,1.376
2995.58,811.2,1.371
3013.8,814.2,1.365
3032,817.2,1.360
3050.2,820.2,1.355
3068.42,823.2,1.349
3086.64,826.2,1.343
3104.83,829.2,1.338
3123.084,832.2,1.333
3141.36,835.2,1.329
3159.63,838.2,1.323
3177.903,841.2,1.318
3196.152,844.2,1.314
3214.43,847.2,1.308
3232.695,850.2,1.306
3250.93,853.2,1.303
3269.13,856.2,1.299
3287.33,859.2,1.294
3305.48,862.2,1.288
3323.61,865.2,1.281
3341.7,868.2,1.277
3359.77,871.2,1.272
3377.817,874.2,1.267
3395.88,877.2,1.265
3413.94,880.2,1.261
3431.98,883.2,1.255
3449.99,886.2,1.245
3467.98,889.2,1.246
3485.98,892.2,1.242
3503.95,895.2,1.240
3521.93,898.2,1.236
3539.86,901.2,1.232
3557.81,904.2,1.224
3575.8,907.2,1.226
3593.75,910.2,1.221
3611.69,913.2,1.219
3629.619,916.2,1.217
3647.55,919.2,1.214
3665.48,922.2,1.212
3683.41,925.2,1.208
3701.34,928.2,1.206
3719.27,931.2,1.203
3737.26,934.2,1.200
3755.232,937.2,1.198
3773.16,940.2,1.197
3791.1,943.2,1.195
3809.03,946.2,1.194
3827.01,949.2,1.192
3845.01,952.2,1.187
3862.95,955.2,1.184
3880.87,958.2,1.183
3898.77,961.2,1.183
3916.67,964.2,1.181
3934.6,967.2,1.181
3952.53,970.2,1.176
3970.53,973.2,1.173
3988.49,976.2,1.171
4006.47,979.2,1.169
4024.47,982.2,1.166
4042.452,985.2,1.163
4060.446,988.2,1.162
4078.42,991.2,1.160
4096.41,994.2,1.158
4114.434,997.2,1.157
4132.46,1000.2,1.157
4150.44,1003.2,1.155
4168.44,1006.2,1.153
4186.42,1009.2,1.151
4204.44,1012.2,1.149
4222.47,1015.2,1.149
4240.42,1018.2,1.149
4258.42,1021.2,1.147
4276.44,1024.2,1.146
4294.46,1027.2,1.144
4312.473,1030.2,1.143
4330.46,1033.2,1.140
4348.443,1036.2,1.132
4366.46,1039.2,1.137
4384.43,1042.2,1.136
4402.44,1045.2,1.134
4420.428,1048.2,1.131
4438.437,1051.2,1.129
4456.4,1054.2,1.128
4474.37,1057.2,1.126
4492.34,1060.2,1.125
4510.34,1063.2,1.125
4528.32,1066.2,1.121
4546.308,1069.2,1.122
4555.29,1070.7,1.121