File: Non-charring/PMMA/UMET/UMET_TGA_N2_7.csv
Time,Temperature,Mass
[s],[K],[mg]
0,313.115,5.3644
0.02,315.115,5.3535
0.04,317.115,5.354
0.06,319.115,5.3545
0.08,321.115,5.35452
0.1,323.115,5.3546
0.12,325.115,5.35472
0.14,327.115,5.3546
0.16,329.115,5.35456
0.18,331.115,5.3546
0.2,333.115,5.35458
0.22,335.115,5.3548
0.24,337.115,5.35466
0.26,339.115,5.35462
0.28,341.115,5.35484
0.3,343.115,5.355
0.32,345.115,5.35494
0.34,347.115,5.35473
0.36,349.115,5.35496
0.38,351.115,5.35495
0.4,353.115,5.35473
0.42,355.115,5.35466
0.44,357.115,5.35473
0.46,359.115,5.35473
0.48,361.115,5.3544
0.5,363.115,5.35442
0.52,365.115,5.35444
0.54,367.115,5.35423
0.56,369.115,5.35438
0.58,371.115,5.3544
0.6,373.115,5.35445
0.62,375.115,5.35422
0.64,377.115,5.3544
0.66,379.115,5.35428
0.68,381.115,5.3544
0.7,383.115,5.3544
0.72,385.115,5.3543
0.74,387.115,5.3543
0.76,389.115,5.3542
0.78,391.115,5.354
0.8,393.115,5.3541
0.82,395.115,5.3541
0.84,397.115,5.35411
0.86,399.115,5.35397
0.88,401.115,5.354
0.9,403.115,5.3539
0.92,405.115,5.35392
0.94,407.115,5.35379
0.96,409.115,5.35358
0.98,411.115,5.35368
1,413.115,5.3536
1.02,415.115,5.35378
1.04,417.115,5.3534
1.06,419.115,5.35339
1.08,421.115,5.35327
1.1,423.115,5.3532
1.12,425.115,5.3526
1.14,427.115,5.35251
1.16,429.115,5.35198
1.18,431.115,5.35181
1.2,433.115,5.3513
1.22,435.115,5.3504
1.24,437.115,5.34959
1.26,439.115,5.34875
1.28,441.115,5.348
1.3,443.115,5.34717
1.32,445.115,5.34601
1.34,447.115,5.345
1.36,449.115,5.34404
1.38,451.115,5.34301
1.4,453.115,5.34192
1.42,455.115,5.3405
1.44,457.115,5.339
1.46,459.115,5.33763
1.48,461.115,5.33581
1.5,463.115,5.33366
1.52,465.115,5.33175
1.54,467.115,5.32919
1.56,469.115,5.32649
1.58,471.115,5.32393
1.6,473.115,5.32133
1.62,475.115,5.31813
1.64,477.115,5.31477
1.66,479.115,5.31148
1.68,481.115,5.30802
1.7,483.115,5.30447
1.72,485.115,5.30114
1.74,487.115,5.29765
1.76,489.115,5.29401
1.78,491.115,5.29063
1.8,493.115,5.28635
1.82,495.115,5.28339
1.84,497.115,5.27976
1.86,499.115,5.27628
1.88,501.115,5.27282
1.9,503.115,5.26941
1.92,505.115,5.26589
1.94,507.115,5.26269
1.96,509.115,5.25932
1.98,511.115,5.25645
2,513.115,5.25305
2.02,515.115,5.25011
2.04,517.115,5.24724
2.06,519.115,5.24459
2.08,521.115,5.24206
2.1,523.115,5.23962
2.12,525.115,5.2375
2.14,527.115,5.23538
2.16,529.115,5.23349
2.18,531.115,5.23172
2.2,533.115,5.22971
2.22,535.115,5.22791
2.24,537.115,5.2262
2.26,539.115,5.22452
2.28,541.115,5.22281
2.3,543.115,5.2208
2.32,545.115,5.21929
2.34,547.115,5.21757
2.36,549.115,5.2159
2.38,551.115,5.21414
2.4,553.115,5.21234
2.42,555.115,5.21047
2.44,557.115,5.20855
2.46,559.115,5.20663
2.48,561.115,5.2045
2.5,563.115,5.20219
2.52,565.115,5.19963
2.54,567.115,5.19687
2.56,569.115,5.19387
2.58,571.115,5.1904
2.6,573.115,5.18674
2.62,575.115,5.18303
2.64,577.115,5.17868
2.66,579.115,5.17378
2.68,581.115,5.16644
2.7,583.115,5.14665
2.72,585.115,5.13892
2.74,587.115,5.13089
2.76,589.115,5.12246
2.78,591.115,5.11422
2.8,593.115,5.10536
2.82,595.115,5.09591
2.84,597.115,5.08558
2.86,599.115,5.0741
2.88,601.115,5.06137
2.9,603.115,5.04738
2.92,605.115,5.03171
2.94,607.115,5.01372
2.96,609.115,4.99376
2.98,611.115,4.97117
3,613.115,4.94542
3.02,615.115,4.91589
3.04,617.115,4.88304
3.06,619.115,4.84665
3.08,621.115,4.80636
3.1,623.115,4.76151
3.12,625.115,4.71269
3.14,627.115,4.65883
3.16,629.115,4.59905
3.18,631.115,4.53292
3.2,633.115,4.45101
3.22,635.115,4.25872
3.24,637.115,4.16633
3.26,639.115,4.06389
3.28,641.115,3.95306
3.3,643.115,3.83723
3.32,645.115,3.72063
3.34,647.115,3.60065
3.36,649.115,3.4753
3.38,651.115,3.33977
3.4,653.115,3.19462
3.42,655.115,3.04508
3.44,657.115,2.89586
3.46,659.115,2.74733
3.48,661.115,2.59423
3.5,663.115,2.43335
3.52,665.115,2.26764
3.54,667.115,2.10576
3.56,669.115,1.95128
3.58,671.115,1.8027
3.6,673.115,1.66139
3.62,675.115,1.52338
3.64,677.115,1.39459
3.66,679.115,1.27428
3.68,681.115,1.1581
3.7,683.115,1.04162
3.72,685.115,0.922431
3.74,687.115,0.799366
3.76,689.115,0.662335
3.78,691.115,0.525232
3.8,693.115,0.407616
3.82,695.115,0.31618
3.84,697.115,0.237288
3.86,699.115,0.174068
3.88,701.115,0.127295
3.9,703.115,0.0946956
3.92,705.115,0.0693241
3.94,707.115,0.050494
3.96,709.115,0.0366775
3.98,711.115,0.0275296
4,713.115,0.0219779
4.02,715.115,0.0157595
4.04,717.115,0.0127512
4.06,719.115,0.00998744
4.08,721.115,0.008248301
4.1,723.115,0.006459274
4.12,725.115,0
4.14,727.115,0
4.16,729.115,0
4.18,731.115,0
4.2,733.115,0
4.22,735.115,0
4.24,737.115,0
4.26,739.115,0
4.28,741.115,0
4.3,743.115,0
4.32,745.115,0
4.34,747.115,0
4.36,749.115,0
4.38,751.115,0
4.4,753.115,0
4.42,755.115,0
4.44,757.115,0
4.46,759.115,0
4.48,761.115,0
4.5,763.115,0
4.52,765.115,0
4.54,767.115,0
4.56,769.115,0
4.58,771.115,0
4.6,773.115,0
4.605,773.615,0