File: Non-charring/PMMA/UMET/UMET_DSC_N2_1.csv
Time,Temp,Heat Flow
[s],[k],[mW/mg]
0,,
29.29998,27.211,-0.572764
58.60002,13.231,-0.477009
87.9,0.703,-0.414096
117.1998,-10.459,-0.369644
146.5002,-20.383,-0.329663
175.8,-29.194,-0.29256
205.0998,-37.013,-0.25878
234.4002,-43.949,-0.229027
263.7,-50.105,-0.202794
292.9998,-55.566,-0.179514
322.3002,-60.41,-0.158241
351.6,-64.707,-0.139351
380.8998,-68.52,-0.12264
410.2002,-71.902,-0.107567
439.5,-74.902,-0.0943434
468.7998,-77.586,-0.0823659
498.1002,-79.774,-0.0636202
527.4,-79.913,-0.00997103
556.6998,-79.945,-0.00281577
586.0002,-79.957,0.000589705
615.3,-79.961,0.00212752
644.598,-79.962,0.00317666
673.902,-79.964,0.00387316
703.2,-79.963,0.00412342
732.498,-79.963,0.00430845
761.802,-79.962,0.00462851
791.1,-79.963,0.00470687
820.398,-79.963,0.00475231
849.702,-79.963,0.00477956
879,-79.963,0.00478291
908.298,-79.963,0.00498867
937.602,-79.963,0.00499592
966.9,-79.963,0.00506461
996.198,-79.964,0.00522612
1025.502,-79.963,0.0051866
1054.8,-79.964,0.00536491
1084.098,-79.964,0.00532574
1113.402,-79.563,0.00283179
1142.7,-74.891,0.130357
1171.998,-70.047,0.137946
1201.302,-65.181,0.14267
1230.6,-60.302,0.146795
1259.898,-55.42,0.150812
1289.202,-50.535,0.153935
1318.5,-45.65,0.157116
1347.798,-40.766,0.160255
1377.102,-35.879,0.163228
1406.4,-30.993,0.166396
1435.698,-26.106,0.170695
1465.002,-21.221,0.174751
1494.3,-16.336,0.178231
1523.598,-11.452,0.182517
1552.902,-6.568,0.188628
1582.2,-1.684,0.19453
1611.498,3.2,0.201799
1640.802,8.086,0.210013
1670.1,12.97,0.218145
1699.398,17.852,0.226205
1728.702,22.737,0.234601
1758,27.621,0.241339
1787.298,32.504,0.24692
1816.602,37.391,0.248451
1845.9,42.277,0.248393
1875.198,47.166,0.248661
1904.502,52.053,0.24857
1933.8,56.939,0.248459
1963.098,61.827,0.248665
1992.402,66.712,0.24871
2021.7,71.597,0.249085
2050.998,76.484,0.249962
2080.302,81.371,0.251383
2109.6,86.256,0.252816
2138.898,91.142,0.254924
2168.202,96.028,0.25751
2197.5,100.913,0.260762
2226.798,105.802,0.265105
2256.102,110.685,0.270921
2285.4,115.569,0.279204
2314.698,120.453,0.291843
2344.002,125.334,0.309994
2373.3,130.218,0.327233
2402.598,135.104,0.32771
2431.902,139.99,0.328452
2461.2,144.875,0.330469
2490.498,149.758,0.332858
2519.802,154.646,0.335635
2549.1,159.501,0.338689
2578.398,160.011,0.0686391
2607.702,160.037,0.0633565
2637,160.046,0.0597816
2666.298,160.05,0.0574804
2695.602,160.048,0.0559653
2724.9,160.047,0.0551869
2754.198,160.047,0.054459
2783.502,160.046,0.0538927
2812.8,160.046,0.053098
2842.098,160.046,0.0526635
2871.402,160.046,0.052141
2900.7,160.045,0.0518029
2929.998,160.046,0.0516096
2959.302,160.047,0.0511611
2988.6,160.046,0.0507567
3017.898,160.046,0.0503272
3047.202,160.045,0.0501417
3076.5,160.046,0.050222
3105.798,160.046,0.0498421
3135.102,160.046,0.0497808
3164.4,158.044,-0.212303
3193.698,153.216,-0.222109
3223.002,148.354,-0.225139
3252.3,143.481,-0.226954
3281.598,138.603,-0.227332
3310.902,133.719,-0.227366
3340.2,128.837,-0.225277
3369.498,123.956,-0.21956
3398.802,119.073,-0.209745
3428.1,114.19,-0.199342
3457.398,109.309,-0.190952
3486.702,104.426,-0.184664
3516,99.544,-0.179153
3545.298,94.662,-0.175359
3574.602,89.782,-0.172723
3603.9,84.901,-0.170115
3633.198,80.02,-0.167805
3662.502,75.14,-0.165835
3691.8,70.26,-0.164336
3721.098,65.378,-0.164131
3750.402,60.497,-0.162185
3779.7,55.616,-0.161237
3808.998,50.735,-0.16081
3838.302,45.854,-0.160194
3867.6,40.972,-0.159949
3896.898,36.092,-0.159865
3926.202,31.213,-0.159275
3955.5,26.334,-0.157849
3984.798,21.453,-0.15655
4014.102,16.568,-0.155538
4043.4,11.686,-0.154498
4072.698,6.805,-0.153416
4102.002,1.925,-0.152063
4131.3,-2.957,-0.151125
4160.598,-7.839,-0.15051
4189.902,-12.722,-0.150005
4219.2,-17.604,-0.149992
4248.498,-22.487,-0.150139
4277.802,-27.371,-0.150311
4307.1,-32.254,-0.15033
4336.398,-37.136,-0.150313
4365.702,-42.022,-0.150604
4395,-46.909,-0.150843
4424.298,-51.794,-0.151067
4453.602,-56.679,-0.151422
4482.9,-61.38,-0.146459
4512.198,-65.546,-0.131761
4541.502,-69.24,-0.116263
4570.8,-72.516,-0.103359
4600.098,-75.425,-0.0909354
4629.402,-78.007,-0.079967
4658.7,-80.039,-0.0448345
4687.998,-79.983,-0.0061396
4717.302,-79.959,-0.00175004
4746.6,-79.954,0.000151951
4775.898,-79.953,0.00130635
4805.202,-79.953,0.00222964
4834.5,-79.954,0.00263214
4863.798,-79.955,0.00298406
4893.102,-79.955,0.00346941
4922.4,-79.956,0.00334006
4951.698,-79.956,0.00332661
4981.002,-79.955,0.0037852
5010.3,-79.956,0.00391065
5039.598,-79.956,0.00401991
5068.902,-79.955,0.00404527
5098.2,-79.956,0.00418278
5127.498,-79.956,0.00432241
5156.802,-79.956,0.00437725
5186.1,-79.957,0.00441686
5215.398,-79.956,0.00451109
5244.702,-79.953,0.00450973
5274,-75.872,0.12534
5303.298,-71.037,0.134297
5332.602,-66.176,0.139354
5361.9,-61.3,0.143453
5391.198,-56.42,0.147283
5420.502,-51.537,0.150207
5449.8,-46.652,0.152836
5479.098,-41.768,0.155557
5508.402,-36.882,0.15807
5537.7,-31.998,0.160686
5566.998,-27.112,0.163956
5596.302,-22.228,0.167305
5625.6,-17.343,0.170217
5654.898,-12.457,0.172905
5684.202,-7.572,0.175789
5713.5,-2.688,0.178949
5742.798,2.198,0.182431
5772.102,7.085,0.186228
5801.4,11.971,0.190088
5830.698,16.857,0.19374
5860.002,21.742,0.197281
5889.3,26.628,0.201057
5918.598,31.515,0.204553
5947.902,36.4,0.208266
5977.2,41.288,0.21162
6006.48,46.175,0.214934
6035.82,51.06,0.218144
6065.1,55.945,0.221306
6094.38,60.832,0.224576
6123.72,65.717,0.228048
6153,70.602,0.231519
6182.28,75.487,0.235147
6211.62,80.375,0.239279
6240.9,85.262,0.243272
6270.18,90.146,0.247534
6299.52,95.031,0.251696
6328.8,99.915,0.256106
6358.08,104.799,0.260987
6387.42,109.687,0.267618
6416.7,114.573,0.275705
6445.98,119.457,0.286786
6475.32,124.336,0.302697
6504.6,129.22,0.320964
6533.88,134.107,0.326799
6563.22,138.99,0.328125
6592.5,143.876,0.33061
6621.78,148.758,0.332876
6651.12,153.645,0.335352
6680.4,158.53,0.337673
6709.68,160.006,0.0702476
6739.02,160.033,0.064292
6768.3,160.045,0.0609085
6797.58,160.048,0.0589312
6826.92,160.048,0.057705
6856.2,160.046,0.0567767
6885.48,160.047,0.0561879
6914.82,160.048,0.0552977
6944.1,160.047,0.0548663
6973.38,160.047,0.0541739
7002.72,160.046,0.0537688
7032,160.046,0.0534783
7061.28,160.045,0.052913
7090.62,160.046,0.0525187
7119.9,160.047,0.0522954
7149.18,160.046,0.0519625
7178.52,160.046,0.0521116
7207.8,160.046,0.0518444
7237.08,160.045,0.0516986
7266.42,160.046,0.0515336
7295.7,159.006,-0.179014
7324.98,154.208,-0.219043
7354.32,149.351,-0.222618
7383.6,144.478,-0.224279
7412.88,139.599,-0.224682
7442.22,134.72,-0.224352
7471.5,129.839,-0.223261
7500.78,124.957,-0.218449
7530.12,120.072,-0.208703
7559.4,115.192,-0.19799
7588.68,110.311,-0.189481
7618.02,105.43,-0.18304
7647.3,100.546,-0.178349
7676.58,95.664,-0.17416
7705.92,90.783,-0.171301
7735.2,85.902,-0.168759
7764.48,81.021,-0.166676
7793.82,76.141,-0.165028
7823.1,71.26,-0.163902
7852.38,66.379,-0.163634
7881.72,61.498,-0.16277
7911,56.617,-0.161792
7940.28,51.734,-0.161456
7969.62,46.854,-0.161139
7998.9,41.974,-0.160779
8028.18,37.094,-0.160064
8057.52,32.216,-0.159051
8086.8,27.336,-0.157673
8116.08,22.454,-0.156294
8145.42,17.572,-0.154973
8174.7,12.691,-0.153821
8203.98,7.809,-0.152726
8233.32,2.924,-0.15156
8262.6,-1.956,-0.150339
8291.88,-6.839,-0.149686
8321.22,-11.721,-0.149241
8350.5,-16.603,-0.149
8379.78,-21.486,-0.148813
8409.12,-26.369,-0.148951
8438.4,-31.253,-0.148799
8467.68,-36.137,-0.148766
8497.02,-41.021,-0.14871
8526.3,-45.906,-0.149017
8555.58,-50.792,-0.149232
8584.92,-55.678,-0.149766
8614.2,-60.461,-0.147118
8643.48,-64.733,-0.132779
8672.82,-68.517,-0.117908
8702.1,-71.875,-0.104201
8731.38,-74.856,-0.091591
8760.72,-77.502,-0.0802228
8779.92,,