File: Non-charring/PMMA/UMET/UMET_TGA_N2_4.csv
Time,Temperature,Mass
[s],[K],[mg]
0,313.115,5.3388
0.2,315.115,5.3388
0.4,317.115,5.3388
0.6,319.115,5.32792
0.8,321.115,5.32772
1,323.115,5.32739
1.2,325.115,5.32704
1.4,327.115,5.3272
1.6,329.115,5.3268
1.8,331.115,5.3267
2,333.115,5.3261
2.2,335.115,5.32547
2.4,337.115,5.32563
2.6,339.115,5.3247
2.8,341.115,5.3246
3,343.115,5.3238
3.2,345.115,5.32351
3.4,347.115,5.32329
3.6,349.115,5.32307
3.8,351.115,5.32264
4,353.115,5.32241
4.2,355.115,5.3224
4.4,357.115,5.3224
4.6,359.115,5.3222
4.8,361.115,5.32232
5,363.115,5.32228
5.2,365.115,5.3222
5.4,367.115,5.32198
5.6,369.115,5.32206
5.8,371.115,5.3216
6,373.115,5.3213
6.2,375.115,5.3211
6.4,377.115,5.3209
6.6,379.115,5.32079
6.8,381.115,5.32079
7,383.115,5.3205
7.2,385.115,5.3199
7.4,387.115,5.3194
7.6,389.115,5.319
7.8,391.115,5.3185
8,393.115,5.31731
8.2,395.115,5.31671
8.4,397.115,5.3164
8.6,399.115,5.316
8.8,401.115,5.31571
9,403.115,5.31521
9.2,405.115,5.3145
9.4,407.115,5.31361
9.6,409.115,5.31288
9.8,411.115,5.31192
10,413.115,5.31121
10.2,415.115,5.3104
10.4,417.115,5.3084
10.6,419.115,5.30701
10.8,421.115,5.3062
11,423.115,5.3047
11.2,425.115,5.30341
11.4,427.115,5.3022
11.6,429.115,5.30142
11.8,431.115,5.3002
12,433.115,5.29876
12.2,435.115,5.29718
12.4,437.115,5.29501
12.6,439.115,5.2929
12.8,441.115,5.29141
13,443.115,5.28884
13.2,445.115,5.28583
13.4,447.115,5.28253
13.6,449.115,5.27897
13.8,451.115,5.27475
14,453.115,5.2696
14.2,455.115,5.26428
14.4,457.115,5.25826
14.6,459.115,5.25306
14.8,461.115,5.24446
15,463.115,5.23767
15.2,465.115,5.23158
15.4,467.115,5.22549
15.6,469.115,5.21929
15.8,471.115,5.21339
16,473.115,5.20798
16.2,475.115,5.20267
16.4,477.115,5.19775
16.6,479.115,5.19328
16.8,481.115,5.18899
17,483.115,5.18418
17.2,485.115,5.17999
17.4,487.115,5.17589
17.6,489.115,5.1725
17.8,491.115,5.16921
18,493.115,5.16602
18.2,495.115,5.1636
18.4,497.115,5.16118
18.6,499.115,5.15899
18.8,501.115,5.1573
19,503.115,5.155393
19.2,505.115,5.15419
19.4,507.115,5.15299
19.6,509.115,5.1515
19.8,511.115,5.1502
20,513.115,5.1489
20.2,515.115,5.1475
20.4,517.115,5.1464
20.6,519.115,5.1453
20.8,521.115,5.14378
21,523.115,5.1429
21.2,525.115,5.14178
21.4,527.115,5.14028
21.6,529.115,5.1384
21.8,531.115,5.13648
22,533.115,5.1347
22.2,535.115,5.1322
22.4,537.115,5.12969
22.6,539.115,5.1277
22.8,541.115,5.125
23,543.115,5.12249
23.2,545.115,5.1195
23.4,547.115,5.11588
23.6,549.115,5.11189
23.8,551.115,5.10728
24,553.115,5.10266
24.2,555.115,5.09735
24.4,557.115,5.09144
24.6,559.115,5.08456
24.8,561.115,5.07577
25,563.115,5.06767
25.2,565.115,5.05874
25.4,567.115,5.05006
25.6,569.115,5.04066
25.8,571.115,5.03058
26,573.115,5.01966
26.2,575.115,5.0082
26.4,577.115,4.99636
26.6,579.115,4.98348
26.8,581.115,4.96939
27,583.115,4.95455
27.2,585.115,4.93857
27.4,587.115,4.91922
27.6,589.115,4.89808
27.8,591.115,4.87361
28,593.115,4.84679
28.2,595.115,4.81496
28.4,597.115,4.77941
28.6,599.115,4.73762
28.8,601.115,4.68911
29,603.115,4.62835
29.2,605.115,4.55473
29.4,607.115,4.48124
29.6,609.115,4.39918
29.8,611.115,4.30744
30,613.115,4.20236
30.2,615.115,4.08914
30.4,617.115,3.96385
30.6,619.115,3.82708
30.8,621.115,3.67882
31,623.115,3.51991
31.2,625.115,3.34911
31.4,627.115,3.16642
31.6,629.115,2.978
31.8,631.115,2.78099
32,633.115,2.58022
32.2,635.115,2.38107
32.4,637.115,2.18335
32.6,639.115,1.98636
32.8,641.115,1.79708
33,643.115,1.61483
33.2,645.115,1.44205
33.4,647.115,1.27119
33.6,649.115,1.10768
33.8,651.115,0.956285
34,653.115,0.815484
34.2,655.115,0.687387
34.4,657.115,0.575135
34.6,659.115,0.477483
34.8,661.115,0.393192
35,663.115,0.325187
35.2,665.115,0.271436
35.4,667.115,0.218543
35.6,669.115,0.176826
35.8,671.115,0.139776
36,673.115,0.109007
36.2,675.115,0.084943
36.4,677.115,0.0652449
36.6,679.115,0.049842
36.8,681.115,0.0370614
37,683.115,0.0263705
37.2,685.115,0.01962009
37.4,687.115,0.0141526
37.6,689.115,0.008742285
37.8,691.115,0.004900166
38,693.115,0
38.2,695.115,0
38.4,697.115,0
38.6,699.115,0
38.8,701.115,0
39,703.115,0
39.2,705.115,0
39.4,707.115,0
39.6,709.115,0
39.8,711.115,0
40,713.115,0
40.2,715.115,0
40.4,717.115,0
40.6,719.115,0
40.8,721.115,0
41,723.115,0
41.2,725.115,0
41.4,727.115,0
41.6,729.115,0
41.8,731.115,0
42,733.115,0
42.2,735.115,0
42.4,737.115,0
42.6,739.115,0
42.8,741.115,0
43,743.115,0
43.2,745.115,0
43.4,747.115,0
43.6,749.115,0
43.8,751.115,0
44,753.115,0
44.2,755.115,0
44.4,757.115,0
44.6,759.115,0
44.8,761.115,0
45,763.115,0
45.2,765.115,0
45.4,767.115,0
45.6,769.115,0
45.8,771.115,0
46,773.115,0
46.05,773.615,0