File: Non-charring/PMMA/UMET/UMET_TGA_N2_3.csv
Time,Temperature,Mass
[s],[K],[mg]
0,313.115,4.0931
0.4,315.115,4.0931
0.8,317.115,4.0931
1.2,319.115,4.0931
1.6,321.115,4.0931
2,323.115,4.0931
2.4,325.115,4.0931
2.8,327.115,4.0931
3.2,329.115,4.0931
3.6,331.115,4.0931
4,333.115,4.0931
4.4,335.115,4.0931
4.8,337.115,4.0931
5.2,339.115,4.0931
5.6,341.115,4.0931
6,343.115,4.0931
6.4,345.115,4.0931
6.8,347.115,4.0931
7.2,349.115,4.0931
7.6,351.115,4.0931
8,353.115,4.0931
8.4,355.115,4.0931
8.8,357.115,4.0931
9.2,359.115,4.0931
9.6,361.115,4.0931
10,363.115,4.0931
10.4,365.115,4.0931
10.8,367.115,4.0931
11.2,369.115,4.0931
11.6,371.115,4.0931
12,373.115,4.0931
12.4,375.115,4.0931
12.8,377.115,4.0931
13.2,379.115,4.0931
13.6,381.115,4.0931
14,383.115,4.0931
14.4,385.115,4.0931
14.8,387.115,4.0931
15.2,389.115,4.0931
15.6,391.115,4.0931
16,393.115,4.0931
16.4,395.115,4.0931
16.8,397.115,4.0931
17.2,399.115,4.0931
17.6,401.115,4.0931
18,403.115,4.0931
18.4,405.115,4.0931
18.8,407.115,4.0931
19.2,409.115,4.0931
19.6,411.115,4.0931
20,413.115,4.0931
20.4,415.115,4.0931
20.8,417.115,4.0931
21.2,419.115,4.0931
21.6,421.115,4.0931
22,423.115,4.0931
22.4,425.115,4.0931
22.8,427.115,4.0931
23.2,429.115,4.0931
23.6,431.115,4.0931
24,433.115,4.0931
24.4,435.115,4.0931
24.8,437.115,4.0931
25.2,439.115,4.0931
25.6,441.115,4.0901
26,443.115,4.08849
26.4,445.115,4.08404
26.8,447.115,4.08106
27.2,449.115,4.07397
27.6,451.115,4.0713
28,453.115,4.06526
28.4,455.115,4.05929
28.8,457.115,4.0536
29.2,459.115,4.04767
29.6,461.115,4.04337
30,463.115,4.0382
30.4,465.115,4.0343
30.8,467.115,4.031
31.2,469.115,4.0259
31.6,471.115,4.02266
32,473.115,4.01804
32.4,475.115,4.01516
32.8,477.115,4.01208
33.2,479.115,4.0097
33.6,481.115,4.00704
34,483.115,4.00438
34.4,485.115,4.00429
34.8,487.115,4.00038
35.2,489.115,3.9995
35.6,491.115,3.99791
36,493.115,3.9974
36.4,495.115,3.9952
36.8,497.115,3.99379
37.2,499.115,3.9928
37.6,501.115,3.99201
38,503.115,3.9913
38.4,505.115,3.9925
38.8,507.115,3.98809
39.2,509.115,3.9886
39.6,511.115,3.98779
40,513.115,3.9878
40.4,515.115,3.9897
40.8,517.115,3.984
41.2,519.115,3.98531
41.6,521.115,3.98119
42,523.115,3.9803
42.4,525.115,3.97928
42.8,527.115,3.97854
43.2,529.115,3.9759
43.6,531.115,3.97521
44,533.115,3.9716
44.4,535.115,3.9702
44.8,537.115,3.96727
45.2,539.115,3.96382
45.6,541.115,3.9596
46,543.115,3.95779
46.4,545.115,3.9508
46.8,547.115,3.94712
47.2,549.115,3.9431
47.6,551.115,3.93529
48,553.115,3.93047
48.4,555.115,3.9228
48.8,557.115,3.91513
49.2,559.115,3.90779
49.6,561.115,3.89757
50,563.115,3.88714
50.4,565.115,3.88109
50.8,567.115,3.8713
51.2,569.115,3.86205
51.6,571.115,3.8498
52,573.115,3.8366
52.4,575.115,3.82446
52.8,577.115,3.80873
53.2,579.115,3.79288
53.6,581.115,3.77602
54,583.115,3.75798
54.4,585.115,3.73196
54.8,587.115,3.70497
55.2,589.115,3.67489
55.6,591.115,3.64084
56,593.115,3.59921
56.4,595.115,3.55364
56.8,597.115,3.49932
57.2,599.115,3.44137
57.6,601.115,3.3723
58,603.115,3.29826
58.4,605.115,3.21761
58.8,607.115,3.12137
59.2,609.115,3.01181
59.6,611.115,2.89825
60,613.115,2.77571
60.4,615.115,2.63763
60.8,617.115,2.50037
61.2,619.115,2.35029
61.6,621.115,2.19425
62,623.115,2.04072
62.4,625.115,1.88455
62.8,627.115,1.72673
63.2,629.115,1.57507
63.6,631.115,1.4269
64,633.115,1.28177
64.4,635.115,1.14738
64.8,637.115,1.01612
65.2,639.115,0.882354
65.6,641.115,0.769353
66,643.115,0.657141
66.4,645.115,0.544912
66.8,647.115,0.459505
67.2,649.115,0.381825
67.6,651.115,0.31185
68,653.115,0.250834
68.4,655.115,0.196868
68.8,657.115,0.153334
69.2,659.115,0.113574
69.6,661.115,0.0859842
70,663.115,0.0588543
70.4,665.115,0.0388513
70.8,667.115,0.0216533
71.2,669.115,0.0107816
71.6,671.115,0
72,673.115,0
72.4,675.115,0
72.8,677.115,0
73.2,679.115,0
73.6,681.115,0
74,683.115,0
74.4,685.115,0
74.8,687.115,0
75.2,689.115,0
75.6,691.115,0
76,693.115,0
76.4,695.115,0
76.8,697.115,0
77.2,699.115,0
77.6,701.115,0
78,703.115,0
78.4,705.115,0
78.8,707.115,0
79.2,709.115,0
79.6,711.115,0
80,713.115,0
80.4,715.115,0
80.8,717.115,0
81.2,719.115,0
81.6,721.115,0
82,723.115,0
82.4,725.115,0
82.8,727.115,0
83.2,729.115,0
83.6,731.115,0
84,733.115,0
84.4,735.115,0
84.8,737.115,0
85.2,739.115,0
85.6,741.115,0
86,743.115,0
86.4,745.115,0
86.8,747.115,0
87.2,749.115,0
87.6,751.115,0
88,753.115,0
88.4,755.115,0
88.8,757.115,0
89.2,759.115,0
89.6,761.115,0
90,763.115,0
90.4,765.115,0
90.8,767.115,0
91.2,769.115,0
91.6,771.115,0
92,773.115,0
92.1,773.615,0