File: Non-charring/PMMA/UMET/UMET_TGA_N2_2.csv
Time,Temperature,Mass
[s],[K],[mg]
0,313.115,4.8446
1,315.115,4.8446
2,317.115,4.8446
3,319.115,4.8446
4,321.115,4.8446
5,323.115,4.8446
6,325.115,4.8446
7,327.115,4.8446
8,329.115,4.8446
9,331.115,4.8446
10,333.115,4.8446
11,335.115,4.8446
12,337.115,4.8446
13,339.115,4.8446
14,341.115,4.8446
15,343.115,4.8446
16,345.115,4.8446
17,347.115,4.8446
18,349.115,4.8446
19,351.115,4.8446
20,353.115,4.8446
21,355.115,4.8446
22,357.115,4.8446
23,359.115,4.8446
24,361.115,4.8446
25,363.115,4.8446
26,365.115,4.8446
27,367.115,4.8446
28,369.115,4.8446
29,371.115,4.8446
30,373.115,4.8446
31,375.115,4.8446
32,377.115,4.8446
33,379.115,4.8446
34,381.115,4.8446
35,383.115,4.8446
36,385.115,4.8446
37,387.115,4.8446
38,389.115,4.8446
39,391.115,4.8446
40,393.115,4.8446
41,395.115,4.8438
42,397.115,4.8433
43,399.115,4.84238
44,401.115,4.84212
45,403.115,4.84161
46,405.115,4.84138
47,407.115,4.8417
48,409.115,4.8417
49,411.115,4.8419
50,413.115,4.8402
51,415.115,4.83999
52,417.115,4.83836
53,419.115,4.8372
54,421.115,4.8363
55,423.115,4.83656
56,425.115,4.8353
57,427.115,4.83329
58,429.115,4.83172
59,431.115,4.82993
60,433.115,4.82833
61,435.115,4.8256
62,437.115,4.82134
63,439.115,4.81644
64,441.115,4.8099
65,443.115,4.8041
66,445.115,4.7989
67,447.115,4.79257
68,449.115,4.78519
69,451.115,4.77969
70,453.115,4.77331
71,455.115,4.7677
72,457.115,4.76069
73,459.115,4.75569
74,461.115,4.75115
75,463.115,4.7457
76,465.115,4.74154
77,467.115,4.73809
78,469.115,4.73386
79,471.115,4.7285
80,473.115,4.72653
81,475.115,4.72601
82,477.115,4.72391
83,479.115,4.72191
84,481.115,4.7224
85,483.115,4.7235
86,485.115,4.7221
87,487.115,4.7209
88,489.115,4.71841
89,491.115,4.7175
90,493.115,4.71671
91,495.115,4.71687
92,497.115,4.7144
93,499.115,4.7146
94,501.115,4.71356
95,503.115,4.7132
96,505.115,4.71171
97,507.115,4.71191
98,509.115,4.70954
99,511.115,4.70918
100,513.115,4.70746
101,515.115,4.70401
102,517.115,4.70278
103,519.115,4.69999
104,521.115,4.69529
105,523.115,4.69041
106,525.115,4.6878
107,527.115,4.68489
108,529.115,4.6813
109,531.115,4.6764
110,533.115,4.6724
111,535.115,4.66699
112,537.115,4.66005
113,539.115,4.6545
114,541.115,4.64681
115,543.115,4.63958
116,545.115,4.63006
117,547.115,4.6202
118,549.115,4.61005
119,551.115,4.60028
120,553.115,4.58917
121,555.115,4.57733
122,557.115,4.56533
123,559.115,4.55181
124,561.115,4.53779
125,563.115,4.52231
126,565.115,4.50553
127,567.115,4.48577
128,569.115,4.4639
129,571.115,4.43926
130,573.115,4.41187
131,575.115,4.37878
132,577.115,4.34169
133,579.115,4.30259
134,581.115,4.25662
135,583.115,4.20382
136,585.115,4.14596
137,587.115,4.07808
138,589.115,4.00071
139,591.115,3.91656
140,593.115,3.82299
141,595.115,3.71844
142,597.115,3.6019
143,599.115,3.47549
144,601.115,3.33551
145,603.115,3.18639
146,605.115,3.02877
147,607.115,2.86082
148,609.115,2.68374
149,611.115,2.50092
150,613.115,2.31898
151,615.115,2.13977
152,617.115,1.96433
153,619.115,1.7928
154,621.115,1.62689
155,623.115,1.45566
156,625.115,1.29063
157,627.115,1.13562
158,629.115,0.986564
159,631.115,0.848419
160,633.115,0.724266
161,635.115,0.614098
162,637.115,0.516564
163,639.115,0.432993
164,641.115,0.361512
165,643.115,0.298664
166,645.115,0.247381
167,647.115,0.204067
168,649.115,0.169178
169,651.115,0.140887
170,653.115,0.117169
171,655.115,0.09815741
172,657.115,0.08295893
173,659.115,0.069397
174,661.115,0.0614087
175,663.115,0.0529607
176,665.115,0.045298
177,667.115,0.0406016
178,669.115,0.03799862
179,671.115,0.0338051
180,673.115,0.0308005
181,675.115,0.0289135
182,677.115,0.0296964
183,679.115,0.0298994
184,681.115,0.02989312
185,683.115,0.0294745
186,685.115,0.0298951
187,687.115,0.0286955
188,689.115,0.028104
189,691.115,0.0283942
190,693.115,0.0282067
191,695.115,0.0278928
192,697.115,0.0276055
193,699.115,0.0268769
194,701.115,0.0275498
195,703.115,0.0285957
196,705.115,0.0284722
197,707.115,0.0279456
198,709.115,0.0279926
199,711.115,0.0306203
200,713.115,0.0288259
201,715.115,0.0287978
202,717.115,0.0287018
203,719.115,0.0268982
204,721.115,0.02749795
205,723.115,0.0270963
206,725.115,0
207,727.115,0
208,729.115,0
209,731.115,0
210,733.115,0
211,735.115,0
212,737.115,0
213,739.115,0
214,741.115,0
215,743.115,0
216,745.115,0
217,747.115,0
218,749.115,0
219,751.115,0
220,753.115,0
221,755.115,0
222,757.115,0
223,759.115,0
224,761.115,0
225,763.115,0
226,765.115,0
227,767.115,0
228,769.115,0
229,771.115,0
230,773.115,0
230.25,773.615,0