File: Non-charring/PMMA/UMET/UMET_TGA_N2_6.csv
Time,Temperature,Mass
[s],[K],[mg]
0,313.115,5.9802
0.04,315.115,5.9802
0.08,317.115,5.9802
0.12,319.115,5.9802
0.16,321.115,5.9802
0.2,323.115,5.9802
0.24,325.115,5.9802
0.28,327.115,5.9802
0.32,329.115,5.9802
0.36,331.115,5.9802
0.4,333.115,5.9802
0.44,335.115,5.9802
0.48,337.115,5.9802
0.52,339.115,5.9802
0.56,341.115,5.9802
0.6,343.115,5.9802
0.64,345.115,5.9802
0.68,347.115,5.9802
0.72,349.115,5.9802
0.76,351.115,5.9802
0.8,353.115,5.9802
0.84,355.115,5.9802
0.88,357.115,5.9802
0.92,359.115,5.9802
0.96,361.115,5.9802
1,363.115,5.9802
1.04,365.115,5.9802
1.08,367.115,5.9802
1.12,369.115,5.9802
1.16,371.115,5.9802
1.2,373.115,5.9802
1.24,375.115,5.9802
1.28,377.115,5.9802
1.32,379.115,5.9802
1.36,381.115,5.9802
1.4,383.115,5.9802
1.44,385.115,5.9802
1.48,387.115,5.9802
1.52,389.115,5.9802
1.56,391.115,5.9802
1.6,393.115,5.9802
1.64,395.115,5.9802
1.68,397.115,5.9802
1.72,399.115,5.9802
1.76,401.115,5.9802
1.8,403.115,5.9802
1.84,405.115,5.9802
1.88,407.115,5.9802
1.92,409.115,5.9802
1.96,411.115,5.9802
2,413.115,5.9802
2.04,415.115,5.9802
2.08,417.115,5.9802
2.12,419.115,5.9802
2.16,421.115,5.9802
2.2,423.115,5.9802
2.24,425.115,5.9802
2.28,427.115,5.9802
2.32,429.115,5.9802
2.36,431.115,5.9802
2.4,433.115,5.9802
2.44,435.115,5.9802
2.48,437.115,5.9783
2.52,439.115,5.97699
2.56,441.115,5.97616
2.6,443.115,5.97552
2.64,445.115,5.97646
2.68,447.115,5.97792
2.72,449.115,5.97762
2.76,451.115,5.97503
2.8,453.115,5.97217
2.84,455.115,5.96944
2.88,457.115,5.96662
2.92,459.115,5.96407
2.96,461.115,5.96216
3,463.115,5.95985
3.04,465.115,5.95621
3.08,467.115,5.9518
3.12,469.115,5.94697
3.16,471.115,5.9426
3.2,473.115,5.93927
3.24,475.115,5.93612
3.28,477.115,5.93163
3.32,479.115,5.92706
3.36,481.115,5.92362
3.4,483.115,5.91912
3.44,485.115,5.91374
3.48,487.115,5.90918
3.52,489.115,5.90576
3.56,491.115,5.90168
3.6,493.115,5.89675
3.64,495.115,5.89134
3.68,497.115,5.8866
3.72,499.115,5.88323
3.76,501.115,5.87811
3.8,503.115,5.87305
3.84,505.115,5.87075
3.88,507.115,5.86867
3.92,509.115,5.86647
3.96,511.115,5.86452
4,513.115,5.86182
4.04,515.115,5.85878
4.08,517.115,5.8553
4.12,519.115,5.85123
4.16,521.115,5.84761
4.2,523.115,5.84546
4.24,525.115,5.84407
4.28,527.115,5.84248
4.32,529.115,5.83994
4.36,531.115,5.83612
4.4,533.115,5.83306
4.44,535.115,5.8312
4.48,537.115,5.831
4.52,539.115,5.83125
4.56,541.115,5.83129
4.6,543.115,5.83113
4.64,545.115,5.82923
4.68,547.115,5.8258
4.72,549.115,5.82194
4.76,551.115,5.81906
4.8,553.115,5.81783
4.84,555.115,5.81641
4.88,557.115,5.81466
4.92,559.115,5.81268
4.96,561.115,5.80988
5,563.115,5.80532
5.04,565.115,5.80046
5.08,567.115,5.79568
5.12,569.115,5.79061
5.16,571.115,5.78592
5.2,573.115,5.78305
5.24,575.115,5.77887
5.28,577.115,5.77172
5.32,579.115,5.76395
5.36,581.115,5.75667
5.4,583.115,5.74951
5.44,585.115,5.74103
5.48,587.115,5.73181
5.52,589.115,5.72209
5.56,591.115,5.69265
5.6,593.115,5.68152
5.64,595.115,5.67266
5.68,597.115,5.65424
5.72,599.115,5.63983
5.76,601.115,5.62378
5.8,603.115,5.60723
5.84,605.115,5.58984
5.88,607.115,5.56726
5.92,609.115,5.53967
5.96,611.115,5.50612
6,613.115,5.46692
6.04,615.115,5.42464
6.08,617.115,5.37961
6.12,619.115,5.32931
6.16,621.115,5.27031
6.2,623.115,5.20107
6.24,625.115,5.12552
6.28,627.115,5.04582
6.32,629.115,4.96042
6.36,631.115,4.86431
6.4,633.115,4.75021
6.44,635.115,4.62299
6.48,637.115,4.49028
6.52,639.115,4.24085
6.56,641.115,4.09689
6.6,643.115,3.92915
6.64,645.115,3.74723
6.68,647.115,3.54376
6.72,649.115,3.34012
6.76,651.115,3.12904
6.8,653.115,2.91005
6.84,655.115,2.69681
6.88,657.115,2.48991
6.92,659.115,2.27728
6.96,661.115,2.07139
7,663.115,1.87533
7.04,665.115,1.68858
7.08,667.115,1.50792
7.12,669.115,1.33334
7.16,671.115,1.16731
7.2,673.115,1.00946
7.24,675.115,0.86587
7.28,677.115,0.729504
7.32,679.115,0.606101
7.36,681.115,0.505338
7.4,683.115,0.422361
7.44,685.115,0.349832
7.48,687.115,0.28789
7.52,689.115,0.237035
7.56,691.115,0.197471
7.6,693.115,0.16083
7.64,695.115,0.132715
7.68,697.115,0.10988
7.72,699.115,0.0885315
7.76,701.115,0.0752166
7.8,703.115,0.066757
7.84,705.115,0.0610919
7.88,707.115,0.0563155
7.92,709.115,0.0533482
7.96,711.115,0.0473052
8,713.115,0.0399304
8.04,715.115,0.0382093
8.08,717.115,0.0387427
8.12,719.115,0.0387236
8.16,721.115,0.0372859
8.2,723.115,0.0354046
8.24,725.115,0
8.28,727.115,0
8.32,729.115,0
8.36,731.115,0
8.4,733.115,0
8.44,735.115,0
8.48,737.115,0
8.52,739.115,0
8.56,741.115,0
8.6,743.115,0
8.64,745.115,0
8.68,747.115,0
8.72,749.115,0
8.76,751.115,0
8.8,753.115,0
8.84,755.115,0
8.88,757.115,0
8.92,759.115,0
8.96,761.115,0
9,763.115,0
9.04,765.115,0
9.08,767.115,0
9.12,769.115,0
9.16,771.115,0
9.2,773.115,0
9.21,773.615,0