File: Non-charring/PMMA/UMET/UMET_DSC_N2_1K_1.csv
Time,Temp,Heat Flow
[s],[k],[mW/mg]
0,273.15,0
75,279.189,-0.43273
150,251.653,-0.314221
225,231.327,-0.228212
300,216.365,-0.165016
375,205.551,-0.113586
450,198.531,-0.0692334
525,194.135,-0.0398791
600,192.908,0.0127725
675,193.173,0.00739126
750,193.185,0.00692929
825,193.187,0.00754765
900,193.177,0.00769269
975,193.183,0.00780264
1050,193.184,0.00793483
1125,193.185,0.00805025
1200,193.185,0.00804802
1275,195.655,0.0443832
1350,199.397,0.0483002
1425,203.148,0.0500196
1500,206.898,0.0512021
1575,210.65,0.0522614
1650,214.401,0.0528769
1725,218.151,0.0535868
1800,221.903,0.0545823
1875,225.656,0.0553666
1950,229.403,0.0558975
2025,233.147,0.0564309
2100,236.897,0.0582207
2175,240.654,0.0594112
2250,244.406,0.0606827
2325,248.157,0.0615998
2400,251.909,0.0629586
2475,255.66,0.0642608
2550,259.41,0.0664456
2625,263.159,0.0694841
2700,266.908,0.073785
2775,270.659,0.0783455
2850,274.408,0.0827084
2925,278.159,0.0858262
3000,281.909,0.089003
3075,285.659,0.0903193
3150,289.41,0.0919563
3225,293.16,0.0918329
3300,296.912,0.0910489
3375,300.663,0.0905639
3450,304.415,0.0907377
3525,308.166,0.0903568
3600,311.918,0.0902936
3675,315.668,0.0899742
3750,319.419,0.0901239
3825,323.168,0.089853
3900,326.919,0.0899314
3975,330.67,0.090375
4050,334.421,0.0909161
4125,338.173,0.0916096
4200,341.924,0.0923195
4275,345.675,0.0934951
4350,349.426,0.0946194
4425,353.175,0.0955476
4500,356.927,0.0964624
4575,360.677,0.0976218
4650,364.428,0.0997544
4725,368.178,0.101004
4800,371.928,0.102965
4875,375.677,0.104981
4950,379.427,0.107169
5025,383.177,0.108141
5100,386.93,0.1139
5175,390.678,0.118861
5250,394.427,0.123535
5325,398.177,0.128101
5400,401.927,0.130671
5475,405.679,0.131626
5550,409.43,0.132975
5625,413.179,0.134729
5700,416.927,0.135819
5775,420.676,0.136602
5850,424.424,0.137695
5925,428.176,0.138834
6000,431.927,0.135311
6075,433.195,0.0544246
6150,433.196,0.0515973
6225,433.197,0.0506541
6300,433.196,0.0502082
6375,433.197,0.0499302
6450,433.199,0.0496134
6525,433.198,0.0491545
6600,433.196,0.0490635
6675,430.755,-0.0320105
6750,427.013,-0.0340421
6825,423.263,-0.034543
6900,419.515,-0.0350889
6975,415.768,-0.0352831
7050,412.016,-0.0356961
7125,408.267,-0.0353382
7200,404.517,-0.0349935
7275,400.77,-0.0342582
7350,397.02,-0.0329094
7425,393.274,-0.0305897
7500,389.52,-0.0268773
7575,385.773,-0.0248968
7650,382.026,-0.0234653
7725,378.277,-0.0220556
7800,374.529,-0.0216341
7875,370.774,-0.0203809
7950,367.026,-0.0196391
8025,363.276,-0.0188124
8100,359.527,-0.0187469
8175,355.779,-0.019801
8250,352.029,-0.0206849
8325,348.28,-0.0213444
8400,344.532,-0.0221161
8475,340.785,-0.0229042
8550,337.037,-0.0234158
8625,333.288,-0.0237107
8700,329.539,-0.0242861
8775,325.788,-0.0243663
8850,322.037,-0.0247782
8925,318.288,-0.0245341
9000,314.538,-0.0248984
9075,310.79,-0.025055
9150,307.041,-0.0257563
9225,303.29,-0.0257344
9300,299.536,-0.0259843
9375,295.787,-0.0258399
9450,292.039,-0.0258235
9525,288.288,-0.0260965
9600,284.539,-0.0261402
9675,280.79,-0.0265533
9750,277.039,-0.0267387
9825,273.289,-0.0268205
9900,269.539,-0.027383
9975,265.789,-0.0272583
10050,262.039,-0.0276912
10125,258.29,-0.0279563
10200,254.539,-0.0285008
10275,250.788,-0.0288851
10350,247.038,-0.0290174
10425,243.288,-0.0294817
10500,239.537,-0.0297471
10575,235.787,-0.0301613
10650,232.036,-0.0306263
10725,228.285,-0.0309916
10800,224.535,-0.0313775
10875,220.783,-0.0317339
10950,217.032,-0.032334
11025,213.282,-0.0327038
11100,209.531,-0.0326164
11175,205.78,-0.033135
11250,202.029,-0.0331087
11325,198.278,-0.03314
11400,194.53,-0.0323205
11475,193.209,0.00455533
11550,193.194,0.00849836
11625,193.192,0.00918172
11700,193.192,0.00939466
11775,193.191,0.00921591
11850,193.191,0.00967511
11925,193.191,0.00969917
12000,193.191,0.00980775
12075,195.607,0.0460696
12150,199.346,0.0501884
12225,203.095,0.0519159
12300,206.847,0.0535494
12375,210.597,0.0547927
12450,214.348,0.0554365
12525,218.098,0.056329
12600,221.848,0.057266
12675,225.6,0.0578707
12750,229.349,0.0586133
12825,233.101,0.05948
12900,236.851,0.0605574
12975,240.602,0.0615264
13050,244.353,0.0624854
13125,248.103,0.0635108
13200,251.853,0.0645065
13275,255.603,0.0653824
13350,259.355,0.0663892
13425,263.104,0.0677105
13500,266.854,0.0687631
13575,270.606,0.0702851
13650,274.357,0.0714655
13725,278.109,0.0727672
13800,281.859,0.0739556
13875,285.611,0.0752754
13950,289.362,0.0765724
14025,293.112,0.0779311
14100,296.862,0.0791457
14175,300.614,0.080345
14250,304.364,0.0814788
14325,308.116,0.0828769
14400,311.866,0.0839726
14475,315.617,0.0850858
14550,319.367,0.0863792
14625,323.119,0.087407
14700,326.869,0.0887159
14775,330.62,0.0896923
14850,334.37,0.091105
14925,338.121,0.0923228
15000,341.871,0.0933723
15075,345.621,0.0946893
15150,349.372,0.0962627
15225,353.123,0.0972636
15300,356.874,0.0985921
15375,360.626,0.100208
15450,364.375,0.102472
15525,368.125,0.10393
15600,371.875,0.106015
15675,375.626,0.107828
15750,379.376,0.109809
15825,383.127,0.112668
15900,386.878,0.116104
15975,390.629,0.120699
16050,394.378,0.126102
16125,398.127,0.131261
16200,401.876,0.133843
16275,405.625,0.134271
16350,409.378,0.134108
16425,413.127,0.133898
16500,416.875,0.134306
16575,420.624,0.134446
16650,424.374,0.134973
16725,428.123,0.135132
16800,431.874,0.135501
16875,433.194,0.0545278
16950,433.197,0.0514898
17025,433.196,0.0508614
17100,433.196,0.0504103
17175,433.195,0.0498501
17250,433.196,0.0497915
17325,433.198,0.0497178
17400,433.197,0.0492022
17475,430.808,-0.0319945
17550,427.064,-0.0339827
17625,423.317,-0.034485
17700,419.568,-0.0352696
17775,415.815,-0.0343099
17850,412.067,-0.0339166
17925,408.325,-0.0338732
18000,404.573,-0.0349018
18075,400.82,-0.0334053
18150,397.073,-0.0315744
18225,393.323,-0.0291159
18300,389.575,-0.0263301
18375,385.828,-0.0246207
18450,382.077,-0.0228775
18525,378.324,-0.0211696
18600,374.578,-0.020392
18675,370.828,-0.0195109
18750,367.083,-0.0200653
18825,363.331,-0.0198941
18900,359.583,-0.0202174
18975,355.827,-0.020134
19050,352.082,-0.0212983
19125,348.333,-0.0227092
19200,344.585,-0.0232866
19275,340.836,-0.0243039
19350,337.086,-0.0251012
19425,333.334,-0.0259729
19500,329.587,-0.0265117
19575,325.839,-0.0266908
19650,322.089,-0.0265106
19725,318.339,-0.0268155
19800,314.591,-0.0267534
19875,310.84,-0.0272915
19950,307.091,-0.027441
20025,303.34,-0.0274135
20100,299.592,-0.0276303
20175,295.842,-0.0279119
20250,292.09,-0.0281302
20325,288.34,-0.0277884
20400,284.591,-0.0279631
20475,280.841,-0.0281257
20550,277.092,-0.028425
20625,273.341,-0.0289733
20700,269.59,-0.0288097
20775,265.84,-0.0288833
20850,262.091,-0.0289817
20925,258.341,-0.0293703
21000,254.591,-0.0298472
21075,250.84,-0.0300943
21150,247.09,-0.0302562
21225,243.339,-0.0305374
21300,239.589,-0.0312339
21375,235.838,-0.0313672
21450,232.088,-0.0320311
21525,228.337,-0.032342
21600,224.586,-0.0326786
21675,220.833,-0.033047
21750,217.086,-0.0331579
21825,213.334,-0.0335727
21900,209.583,-0.0339559
21975,205.832,-0.03408
22050,202.081,-0.034412
22125,198.33,-0.0340195
22200,194.582,-0.0334246
22215,193.835,-0.0333037