File: Non-charring/PMMA/UMET/UMET_TGA_N2_5.csv
Time,Temperature,Mass
[s],[K],[mg]
0,313.115,3.9289
0.1,315.115,3.9289
0.2,317.115,3.9289
0.3,319.115,3.9289
0.4,321.115,3.9289
0.5,323.115,3.9289
0.6,325.115,3.9289
0.7,327.115,3.9289
0.8,329.115,3.9289
0.9,331.115,3.9289
1,333.115,3.9289
1.1,335.115,3.9289
1.2,337.115,3.9289
1.3,339.115,3.9289
1.4,341.115,3.9289
1.5,343.115,3.9289
1.6,345.115,3.9289
1.7,347.115,3.9289
1.8,349.115,3.9289
1.9,351.115,3.9289
2,353.115,3.9289
2.1,355.115,3.9289
2.2,357.115,3.9289
2.3,359.115,3.9289
2.4,361.115,3.9289
2.5,363.115,3.9289
2.6,365.115,3.9289
2.7,367.115,3.9289
2.8,369.115,3.9289
2.9,371.115,3.9289
3,373.115,3.9289
3.1,375.115,3.9289
3.2,377.115,3.9289
3.3,379.115,3.9289
3.4,381.115,3.9289
3.5,383.115,3.9289
3.6,385.115,3.9289
3.7,387.115,3.9289
3.8,389.115,3.9289
3.9,391.115,3.9289
4,393.115,3.9289
4.1,395.115,3.9289
4.2,397.115,3.9289
4.3,399.115,3.9289
4.4,401.115,3.9289
4.5,403.115,3.9289
4.6,405.115,3.9289
4.7,407.115,3.9289
4.8,409.115,3.9289
4.9,411.115,3.9289
5,413.115,3.9289
5.1,415.115,3.9289
5.2,417.115,3.9289
5.3,419.115,3.9289
5.4,421.115,3.9289
5.5,423.115,3.9289
5.6,425.115,3.9289
5.7,427.115,3.9289
5.8,429.115,3.9289
5.9,431.115,3.9289
6,433.115,3.9289
6.1,435.115,3.9289
6.2,437.115,3.92788
6.3,439.115,3.92719
6.4,441.115,3.92802
6.5,443.115,3.92454
6.6,445.115,3.92279
6.7,447.115,3.9233
6.8,449.115,3.9246
6.9,451.115,3.92269
7,453.115,3.91909
7.1,455.115,3.9137
7.2,457.115,3.90829
7.3,459.115,3.90833
7.4,461.115,3.90908
7.5,463.115,3.90109
7.6,465.115,3.89169
7.7,467.115,3.89021
7.8,469.115,3.8903
7.9,471.115,3.8858
8,473.115,3.882
8.1,475.115,3.8803
8.2,477.115,3.87475
8.3,479.115,3.86773
8.4,481.115,3.8644
8.5,483.115,3.8621
8.6,485.115,3.8617
8.7,487.115,3.85559
8.8,489.115,3.8538
8.9,491.115,3.8512
9,493.115,3.85
9.1,495.115,3.8477
9.2,497.115,3.84118
9.3,499.115,3.83809
9.4,501.115,3.8374
9.5,503.115,3.8366
9.6,505.115,3.83261
9.7,507.115,3.83248
9.8,509.115,3.83103
9.9,511.115,3.82471
10,513.115,3.82509
10.1,515.115,3.8282
10.2,517.115,3.82257
10.3,519.115,3.8213
10.4,521.115,3.82415
10.5,523.115,3.8233
10.6,525.115,3.82253
10.7,527.115,3.81768
10.8,529.115,3.81683
10.9,531.115,3.81863
11,533.115,3.81762
11.1,535.115,3.8142
11.2,537.115,3.81521
11.3,539.115,3.8227
11.4,541.115,3.8138
11.5,543.115,3.80158
11.6,545.115,3.8052
11.7,547.115,3.80412
11.8,549.115,3.79811
11.9,551.115,3.80445
12,553.115,3.80609
12.1,555.115,3.79883
12.2,557.115,3.79987
12.3,559.115,3.79217
12.4,561.115,3.7891
12.5,563.115,3.78368
12.6,565.115,3.78092
12.7,567.115,3.7752
12.8,569.115,3.76897
12.9,571.115,3.76068
13,573.115,3.75233
13.1,575.115,3.75021
13.2,577.115,3.74756
13.3,579.115,3.73601
13.4,581.115,3.72721
13.5,583.115,3.71709
13.6,585.115,3.70945
13.7,587.115,3.69963
13.8,589.115,3.69375
13.9,591.115,3.68375
14,593.115,3.66879
14.1,595.115,3.65285
14.2,597.115,3.63896
14.3,599.115,3.62055
14.4,601.115,3.60068
14.5,603.115,3.56738
14.6,605.115,3.54184
14.7,607.115,3.49995
14.8,609.115,3.46341
14.9,611.115,3.41947
15,613.115,3.3748
15.1,615.115,3.32838
15.2,617.115,3.26657
15.3,619.115,3.19807
15.4,621.115,3.12278
15.5,623.115,3.03937
15.6,625.115,2.95171
15.7,627.115,2.8532
15.8,629.115,2.74867
15.9,631.115,2.63146
16,633.115,2.5101
16.1,635.115,2.38492
16.2,637.115,2.25343
16.3,639.115,2.10547
16.4,641.115,1.96768
16.5,643.115,1.81708
16.6,645.115,1.67257
16.7,647.115,1.53402
16.8,649.115,1.39293
16.9,651.115,1.25908
17,653.115,1.12799
17.1,655.115,1.00387
17.2,657.115,0.884146
17.3,659.115,0.771094
17.4,661.115,0.662255
17.5,663.115,0.570937
17.6,665.115,0.486144
17.7,667.115,0.409202
17.8,669.115,0.344309
17.9,671.115,0.290049
18,673.115,0.242598
18.1,675.115,0.200121
18.2,677.115,0.179123
18.3,679.115,0.137723
18.4,681.115,0.130568
18.5,683.115,0.113828
18.6,685.115,0.0938378
18.7,687.115,0.07933392
18.8,689.115,0.0638324
18.9,691.115,0.052406
19,693.115,0.0474918
19.1,695.115,0.0438053
19.2,697.115,0.0468345
19.3,699.115,0.0445506
19.4,701.115,0.0395998
19.5,703.115,0.0367847
19.6,705.115,0.03373275
19.7,707.115,0.02782722
19.8,709.115,0.0282307
19.9,711.115,0.0252601
20,713.115,0.0286975
20.1,715.115,0.0302058
20.2,717.115,0.0290082
20.3,719.115,0.0263936
20.4,721.115,0.0275919
20.5,723.115,0.0265987
20.6,725.115,0
20.7,727.115,0
20.8,729.115,0
20.9,731.115,0
21,733.115,0
21.1,735.115,0
21.2,737.115,0
21.3,739.115,0
21.4,741.115,0
21.5,743.115,0
21.6,745.115,0
21.7,747.115,0
21.8,749.115,0
21.9,751.115,0
22,753.115,0
22.1,755.115,0
22.2,757.115,0
22.3,759.115,0
22.4,761.115,0
22.5,763.115,0
22.6,765.115,0
22.7,767.115,0
22.8,769.115,0
22.9,771.115,0
23,773.115,0
23.025,773.615,0