File: Non-charring/PMMA/UMET/UMET_TGA_N2_1.csv
Time,Temperature,Mass
[s],[K],[mg]
0,313.115,4.3361
2,315.115,4.3361
4,317.115,4.33303
6,319.115,4.3314
8,321.115,4.33031
10,323.115,4.3293
12,325.115,4.3287
14,327.115,4.32827
16,329.115,4.32928
18,331.115,4.32682
20,333.115,4.32668
22,335.115,4.32451
24,337.115,4.32389
26,339.115,4.32187
28,341.115,4.32127
30,343.115,4.32228
32,345.115,4.32216
34,347.115,4.32071
36,349.115,4.32191
38,351.115,4.3218
40,353.115,4.32089
42,355.115,4.32161
44,357.115,4.32009
46,359.115,4.32002
48,361.115,4.31991
50,363.115,4.32171
52,365.115,4.32051
54,367.115,4.32046
56,369.115,4.32059
58,371.115,4.31986
60,373.115,4.31948
62,375.115,4.31827
64,377.115,4.31716
66,379.115,4.31468
68,381.115,4.31661
70,383.115,4.31602
72,385.115,4.31771
74,387.115,4.3163
76,389.115,4.3168
78,391.115,4.31499
80,393.115,4.31506
82,395.115,4.31483
84,397.115,4.31485
86,399.115,4.31379
88,401.115,4.31368
90,403.115,4.31417
92,405.115,4.31291
94,407.115,4.31521
96,409.115,4.3121
98,411.115,4.31171
100,413.115,4.31126
102,415.115,4.31049
104,417.115,4.30947
106,419.115,4.31037
108,421.115,4.30719
110,423.115,4.30527
112,425.115,4.3044
114,427.115,4.3029
116,429.115,4.30091
118,431.115,4.29993
120,433.115,4.29592
122,435.115,4.29211
124,437.115,4.2863
126,439.115,4.28183
128,441.115,4.27679
130,443.115,4.27278
132,445.115,4.26833
134,447.115,4.26267
136,449.115,4.2547
138,451.115,4.25029
140,453.115,4.2459
142,455.115,4.2426
144,457.115,4.23953
146,459.115,4.2384
148,461.115,4.23581
150,463.115,4.23217
152,465.115,4.22976
154,467.115,4.22807
156,469.115,4.22637
158,471.115,4.22641
160,473.115,4.22497
162,475.115,4.22396
164,477.115,4.2226
166,479.115,4.22406
168,481.115,4.22469
170,483.115,4.22484
172,485.115,4.22402
174,487.115,4.22249
176,489.115,4.22024
178,491.115,4.2193
180,493.115,4.22079
182,495.115,4.21906
184,497.115,4.21889
186,499.115,4.21782
188,501.115,4.2164
190,503.115,4.2167
192,505.115,4.21621
194,507.115,4.21426
196,509.115,4.21366
198,511.115,4.21199
200,513.115,4.20813
202,515.115,4.2049
204,517.115,4.20237
206,519.115,4.20031
208,521.115,4.19628
210,523.115,4.19157
212,525.115,4.18902
214,527.115,4.18108
216,529.115,4.17734
218,531.115,4.16967
220,533.115,4.16556
222,535.115,4.1569
224,537.115,4.1498
226,539.115,4.1415
228,541.115,4.13132
230,543.115,4.12277
232,545.115,4.11342
234,547.115,4.1047
236,549.115,4.09219
238,551.115,4.08053
240,553.115,4.06598
242,555.115,4.05318
244,557.115,4.03656
246,559.115,4.02057
248,561.115,4.00006
250,563.115,3.97607
252,565.115,3.95212
254,567.115,3.92563
256,569.115,3.89374
258,571.115,3.85566
260,573.115,3.81468
262,575.115,3.76668
264,577.115,3.71644
266,579.115,3.65632
268,581.115,3.59034
270,583.115,3.51102
272,585.115,3.42663
274,587.115,3.33088
276,589.115,3.2265
278,591.115,3.1135
280,593.115,2.98813
282,595.115,2.85223
284,597.115,2.7071
286,599.115,2.55404
288,601.115,2.39434
290,603.115,2.2319
292,605.115,2.0703
294,607.115,1.906
296,609.115,1.7444
298,611.115,1.58534
300,613.115,1.42675
302,615.115,1.26905
304,617.115,1.11497
306,619.115,0.968797
308,621.115,0.834969
310,623.115,0.714415
312,625.115,0.605875
314,627.115,0.509511
316,629.115,0.426788
318,631.115,0.356714
320,633.115,0.296297
322,635.115,0.244338
324,637.115,0.198866
326,639.115,0.162834
328,641.115,0.131007
330,643.115,0.105049
332,645.115,0.0847764
334,647.115,0.06914822
336,649.115,0.0557731
338,651.115,0.0462922
340,653.115,0.0369288
342,655.115,0.02951193
344,657.115,0.0250804
346,659.115,0.02230143
348,661.115,0.0201325
350,663.115,0.0195216
352,665.115,0.018555
354,667.115,0.0180967
356,669.115,0.0169442
358,671.115,0.015407
360,673.115,0.0132737
362,675.115,0.0136466
364,677.115,0.0162066
366,679.115,0.0174489
368,681.115,0.0177039
370,683.115,0.0187584
372,685.115,0.018686
374,687.115,0.0187588
376,689.115,0.0183842
378,691.115,0.01888545
380,693.115,0.018598
382,695.115,0.0177459
384,697.115,0.0202006
386,699.115,0.0199912
388,701.115,0.0196074
390,703.115,0.0191664
392,705.115,0.019636
394,707.115,0.0207964
396,709.115,0.0214156
398,711.115,0.02168527
400,713.115,0.0214988
402,715.115,0.0207955
404,717.115,0.0209941
406,719.115,0.0210305
408,721.115,0.0213783
410,723.115,0.0217
412,725.115,0
414,727.115,0
416,729.115,0
418,731.115,0
420,733.115,0
422,735.115,0
424,737.115,0
426,739.115,0
428,741.115,0
430,743.115,0
432,745.115,0
434,747.115,0
436,749.115,0
438,751.115,0
440,753.115,0
442,755.115,0
444,757.115,0
446,759.115,0
448,761.115,0
450,763.115,0
452,765.115,0
454,767.115,0
456,769.115,0
458,771.115,0
460,773.115,0
460.5,773.615,0