File: Wood/Calibration_Data/UAI/UAI_TGA_N2_20K_R1.csv
Time (s),Temperature (K),Mass (mg)
0.0,299.8,14.89
11.1,302.3,14.9
22.2,304.8,14.92
33.2,307.3,14.94
44.2,309.8,14.97
55.0,312.3,14.99
65.8,314.8,15.03
76.5,317.3,15.07
87.2,319.8,15.1
97.8,322.3,15.15
108.4,324.8,15.18
118.8,327.3,15.23
129.3,329.8,15.26
139.6,332.3,15.31
149.9,334.8,15.34
160.2,337.3,15.38
170.4,339.8,15.42
180.6,342.3,15.44
190.7,344.8,15.47
200.7,347.3,15.49
210.7,349.8,15.51
220.7,352.3,15.52
230.6,354.8,15.53
240.5,357.3,15.54
250.3,359.8,15.54
260.1,362.3,15.54
269.9,364.8,15.53
279.6,367.3,15.53
289.2,369.8,15.52
298.9,372.3,15.51
308.4,374.8,15.51
318.0,377.3,15.5
327.5,379.8,15.49
337.0,382.3,15.49
346.4,384.8,15.48
355.8,387.3,15.47
365.2,389.8,15.46
374.5,392.3,15.45
383.8,394.8,15.44
393.1,397.3,15.43
402.3,399.8,15.43
411.5,402.3,15.42
420.7,404.8,15.41
429.9,407.3,15.4
439.0,409.8,15.39
448.1,412.3,15.38
457.1,414.8,15.38
466.2,417.3,15.37
475.2,419.8,15.36
484.2,422.3,15.35
493.1,424.8,15.34
502.0,427.3,15.33
510.9,429.8,15.32
519.8,432.3,15.31
528.7,434.8,15.3
537.5,437.3,15.29
546.3,439.8,15.28
555.1,442.3,15.27
563.8,444.8,15.26
572.6,447.3,15.25
581.3,449.8,15.24
590.0,452.3,15.23
598.7,454.8,15.22
607.3,457.3,15.21
616.0,459.8,15.2
624.6,462.3,15.19
633.2,464.8,15.18
641.7,467.3,15.16
650.3,469.8,15.15
658.8,472.3,15.14
667.3,474.8,15.13
675.8,477.3,15.12
684.3,479.8,15.11
692.8,482.3,15.09
701.2,484.8,15.08
709.7,487.3,15.07
718.1,489.8,15.06
726.5,492.3,15.04
734.8,494.8,15.03
743.2,497.3,15.01
751.6,499.8,14.99
759.9,502.3,14.98
768.2,504.8,14.96
776.5,507.3,14.94
784.8,509.8,14.92
793.1,512.3,14.91
801.4,514.8,14.89
809.6,517.3,14.87
817.8,519.8,14.85
826.1,522.3,14.83
834.3,524.8,14.81
842.5,527.3,14.77
850.7,529.8,14.74
858.8,532.3,14.71
867.0,534.8,14.67
875.1,537.3,14.63
883.3,539.8,14.58
891.4,542.3,14.54
899.5,544.8,14.48
907.6,547.3,14.43
915.7,549.8,14.38
923.8,552.3,14.31
931.9,554.8,14.25
940.0,557.3,14.18
948.0,559.8,14.12
956.1,562.3,14.05
964.1,564.8,13.97
972.1,567.3,13.89
980.1,569.8,13.8
988.1,572.3,13.71
996.1,574.8,13.62
1004.1,577.3,13.52
1012.1,579.8,13.43
1020.1,582.3,13.32
1028.1,584.8,13.21
1036.0,587.3,13.1
1044.0,589.8,12.98
1051.9,592.3,12.86
1059.8,594.8,12.74
1067.8,597.3,12.6
1075.7,599.8,12.46
1083.6,602.3,12.33
1091.5,604.8,12.18
1099.4,607.3,12.03
1107.3,609.8,11.87
1115.2,612.3,11.71
1123.1,614.8,11.54
1131.0,617.3,11.36
1138.9,619.8,11.18
1146.7,622.3,10.98
1154.6,624.8,10.77
1162.5,627.3,10.56
1170.3,629.8,10.33
1178.2,632.3,10.11
1186.0,634.8,9.86
1193.8,637.3,9.62
1201.7,639.8,9.37
1209.5,642.3,9.11
1217.3,644.8,8.85
1225.2,647.3,8.59
1233.0,649.8,8.33
1240.8,652.3,8.07
1248.6,654.8,7.81
1256.4,657.3,7.55
1264.2,659.8,7.29
1272.0,662.3,7.05
1279.8,664.8,6.81
1287.6,667.3,6.58
1295.4,669.8,6.37
1303.2,672.3,6.16
1311.0,674.8,5.97
1318.8,677.3,5.79
1326.6,679.8,5.62
1334.4,682.3,5.47
1342.2,684.8,5.33
1349.9,687.3,5.21
1357.7,689.8,5.1
1365.5,692.3,4.99
1373.3,694.8,4.91
1381.1,697.3,4.84
1388.8,699.8,4.78
1396.6,702.3,4.73
1404.4,704.8,4.69
1412.2,707.3,4.66
1419.9,709.8,4.63
1427.7,712.3,4.6
1435.5,714.8,4.58
1443.3,717.3,4.56
1451.1,719.8,4.54
1458.8,722.3,4.52
1466.6,724.8,4.5
1474.4,727.3,4.49
1482.2,729.8,4.46
1489.9,732.3,4.44
1497.7,734.8,4.42
1505.5,737.3,4.4
1513.3,739.8,4.38
1521.1,742.3,4.36
1528.9,744.8,4.33
1536.7,747.3,4.32
1544.5,749.8,4.29
1552.2,752.3,4.28
1560.0,754.8,4.25
1567.8,757.3,4.22
1575.6,759.8,4.2
1583.4,762.3,4.18
1591.3,764.8,4.16
1599.1,767.3,4.13
1606.9,769.8,4.1
1614.7,772.3,4.08
1622.5,774.8,4.06
1630.3,777.3,4.04
1638.2,779.8,4.01
1646.0,782.3,3.98
1653.8,784.8,3.95
1661.7,787.3,3.93
1669.5,789.8,3.9
1677.4,792.3,3.88
1685.2,794.8,3.86
1693.1,797.3,3.84
1701.0,799.8,3.81
1708.8,802.3,3.78
1716.7,804.8,3.76
1724.6,807.3,3.72
1732.5,809.8,3.7
1740.4,812.3,3.67
1748.3,814.8,3.63
1756.2,817.3,3.6
1764.1,819.8,3.57
1772.0,822.3,3.53
1779.9,824.8,3.5
1787.8,827.3,3.47
1795.8,829.8,3.43
1803.7,832.3,3.4
1811.7,834.8,3.37
1819.6,837.3,3.33
1827.6,839.8,3.31
1835.6,842.3,3.27
1843.6,844.8,3.24
1851.6,847.3,3.21
1859.6,849.8,3.17
1867.6,852.3,3.14
1875.6,854.8,3.11
1883.6,857.3,3.08
1891.7,859.8,3.05
1899.7,862.3,3.02
1907.8,864.8,2.99
1915.8,867.3,2.96
1923.9,869.8,2.94
1932.0,872.3,2.91
1940.1,874.8,2.87
1948.2,877.3,2.85
1956.3,879.8,2.82
1964.4,882.3,2.78
1972.6,884.8,2.75
1980.7,887.3,2.72
1988.9,889.8,2.68
1997.1,892.3,2.65
2005.3,894.8,2.61
2013.5,897.3,2.57
2021.7,899.8,2.52
2029.9,902.3,2.48
2038.1,904.8,2.44
2046.4,907.3,2.39
2054.7,909.8,2.34
2062.9,912.3,2.29
2071.2,914.8,2.23
2079.5,917.3,2.18
2087.9,919.8,2.12
2096.2,922.3,2.07
2104.6,924.8,2.01
2112.9,927.3,1.96
2121.3,929.8,1.91
2129.7,932.3,1.85
2138.1,934.8,1.8
2146.5,937.3,1.74
2155.0,939.8,1.68
2163.5,942.3,1.63
2171.9,944.8,1.58
2180.5,947.3,1.52
2189.0,949.8,1.47
2197.5,952.3,1.42
2206.1,954.8,1.37
2214.6,957.3,1.33
2223.2,959.8,1.28
2231.9,962.3,1.23
2240.5,964.8,1.19
2249.1,967.3,1.15
2257.8,969.8,1.11
2266.5,972.3,1.07
2275.2,974.8,1.05
2282.2,976.8,1.01