File: Wood/Calibration_Data/UAI/UAI_Wood_TGA_N2_20K_R2.csv
Time (s),Temperature (K),Mass (mg)
0.0,299.8,14.93
11.1,302.3,14.97
22.2,304.8,14.99
33.2,307.3,15.03
44.2,309.8,15.07
55.0,312.3,15.1
65.8,314.8,15.14
76.5,317.3,15.19
87.2,319.8,15.22
97.8,322.3,15.27
108.4,324.8,15.3
118.8,327.3,15.35
129.3,329.8,15.38
139.6,332.3,15.43
149.9,334.8,15.46
160.2,337.3,15.5
170.4,339.8,15.54
180.6,342.3,15.57
190.7,344.8,15.61
200.7,347.3,15.63
210.7,349.8,15.65
220.7,352.3,15.67
230.6,354.8,15.69
240.5,357.3,15.7
250.3,359.8,15.71
260.1,362.3,15.72
269.9,364.8,15.73
279.6,367.3,15.73
289.2,369.8,15.74
298.9,372.3,15.75
308.4,374.8,15.75
318.0,377.3,15.76
327.5,379.8,15.77
337.0,382.3,15.77
346.4,384.8,15.77
355.8,387.3,15.78
365.2,389.8,15.78
374.5,392.3,15.78
383.8,394.8,15.78
393.1,397.3,15.78
402.3,399.8,15.79
411.5,402.3,15.79
420.7,404.8,15.8
429.9,407.3,15.8
439.0,409.8,15.81
448.1,412.3,15.82
457.1,414.8,15.82
466.2,417.3,15.83
475.2,419.8,15.83
484.2,422.3,15.83
493.1,424.8,15.83
502.0,427.3,15.84
510.9,429.8,15.84
519.8,432.3,15.84
528.7,434.8,15.84
537.5,437.3,15.83
546.3,439.8,15.83
555.1,442.3,15.82
563.8,444.8,15.82
572.6,447.3,15.81
581.3,449.8,15.81
590.0,452.3,15.81
598.7,454.8,15.8
607.3,457.3,15.8
616.0,459.8,15.79
624.6,462.3,15.78
633.2,464.8,15.78
641.7,467.3,15.77
650.3,469.8,15.77
658.8,472.3,15.76
667.3,474.8,15.76
675.8,477.3,15.75
684.3,479.8,15.75
692.8,482.3,15.74
701.2,484.8,15.73
709.7,487.3,15.73
718.1,489.8,15.72
726.5,492.3,15.71
734.8,494.8,15.71
743.2,497.3,15.7
751.6,499.8,15.69
759.9,502.3,15.68
768.2,504.8,15.68
776.5,507.3,15.67
784.8,509.8,15.66
793.1,512.3,15.65
801.4,514.8,15.63
809.6,517.3,15.61
817.8,519.8,15.59
826.1,522.3,15.58
834.3,524.8,15.56
842.5,527.3,15.53
850.7,529.8,15.5
858.8,532.3,15.48
867.0,534.8,15.45
875.1,537.3,15.42
883.3,539.8,15.38
891.4,542.3,15.35
899.5,544.8,15.31
907.6,547.3,15.26
915.7,549.8,15.23
923.8,552.3,15.17
931.9,554.8,15.12
940.0,557.3,15.06
948.0,559.8,15.0
956.1,562.3,14.94
964.1,564.8,14.87
972.1,567.3,14.79
980.1,569.8,14.71
988.1,572.3,14.62
996.1,574.8,14.53
1004.1,577.3,14.43
1012.1,579.8,14.34
1020.1,582.3,14.23
1028.1,584.8,14.12
1036.0,587.3,14.0
1044.0,589.8,13.88
1051.9,592.3,13.75
1059.8,594.8,13.62
1067.8,597.3,13.48
1075.7,599.8,13.34
1083.6,602.3,13.19
1091.5,604.8,13.03
1099.4,607.3,12.87
1107.3,609.8,12.69
1115.2,612.3,12.52
1123.1,614.8,12.33
1131.0,617.3,12.14
1138.9,619.8,11.94
1146.7,622.3,11.73
1154.6,624.8,11.5
1162.5,627.3,11.28
1170.3,629.8,11.04
1178.2,632.3,10.8
1186.0,634.8,10.54
1193.8,637.3,10.29
1201.7,639.8,10.02
1209.5,642.3,9.76
1217.3,644.8,9.49
1225.2,647.3,9.22
1233.0,649.8,8.95
1240.8,652.3,8.7
1248.6,654.8,8.44
1256.4,657.3,8.19
1264.2,659.8,7.95
1272.0,662.3,7.72
1279.8,664.8,7.5
1287.6,667.3,7.29
1295.4,669.8,7.1
1303.2,672.3,6.92
1311.0,674.8,6.75
1318.8,677.3,6.6
1326.6,679.8,6.47
1334.4,682.3,6.36
1342.2,684.8,6.25
1349.9,687.3,6.17
1357.7,689.8,6.09
1365.5,692.3,6.03
1373.3,694.8,5.98
1381.1,697.3,5.94
1388.8,699.8,5.91
1396.6,702.3,5.88
1404.4,704.8,5.87
1412.2,707.3,5.86
1419.9,709.8,5.85
1427.7,712.3,5.85
1435.5,714.8,5.84
1443.3,717.3,5.84
1451.1,719.8,5.83
1458.8,722.3,5.82
1466.6,724.8,5.81
1474.4,727.3,5.8
1482.2,729.8,5.79
1489.9,732.3,5.77
1497.7,734.8,5.76
1505.5,737.3,5.74
1513.3,739.8,5.72
1521.1,742.3,5.69
1528.9,744.8,5.66
1536.7,747.3,5.64
1544.5,749.8,5.61
1552.2,752.3,5.59
1560.0,754.8,5.56
1567.8,757.3,5.53
1575.6,759.8,5.51
1583.4,762.3,5.48
1591.3,764.8,5.46
1599.1,767.3,5.43
1606.9,769.8,5.4
1614.7,772.3,5.37
1622.5,774.8,5.34
1630.3,777.3,5.32
1638.2,779.8,5.29
1646.0,782.3,5.25
1653.8,784.8,5.23
1661.7,787.3,5.19
1669.5,789.8,5.16
1677.4,792.3,5.14
1685.2,794.8,5.11
1693.1,797.3,5.08
1701.0,799.8,5.05
1708.8,802.3,5.02
1716.7,804.8,5.0
1724.6,807.3,4.97
1732.5,809.8,4.94
1740.4,812.3,4.91
1748.3,814.8,4.88
1756.2,817.3,4.86
1764.1,819.8,4.82
1772.0,822.3,4.79
1779.9,824.8,4.76
1787.8,827.3,4.73
1795.8,829.8,4.69
1803.7,832.3,4.66
1811.7,834.8,4.63
1819.6,837.3,4.59
1827.6,839.8,4.56
1835.6,842.3,4.53
1843.6,844.8,4.49
1851.6,847.3,4.47
1859.6,849.8,4.43
1867.6,852.3,4.39
1875.6,854.8,4.37
1883.6,857.3,4.32
1891.7,859.8,4.29
1899.7,862.3,4.25
1907.8,864.8,4.21
1915.8,867.3,4.17
1923.9,869.8,4.14
1932.0,872.3,4.1
1940.1,874.8,4.06
1948.2,877.3,4.02
1956.3,879.8,3.98
1964.4,882.3,3.94
1972.6,884.8,3.89
1980.7,887.3,3.86
1988.9,889.8,3.81
1997.1,892.3,3.77
2005.3,894.8,3.73
2013.5,897.3,3.69
2021.7,899.8,3.65
2029.9,902.3,3.61
2038.1,904.8,3.57
2046.4,907.3,3.53
2054.7,909.8,3.49
2062.9,912.3,3.45
2071.2,914.8,3.41
2079.5,917.3,3.37
2087.9,919.8,3.33
2096.2,922.3,3.29
2104.6,924.8,3.24
2112.9,927.3,3.2
2121.3,929.8,3.16
2129.7,932.3,3.12
2138.1,934.8,3.08
2146.5,937.3,3.04
2155.0,939.8,3.01
2163.5,942.3,2.97
2171.9,944.8,2.92
2180.5,947.3,2.88
2189.0,949.8,2.84
2197.5,952.3,2.8
2206.1,954.8,2.75
2214.6,957.3,2.71
2223.2,959.8,2.67
2231.9,962.3,2.62
2240.5,964.8,2.57
2249.1,967.3,2.53
2257.8,969.8,2.48
2266.5,972.3,2.43
2275.2,974.8,2.38
2282.2,976.8,2.34