File: Wood/Calibration_Data/UAI/UAI_TGA_N2_20K_R3.csv
Time (s),Temperature (K),Mass (mg)
0,300.508,14.95
9,302.528,14.96
18,304.559,14.98
27,306.601,15
36,308.655,15.02
45,310.719,15.04
54,312.794,15.06
63,314.879,15.09
72,316.976,15.11
81,319.082,15.13
90,321.2,15.16
99,323.328,15.18
108,325.466,15.2
117,327.614,15.23
126,329.773,15.25
135,331.942,15.28
144,334.12,15.3
153,336.309,15.32
162,338.508,15.34
171,340.717,15.36
180,342.935,15.38
189,345.163,15.4
198,347.401,15.41
207,349.649,15.42
216,351.906,15.43
225,354.172,15.44
234,356.448,15.44
243,358.733,15.45
252,361.027,15.45
261,363.331,15.45
270,365.643,15.45
279,367.965,15.45
288,370.296,15.45
297,372.635,15.45
306,374.983,15.45
315,377.34,15.45
324,379.706,15.44
333,382.08,15.44
342,384.463,15.43
351,386.854,15.42
360,389.254,15.42
369,391.662,15.41
378,394.078,15.4
387,396.502,15.4
396,398.935,15.39
405,401.375,15.39
414,403.823,15.38
423,406.28,15.38
432,408.744,15.38
441,411.216,15.37
450,413.695,15.37
459,416.183,15.36
468,418.677,15.36
477,421.18,15.36
486,423.689,15.36
495,426.206,15.35
504,428.73,15.35
513,431.262,15.35
522,433.8,15.35
531,436.346,15.35
540,438.898,15.35
549,441.458,15.35
558,444.024,15.35
567,446.597,15.35
576,449.176,15.35
585,451.763,15.35
594,454.356,15.35
603,456.955,15.35
612,459.561,15.35
621,462.173,15.35
630,464.791,15.35
639,467.416,15.34
648,470.046,15.34
657,472.683,15.34
666,475.326,15.33
675,477.975,15.33
684,480.629,15.32
693,483.289,15.31
702,485.955,15.3
711,488.627,15.29
720,491.304,15.28
729,493.987,15.26
738,496.675,15.25
747,499.368,15.23
756,502.067,15.21
765,504.771,15.19
774,507.48,15.17
783,510.194,15.15
792,512.913,15.13
801,515.637,15.11
810,518.366,15.08
819,521.1,15.06
828,523.838,15.03
837,526.581,15
846,529.329,14.97
855,532.081,14.94
864,534.837,14.91
873,537.598,14.87
882,540.363,14.83
891,543.133,14.79
900,545.906,14.74
909,548.684,14.69
918,551.466,14.64
927,554.251,14.58
936,557.041,14.52
945,559.834,14.45
954,562.631,14.37
963,565.432,14.29
972,568.236,14.21
981,571.044,14.13
990,573.855,14.03
999,576.67,13.94
1008,579.487,13.84
1017,582.309,13.73
1026,585.133,13.61
1035,587.96,13.49
1044,590.791,13.36
1053,593.624,13.23
1062,596.46,13.09
1071,599.299,12.94
1080,602.141,12.78
1089,604.985,12.62
1098,607.832,12.44
1107,610.682,12.26
1116,613.534,12.06
1125,616.388,11.85
1134,619.245,11.64
1143,622.104,11.41
1152,624.965,11.17
1161,627.829,10.92
1170,630.694,10.65
1179,633.561,10.38
1188,636.43,10.09
1197,639.301,9.800000
1206,642.174,9.510000
1215,645.048,9.210000
1224,647.924,8.900000
1233,650.802,8.600000
1242,653.681,8.310000
1251,656.561,8.020000
1260,659.443,7.740000
1269,662.326,7.480000
1278,665.21,7.230000
1287,668.095,7.000000
1296,670.982,6.780000
1305,673.869,6.580000
1314,676.757,6.400000
1323,679.646,6.230000
1332,682.536,6.090000
1341,685.426,5.960000
1350,688.318,5.860000
1359,691.209,5.770000
1368,694.101,5.690000
1377,696.994,5.640000
1386,699.887,5.590000
1395,702.78,5.560000
1404,705.673,5.530000
1413,708.567,5.520000
1422,711.46,5.500000
1431,714.354,5.490000
1440,717.247,5.480000
1449,720.141,5.470000
1458,723.034,5.450000
1467,725.927,5.440000
1476,728.819,5.420000
1485,731.711,5.400000
1494,734.602,5.380000
1503,737.493,5.350000
1512,740.384,5.320000
1521,743.273,5.290000
1530,746.162,5.260000
1539,749.05,5.230000
1548,751.937,5.200000
1557,754.822,5.160000
1566,757.707,5.130000
1575,760.591,5.090000
1584,763.474,5.050000
1593,766.355,5.010000
1602,769.235,4.980000
1611,772.113,4.940000
1620,774.99,4.900000
1629,777.865,4.870000
1638,780.739,4.830000
1647,783.611,4.790000
1656,786.481,4.760000
1665,789.35,4.720000
1674,792.216,4.680000
1683,795.081,4.650000
1692,797.943,4.610000
1701,800.804,4.570000
1710,803.662,4.530000
1719,806.517,4.490000
1728,809.371,4.450000
1737,812.222,4.410000
1746,815.071,4.370000
1755,817.917,4.330000
1764,820.76,4.290000
1773,823.601,4.260000
1782,826.439,4.220000
1791,829.274,4.190000
1800,832.106,4.150000
1809,834.935,4.110000
1818,837.761,4.070000
1827,840.584,4.030000
1836,843.404,3.990000
1845,846.221,3.950000
1854,849.034,3.910000
1863,851.844,3.860000
1872,854.65,3.820000
1881,857.453,3.780000
1890,860.253,3.740000
1899,863.048,3.690000
1908,865.84,3.650000
1917,868.628,3.600000
1926,871.412,3.550000
1935,874.192,3.500000
1944,876.968,3.440000
1953,879.74,3.390000
1962,882.508,3.330000
1971,885.271,3.280000
1980,888.031,3.220000
1989,890.785,3.160000
1998,893.536,3.100000
2007,896.282,3.040000
2016,899.023,2.980000
2025,901.759,2.920000
2034,904.491,2.870000
2043,907.218,2.810000
2052,909.94,2.750000
2061,912.658,2.700000
2070,915.37,2.650000
2079,918.077,2.590000
2088,920.779,2.540000
2097,923.475,2.490000
2106,926.167,2.430000
2115,928.853,2.380000
2124,931.533,2.340000
2133,934.208,2.290000
2142,936.878,2.240000
2151,939.541,2.190000
2160,942.199,2.150000
2169,944.851,2.100000
2178,947.498,2.050000
2187,950.138,2.010000
2196,952.773,1.960000
2205,955.401,1.910000
2214,958.023,1.860000
2223,960.639,1.820000
2232,963.249,1.770000
2241,965.852,1.720000
2250,968.449,1.670000
2259,971.039,1.620000
2268,973.623,1.570000
2277,976.2,1.510000
2283,977.914,1.480000