File: Wood/Calibration_Data/UAI/UAI_TGA_N2_20K_R2.csv
Time (s),Temperature (K),Mass (mg)
0,299.837,14.93
9,301.853,14.96
18,303.881,14.98
27,305.919,15.01
36,307.969,15.04
45,310.03,15.07
54,312.101,15.1
63,314.183,15.13
72,316.276,15.17
81,318.379,15.2
90,320.493,15.23
99,322.617,15.27
108,324.752,15.3
117,326.897,15.34
126,329.052,15.37
135,331.217,15.4
144,333.393,15.44
153,335.579,15.47
162,337.774,15.51
171,339.979,15.54
180,342.195,15.57
189,344.42,15.6
198,346.654,15.62
207,348.899,15.64
216,351.152,15.66
225,353.416,15.68
234,355.688,15.69
243,357.97,15.71
252,360.262,15.71
261,362.562,15.72
270,364.872,15.73
279,367.19,15.73
288,369.518,15.74
297,371.854,15.74
306,374.2,15.75
315,376.554,15.76
324,378.916,15.76
333,381.288,15.77
342,383.668,15.77
351,386.056,15.78
360,388.453,15.78
369,390.858,15.78
378,393.271,15.78
387,395.693,15.78
396,398.123,15.78
405,400.561,15.79
414,403.006,15.79
423,405.46,15.8
432,407.922,15.81
441,410.391,15.81
450,412.868,15.82
459,415.353,15.82
468,417.845,15.83
477,420.345,15.83
486,422.852,15.83
495,425.366,15.84
504,427.888,15.84
513,430.417,15.84
522,432.953,15.84
531,435.496,15.84
540,438.047,15.83
549,440.604,15.83
558,443.168,15.82
567,445.738,15.82
576,448.316,15.81
585,450.9,15.81
594,453.491,15.8
603,456.088,15.8
612,458.691,15.79
621,461.301,15.79
630,463.918,15.78
639,466.54,15.78
648,469.169,15.77
657,471.804,15.76
666,474.444,15.76
675,477.091,15.75
684,479.744,15.75
693,482.402,15.74
702,485.066,15.73
711,487.736,15.73
720,490.411,15.72
729,493.092,15.71
738,495.778,15.7
747,498.47,15.69
756,501.167,15.69
765,503.869,15.68
774,506.576,15.67
783,509.289,15.66
792,512.006,15.65
801,514.728,15.63
810,517.456,15.61
819,520.188,15.59
828,522.925,15.57
837,525.666,15.55
846,528.412,15.52
855,531.163,15.49
864,533.918,15.46
873,536.677,15.43
882,539.441,15.39
891,542.209,15.35
900,544.981,15.31
909,547.758,15.26
918,550.538,15.21
927,553.322,15.15
936,556.111,15.09
945,558.903,15.03
954,561.698,14.95
963,564.498,14.88
972,567.301,14.79
981,570.107,14.7
990,572.918,14.6
999,575.731,14.5
1008,578.548,14.39
1017,581.368,14.27
1026,584.191,14.15
1035,587.017,14.02
1044,589.847,13.88
1053,592.679,13.74
1062,595.514,13.58
1071,598.353,13.43
1080,601.193,13.26
1089,604.037,13.08
1098,606.883,12.9
1107,609.732,12.7
1116,612.583,12.5
1125,615.437,12.29
1134,618.293,12.06
1143,621.151,11.83
1152,624.011,11.58
1161,626.874,11.32
1170,629.738,11.05
1179,632.605,10.77
1188,635.474,10.48
1197,638.344,10.18
1206,641.216,9.880000
1215,644.09,9.570000
1224,646.965,9.260000
1233,649.842,8.950000
1242,652.721,8.660000
1251,655.601,8.360000
1260,658.482,8.080000
1269,661.365,7.810000
1278,664.249,7.550000
1287,667.133,7.310000
1296,670.019,7.090000
1305,672.906,6.880000
1314,675.794,6.700000
1323,678.683,6.530000
1332,681.573,6.390000
1341,684.463,6.270000
1350,687.354,6.170000
1359,690.245,6.080000
1368,693.137,6.010000
1377,696.03,5.960000
1386,698.923,5.920000
1395,701.816,5.890000
1404,704.709,5.870000
1413,707.602,5.860000
1422,710.496,5.850000
1431,713.389,5.850000
1440,716.283,5.840000
1449,719.176,5.830000
1458,722.069,5.820000
1467,724.962,5.810000
1476,727.855,5.800000
1485,730.747,5.780000
1494,733.639,5.770000
1503,736.53,5.740000
1512,739.42,5.720000
1521,742.31,5.690000
1530,745.199,5.660000
1539,748.087,5.630000
1548,750.974,5.600000
1557,753.861,5.570000
1566,756.746,5.540000
1575,759.63,5.510000
1584,762.513,5.480000
1593,765.395,5.450000
1602,768.275,5.420000
1611,771.154,5.380000
1620,774.031,5.350000
1629,776.907,5.320000
1638,779.781,5.290000
1647,782.654,5.250000
1656,785.525,5.220000
1665,788.394,5.180000
1674,791.261,5.150000
1683,794.126,5.120000
1692,796.989,5.080000
1701,799.85,5.050000
1710,802.709,5.020000
1719,805.566,4.990000
1728,808.42,4.960000
1737,811.272,4.920000
1746,814.121,4.890000
1755,816.968,4.860000
1764,819.813,4.820000
1773,822.654,4.790000
1782,825.493,4.750000
1791,828.329,4.720000
1800,831.162,4.680000
1809,833.992,4.640000
1818,836.82,4.600000
1827,839.644,4.560000
1836,842.465,4.530000
1845,845.282,4.490000
1854,848.097,4.450000
1863,850.908,4.420000
1872,853.715,4.380000
1881,856.519,4.340000
1890,859.32,4.300000
1899,862.117,4.250000
1908,864.91,4.210000
1917,867.699,4.170000
1926,870.484,4.130000
1935,873.266,4.080000
1944,876.043,4.040000
1953,878.817,4.000000
1962,881.586,3.950000
1971,884.351,3.900000
1980,887.111,3.860000
1989,889.868,3.810000
1998,892.62,3.760000
2007,895.367,3.720000
2016,898.11,3.680000
2025,900.848,3.640000
2034,903.581,3.590000
2043,906.31,3.550000
2052,909.034,3.500000
2061,911.752,3.460000
2070,914.466,3.410000
2079,917.175,3.370000
2088,919.879,3.330000
2097,922.577,3.280000
2106,925.27,3.240000
2115,927.958,3.190000
2124,930.64,3.150000
2133,933.317,3.110000
2142,935.988,3.070000
2151,938.654,3.020000
2160,941.314,2.980000
2169,943.968,2.940000
2178,946.616,2.890000
2187,949.259,2.850000
2196,951.895,2.810000
2205,954.525,2.760000
2214,957.15,2.710000
2223,959.768,2.670000
2232,962.379,2.620000
2241,964.985,2.570000
2250,967.584,2.520000
2259,970.176,2.470000
2268,972.762,2.420000
2277,975.341,2.370000
2283,977.057,2.330000