File: Wood/Calibration_Data/UMD/UMD_Wood_TGA_N2_10K_R2.csv
Time (s),Temperature (K),Mass (mg)
0.000,296.000,3.842
67.950,299.000,3.838
103.526,302.000,3.835
131.935,305.000,3.831
156.862,308.000,3.829
179.717,311.000,3.832
201.216,314.000,3.827
221.726,317.000,3.826
241.537,320.000,3.821
260.782,323.000,3.818
279.625,326.000,3.814
298.154,329.000,3.810
316.405,332.000,3.804
334.409,335.000,3.801
352.210,338.000,3.795
369.848,341.000,3.791
387.332,344.000,3.786
404.720,347.000,3.779
422.008,350.000,3.774
439.221,353.000,3.771
456.363,356.000,3.768
473.463,359.000,3.764
490.539,362.000,3.758
507.569,365.000,3.755
524.606,368.000,3.753
541.608,371.000,3.755
558.619,374.000,3.753
575.644,377.000,3.752
592.653,380.000,3.751
609.655,383.000,3.750
626.692,386.000,3.750
643.739,389.000,3.747
660.829,392.000,3.747
677.817,395.000,3.746
694.819,398.000,3.746
711.829,401.000,3.745
728.838,404.000,3.748
745.856,407.000,3.748
762.871,410.000,3.747
779.905,413.000,3.748
796.944,416.000,3.748
814.075,419.000,3.747
831.032,422.000,3.747
848.093,425.000,3.743
865.122,428.000,3.745
882.179,431.000,3.743
899.216,434.000,3.745
916.253,437.000,3.745
933.280,440.000,3.747
950.310,443.000,3.747
967.356,446.000,3.744
984.390,449.000,3.740
1001.430,452.000,3.740
1018.464,455.000,3.742
1035.508,458.000,3.739
1052.533,461.000,3.739
1069.569,464.000,3.735
1086.607,467.000,3.731
1103.654,470.000,3.729
1120.683,473.000,3.727
1137.761,476.000,3.723
1154.800,479.000,3.719
1171.842,482.000,3.712
1188.896,485.000,3.704
1205.931,488.000,3.697
1222.962,491.000,3.688
1240.001,494.000,3.682
1257.021,497.000,3.675
1274.057,500.000,3.667
1291.108,503.000,3.659
1308.156,506.000,3.652
1325.200,509.000,3.643
1342.247,512.000,3.636
1359.314,515.000,3.626
1376.387,518.000,3.611
1393.467,521.000,3.600
1410.565,524.000,3.588
1427.660,527.000,3.576
1444.780,530.000,3.559
1461.925,533.000,3.543
1479.065,536.000,3.525
1496.220,539.000,3.507
1513.400,542.000,3.491
1530.546,545.000,3.472
1547.739,548.000,3.454
1564.933,551.000,3.426
1582.146,554.000,3.401
1599.362,557.000,3.373
1616.613,560.000,3.346
1633.843,563.000,3.313
1651.087,566.000,3.281
1668.352,569.000,3.244
1685.624,572.000,3.210
1702.899,575.000,3.173
1720.191,578.000,3.130
1737.493,581.000,3.089
1754.827,584.000,3.040
1772.185,587.000,2.996
1789.535,590.000,2.943
1806.921,593.000,2.893
1824.304,596.000,2.841
1841.729,599.000,2.785
1859.164,602.000,2.726
1876.595,605.000,2.665
1894.056,608.000,2.602
1911.540,611.000,2.535
1929.034,614.000,2.466
1946.544,617.000,2.398
1964.067,620.000,2.327
1981.635,623.000,2.251
1999.221,626.000,2.161
2016.833,629.000,2.077
2034.483,632.000,1.992
2052.168,635.000,1.892
2069.859,638.000,1.791
2087.573,641.000,1.682
2105.233,644.000,1.570
2122.832,647.000,1.459
2140.332,650.000,1.352
2157.705,653.000,1.250
2174.973,656.000,1.164
2192.175,659.000,1.102
2209.390,662.000,1.057
2226.721,665.000,1.027
2244.201,668.000,1.010
2261.776,671.000,0.995
2279.397,674.000,0.982
2297.052,677.000,0.972
2314.715,680.000,0.963
2332.397,683.000,0.954
2350.077,686.000,0.946
2367.779,689.000,0.935
2385.501,692.000,0.927
2403.240,695.000,0.920
2420.994,698.000,0.911
2438.770,701.000,0.902
2456.556,704.000,0.895
2474.348,707.000,0.887
2492.162,710.000,0.879
2509.963,713.000,0.872
2527.825,716.000,0.865
2545.668,719.000,0.856
2563.544,722.000,0.848
2581.427,725.000,0.839
2599.326,728.000,0.831
2617.213,731.000,0.827
2635.136,734.000,0.824
2653.075,737.000,0.815
2671.008,740.000,0.806
2688.960,743.000,0.803
2706.897,746.000,0.801
2724.842,749.000,0.797
2742.814,752.000,0.791
2760.774,755.000,0.789
2778.732,758.000,0.785
2796.708,761.000,0.781
2814.702,764.000,0.775
2832.673,767.000,0.773
2850.672,770.000,0.769
2868.682,773.000,0.763
2886.679,776.000,0.756
2904.691,779.000,0.752
2922.697,782.000,0.750
2940.738,785.000,0.749
2958.762,788.000,0.749
2976.816,791.000,0.745
2994.868,794.000,0.738
3012.905,797.000,0.734
3030.960,800.000,0.736
3048.996,803.000,0.733
3067.056,806.000,0.731
3085.093,809.000,0.726
3103.154,812.000,0.722
3121.213,815.000,0.720
3139.284,818.000,0.713
3157.362,821.000,0.711
3175.429,824.000,0.712
3193.510,827.000,0.709
3211.611,830.000,0.707
3229.711,833.000,0.707
3247.829,836.000,0.701
3265.950,839.000,0.695
3284.059,842.000,0.695
3302.194,845.000,0.691
3320.314,848.000,0.690
3338.454,851.000,0.689
3356.592,854.000,0.686
3374.738,857.000,0.682
3392.883,860.000,0.681
3411.044,863.000,0.679
3429.162,866.000,0.677
3447.312,869.000,0.672
3465.434,872.000,0.672
3483.570,875.000,0.670
3501.731,878.000,0.666
3519.852,881.000,0.663
3537.966,884.000,0.666
3556.098,887.000,0.663
3574.223,890.000,0.661
3592.332,893.000,0.655
3610.460,896.000,0.650
3628.574,899.000,0.649
3646.677,902.000,0.646
3664.758,905.000,0.647
3682.845,908.000,0.648
3700.920,911.000,0.647
3718.999,914.000,0.645
3737.096,917.000,0.643
3755.182,920.000,0.639
3773.235,923.000,0.637
3791.320,926.000,0.637
3809.402,929.000,0.634
3827.474,932.000,0.633
3845.544,935.000,0.631
3863.599,938.000,0.630
3881.660,941.000,0.630
3899.726,944.000,0.630
3917.784,947.000,0.630
3935.859,950.000,0.626
3953.932,953.000,0.622
3972.004,956.000,0.623
3990.095,959.000,0.621
4008.187,962.000,0.620
4026.285,965.000,0.619
4044.374,968.000,0.615
4062.489,971.000,0.615
4080.601,974.000,0.613
4098.714,977.000,0.615
4116.841,980.000,0.613
4134.983,983.000,0.608
4153.111,986.000,0.609
4171.265,989.000,0.610
4189.417,992.000,0.607
4207.572,995.000,0.605
4225.742,998.000,0.604
4243.938,1001.000,0.601
4262.128,1004.000,0.600
4280.332,1007.000,0.604
4298.544,1010.000,0.603
4316.770,1013.000,0.604
4334.999,1016.000,0.601
4353.255,1019.000,0.599
4371.510,1022.000,0.598
4389.768,1025.000,0.601
4408.056,1028.000,0.601
4426.344,1031.000,0.598
4444.650,1034.000,0.596
4462.926,1037.000,0.594
4481.225,1040.000,0.593
4499.526,1043.000,0.594
4517.822,1046.000,0.596
4536.126,1049.000,0.596
4554.438,1052.000,0.592
4572.762,1055.000,0.591
4591.110,1058.000,0.592
4609.468,1061.000,0.592
4627.832,1064.000,0.588
4646.179,1067.000,0.588
4664.544,1070.000,0.589
4682.899,1073.000,0.591
4701.294,1076.000,0.588
4719.701,1079.000,0.585
4738.113,1082.000,0.586
4756.540,1085.000,0.582
4765.764,1086.500,0.582