File: Wood/Calibration_Data/UMD/UMD_TGA_N2_10K_R1.csv
Time (s),Temperature (K),Mass (mg)
0.000,297.000,4.066
62.108,300.000,4.062
97.018,303.000,4.063
125.165,306.000,4.062
149.915,309.000,4.063
172.675,312.000,4.058
194.059,315.000,4.056
214.520,318.000,4.054
234.271,321.000,4.051
253.466,324.000,4.050
272.255,327.000,4.048
290.745,330.000,4.042
308.960,333.000,4.041
326.931,336.000,4.034
344.712,339.000,4.031
362.341,342.000,4.028
379.817,345.000,4.024
397.173,348.000,4.020
414.436,351.000,4.013
431.622,354.000,4.008
448.758,357.000,4.006
465.849,360.000,3.999
482.876,363.000,3.999
499.898,366.000,3.997
516.882,369.000,3.995
533.885,372.000,3.991
550.849,375.000,3.990
567.832,378.000,3.989
584.808,381.000,3.988
601.816,384.000,3.987
618.812,387.000,3.985
635.803,390.000,3.987
652.794,393.000,3.985
669.779,396.000,3.985
686.776,399.000,3.985
703.775,402.000,3.985
720.807,405.000,3.985
737.814,408.000,3.985
754.829,411.000,3.983
771.841,414.000,3.984
788.872,417.000,3.985
805.916,420.000,3.984
822.948,423.000,3.984
839.990,426.000,3.984
857.035,429.000,3.984
874.084,432.000,3.983
891.133,435.000,3.983
908.173,438.000,3.981
925.208,441.000,3.981
942.245,444.000,3.980
959.270,447.000,3.980
976.299,450.000,3.978
993.348,453.000,3.978
1010.392,456.000,3.978
1027.430,459.000,3.972
1044.474,462.000,3.969
1061.522,465.000,3.965
1078.545,468.000,3.961
1095.593,471.000,3.956
1112.647,474.000,3.952
1129.716,477.000,3.947
1146.767,480.000,3.941
1163.833,483.000,3.933
1180.877,486.000,3.926
1197.946,489.000,3.919
1214.986,492.000,3.912
1232.026,495.000,3.905
1249.084,498.000,3.896
1266.133,501.000,3.885
1283.216,504.000,3.876
1300.277,507.000,3.867
1317.360,510.000,3.859
1334.445,513.000,3.853
1351.518,516.000,3.842
1368.612,519.000,3.831
1385.702,522.000,3.815
1402.804,525.000,3.802
1419.901,528.000,3.789
1437.032,531.000,3.772
1454.172,534.000,3.756
1471.333,537.000,3.734
1488.485,540.000,3.718
1505.664,543.000,3.699
1522.858,546.000,3.670
1540.045,549.000,3.652
1557.238,552.000,3.625
1574.486,555.000,3.591
1591.700,558.000,3.570
1608.949,561.000,3.536
1626.209,564.000,3.497
1643.464,567.000,3.464
1660.751,570.000,3.428
1678.022,573.000,3.389
1695.317,576.000,3.346
1712.614,579.000,3.299
1729.933,582.000,3.252
1747.269,585.000,3.202
1764.606,588.000,3.153
1781.977,591.000,3.101
1799.345,594.000,3.048
1816.737,597.000,2.991
1834.153,600.000,2.928
1851.582,603.000,2.867
1869.017,606.000,2.804
1886.463,609.000,2.735
1903.927,612.000,2.664
1921.410,615.000,2.591
1938.917,618.000,2.517
1956.436,621.000,2.428
1973.986,624.000,2.354
1991.591,627.000,2.258
2009.184,630.000,2.166
2026.839,633.000,2.074
2044.498,636.000,1.974
2062.164,639.000,1.860
2079.823,642.000,1.746
2097.442,645.000,1.628
2114.995,648.000,1.511
2132.429,651.000,1.395
2149.739,654.000,1.296
2166.924,657.000,1.212
2184.071,660.000,1.155
2201.271,663.000,1.113
2218.616,666.000,1.089
2236.137,669.000,1.072
2253.715,672.000,1.058
2271.341,675.000,1.046
2288.991,678.000,1.038
2306.650,681.000,1.028
2324.324,684.000,1.017
2342.017,687.000,1.008
2359.727,690.000,0.998
2377.445,693.000,0.989
2395.186,696.000,0.981
2412.939,699.000,0.968
2430.722,702.000,0.960
2448.531,705.000,0.951
2466.353,708.000,0.943
2484.176,711.000,0.935
2502.034,714.000,0.926
2519.900,717.000,0.919
2537.788,720.000,0.913
2555.667,723.000,0.906
2573.575,726.000,0.898
2591.497,729.000,0.890
2609.405,732.000,0.885
2627.329,735.000,0.878
2645.269,738.000,0.874
2663.218,741.000,0.867
2681.153,744.000,0.862
2699.100,747.000,0.856
2717.041,750.000,0.854
2735.005,753.000,0.850
2752.939,756.000,0.841
2770.903,759.000,0.839
2788.855,762.000,0.835
2806.821,765.000,0.830
2824.800,768.000,0.827
2842.786,771.000,0.824
2860.763,774.000,0.821
2878.762,777.000,0.819
2896.767,780.000,0.815
2914.789,783.000,0.812
2932.819,786.000,0.808
2950.861,789.000,0.804
2968.915,792.000,0.800
2986.974,795.000,0.798
3005.030,798.000,0.794
3023.104,801.000,0.790
3041.173,804.000,0.789
3059.255,807.000,0.787
3077.327,810.000,0.783
3095.419,813.000,0.782
3113.503,816.000,0.781
3131.594,819.000,0.777
3149.683,822.000,0.774
3167.772,825.000,0.772
3185.852,828.000,0.771
3203.925,831.000,0.767
3222.017,834.000,0.764
3240.103,837.000,0.764
3258.193,840.000,0.762
3276.261,843.000,0.764
3294.342,846.000,0.757
3312.451,849.000,0.753
3330.546,852.000,0.753
3348.667,855.000,0.750
3366.793,858.000,0.747
3384.915,861.000,0.746
3403.039,864.000,0.744
3421.156,867.000,0.743
3439.280,870.000,0.741
3457.418,873.000,0.739
3475.545,876.000,0.735
3493.679,879.000,0.731
3511.817,882.000,0.730
3529.933,885.000,0.733
3548.044,888.000,0.730
3566.167,891.000,0.728
3584.281,894.000,0.726
3602.391,897.000,0.724
3620.515,900.000,0.720
3638.593,903.000,0.722
3656.694,906.000,0.723
3674.779,909.000,0.719
3692.866,912.000,0.716
3710.946,915.000,0.717
3729.023,918.000,0.716
3747.091,921.000,0.712
3765.146,924.000,0.714
3783.221,927.000,0.710
3801.276,930.000,0.710
3819.301,933.000,0.710
3837.341,936.000,0.707
3855.394,939.000,0.706
3873.418,942.000,0.705
3891.455,945.000,0.702
3909.496,948.000,0.702
3927.541,951.000,0.700
3945.582,954.000,0.699
3963.648,957.000,0.697
3981.715,960.000,0.696
3999.783,963.000,0.694
4017.877,966.000,0.693
4035.948,969.000,0.693
4054.057,972.000,0.692
4072.157,975.000,0.691
4090.256,978.000,0.690
4108.381,981.000,0.691
4126.502,984.000,0.687
4144.654,987.000,0.684
4162.817,990.000,0.687
4180.970,993.000,0.684
4199.133,996.000,0.681
4217.323,999.000,0.680
4235.533,1002.000,0.680
4253.740,1005.000,0.679
4271.964,1008.000,0.677
4290.201,1011.000,0.675
4308.439,1014.000,0.676
4326.691,1017.000,0.675
4344.967,1020.000,0.676
4363.213,1023.000,0.675
4381.495,1026.000,0.673
4399.770,1029.000,0.673
4418.067,1032.000,0.673
4436.361,1035.000,0.673
4454.691,1038.000,0.672
4472.989,1041.000,0.672
4491.317,1044.000,0.669
4509.619,1047.000,0.667
4527.945,1050.000,0.667
4546.273,1053.000,0.667
4564.597,1056.000,0.666
4582.921,1059.000,0.666
4601.270,1062.000,0.664
4619.636,1065.000,0.664
4638.010,1068.000,0.665
4656.394,1071.000,0.663
4674.794,1074.000,0.665
4693.218,1077.000,0.665
4711.646,1080.000,0.663
4730.086,1083.000,0.661
4748.533,1086.000,0.662
4751.618,1086.500,0.662