File: Wood/Calibration_Data/UMD/UMD_TGA_N2_10K_R3.csv
Time (s),Temperature (K),Mass (mg)
0.000,297.000,3.904
69.692,300.000,3.903
105.429,303.000,3.902
133.871,306.000,3.903
158.794,309.000,3.905
181.656,312.000,3.902
203.116,315.000,3.900
223.577,318.000,3.899
243.321,321.000,3.900
262.520,324.000,3.900
281.319,327.000,3.898
299.784,330.000,3.897
317.969,333.000,3.891
335.940,336.000,3.889
353.721,339.000,3.888
371.348,342.000,3.885
388.855,345.000,3.887
406.271,348.000,3.885
423.589,351.000,3.883
440.864,354.000,3.880
458.065,357.000,3.876
475.233,360.000,3.874
492.344,363.000,3.872
509.444,366.000,3.872
526.496,369.000,3.866
543.579,372.000,3.867
560.619,375.000,3.867
577.656,378.000,3.863
594.694,381.000,3.865
611.711,384.000,3.866
628.731,387.000,3.865
645.751,390.000,3.868
662.763,393.000,3.867
679.783,396.000,3.868
696.791,399.000,3.866
713.829,402.000,3.865
730.842,405.000,3.864
747.875,408.000,3.863
764.897,411.000,3.863
781.907,414.000,3.864
798.945,417.000,3.864
815.984,420.000,3.862
833.008,423.000,3.864
850.049,426.000,3.862
867.088,429.000,3.863
884.125,432.000,3.861
901.158,435.000,3.861
918.191,438.000,3.862
935.208,441.000,3.862
952.250,444.000,3.859
969.288,447.000,3.858
986.319,450.000,3.856
1003.363,453.000,3.856
1020.414,456.000,3.856
1037.461,459.000,3.853
1054.512,462.000,3.849
1071.565,465.000,3.846
1088.631,468.000,3.844
1105.663,471.000,3.838
1122.723,474.000,3.833
1139.791,477.000,3.827
1156.853,480.000,3.822
1173.937,483.000,3.811
1190.978,486.000,3.807
1208.054,489.000,3.797
1225.113,492.000,3.790
1242.156,495.000,3.781
1259.219,498.000,3.772
1276.284,501.000,3.765
1293.355,504.000,3.760
1310.429,507.000,3.751
1327.525,510.000,3.741
1344.599,513.000,3.733
1361.694,516.000,3.720
1378.775,519.000,3.710
1395.883,522.000,3.699
1412.993,525.000,3.685
1430.133,528.000,3.670
1447.275,531.000,3.654
1464.425,534.000,3.642
1481.602,537.000,3.623
1498.774,540.000,3.603
1515.960,543.000,3.585
1533.151,546.000,3.564
1550.339,549.000,3.541
1567.542,552.000,3.516
1584.763,555.000,3.486
1601.994,558.000,3.456
1619.231,561.000,3.430
1636.477,564.000,3.396
1653.710,567.000,3.360
1670.971,570.000,3.325
1688.246,573.000,3.286
1705.517,576.000,3.245
1722.785,579.000,3.202
1740.087,582.000,3.159
1757.393,585.000,3.110
1774.728,588.000,3.059
1792.069,591.000,3.007
1809.436,594.000,2.953
1826.835,597.000,2.897
1844.231,600.000,2.840
1861.644,603.000,2.778
1879.084,606.000,2.717
1896.531,609.000,2.648
1913.978,612.000,2.581
1931.481,615.000,2.510
1948.996,618.000,2.435
1966.531,621.000,2.357
1984.105,624.000,2.273
2001.698,627.000,2.185
2019.324,630.000,2.095
2036.983,633.000,1.998
2054.660,636.000,1.897
2072.334,639.000,1.788
2090.008,642.000,1.676
2107.644,645.000,1.561
2125.192,648.000,1.448
2142.637,651.000,1.333
2159.937,654.000,1.231
2177.129,657.000,1.160
2194.283,660.000,1.096
2211.511,663.000,1.061
2228.872,666.000,1.033
2246.378,669.000,1.017
2263.977,672.000,1.006
2281.601,675.000,0.991
2299.256,678.000,0.981
2316.903,681.000,0.971
2334.590,684.000,0.962
2352.289,687.000,0.953
2369.996,690.000,0.944
2387.716,693.000,0.939
2405.481,696.000,0.932
2423.233,699.000,0.923
2441.031,702.000,0.910
2458.829,705.000,0.902
2476.653,708.000,0.895
2494.491,711.000,0.886
2512.346,714.000,0.880
2530.209,717.000,0.871
2548.101,720.000,0.863
2565.993,723.000,0.862
2583.915,726.000,0.852
2601.849,729.000,0.843
2619.783,732.000,0.836
2637.728,735.000,0.831
2655.682,738.000,0.822
2673.643,741.000,0.818
2691.633,744.000,0.816
2709.604,747.000,0.812
2727.583,750.000,0.807
2745.564,753.000,0.802
2763.549,756.000,0.797
2781.522,759.000,0.793
2799.516,762.000,0.790
2817.501,765.000,0.783
2835.498,768.000,0.776
2853.494,771.000,0.773
2871.516,774.000,0.771
2889.525,777.000,0.766
2907.534,780.000,0.764
2925.567,783.000,0.762
2943.589,786.000,0.762
2961.623,789.000,0.758
2979.671,792.000,0.754
2997.710,795.000,0.750
3015.758,798.000,0.749
3033.813,801.000,0.745
3051.867,804.000,0.741
3069.929,807.000,0.738
3087.996,810.000,0.735
3106.059,813.000,0.734
3124.128,816.000,0.732
3142.207,819.000,0.730
3160.289,822.000,0.728
3178.370,825.000,0.724
3196.455,828.000,0.721
3214.554,831.000,0.717
3232.657,834.000,0.717
3250.767,837.000,0.714
3268.877,840.000,0.712
3286.990,843.000,0.708
3305.115,846.000,0.706
3323.245,849.000,0.704
3341.385,852.000,0.702
3359.513,855.000,0.699
3377.655,858.000,0.695
3395.789,861.000,0.693
3413.907,864.000,0.690
3432.041,867.000,0.689
3450.181,870.000,0.688
3468.286,873.000,0.687
3486.403,876.000,0.686
3504.507,879.000,0.686
3522.613,882.000,0.684
3540.713,885.000,0.682
3558.831,888.000,0.683
3576.923,891.000,0.678
3595.043,894.000,0.674
3613.146,897.000,0.672
3631.231,900.000,0.670
3649.336,903.000,0.670
3667.425,906.000,0.670
3685.514,909.000,0.664
3703.601,912.000,0.665
3721.682,915.000,0.665
3739.752,918.000,0.663
3757.849,921.000,0.662
3775.940,924.000,0.660
3794.037,927.000,0.659
3812.140,930.000,0.659
3830.243,933.000,0.657
3848.368,936.000,0.654
3866.489,939.000,0.651
3884.607,942.000,0.650
3902.741,945.000,0.650
3920.879,948.000,0.649
3939.023,951.000,0.649
3957.147,954.000,0.650
3975.298,957.000,0.645
3993.453,960.000,0.645
4011.631,963.000,0.645
4029.789,966.000,0.645
4047.983,969.000,0.643
4066.170,972.000,0.641
4084.382,975.000,0.640
4102.593,978.000,0.636
4120.811,981.000,0.635
4139.037,984.000,0.635
4157.262,987.000,0.635
4175.505,990.000,0.637
4193.771,993.000,0.635
4212.055,996.000,0.634
4230.334,999.000,0.628
4248.633,1002.000,0.630
4266.925,1005.000,0.629
4285.237,1008.000,0.626
4303.543,1011.000,0.628
4321.868,1014.000,0.631
4340.201,1017.000,0.628
4358.533,1020.000,0.629
4376.891,1023.000,0.627
4395.225,1026.000,0.626
4413.581,1029.000,0.623
4431.946,1032.000,0.623
4450.313,1035.000,0.624
4468.692,1038.000,0.622
4487.074,1041.000,0.620
4505.449,1044.000,0.622
4523.831,1047.000,0.620
4542.231,1050.000,0.618
4560.606,1053.000,0.618
4579.006,1056.000,0.618
4597.394,1059.000,0.617
4615.800,1062.000,0.617
4634.180,1065.000,0.616
4652.587,1068.000,0.614
4670.965,1071.000,0.614
4689.357,1074.000,0.612
4707.738,1077.000,0.612
4726.131,1080.000,0.614
4744.518,1083.000,0.610
4762.913,1086.000,0.609