File: Non-charring/PMMA/LCPP/LCPP_Cone_25kW_4.csv
Time,Mass,HRR,Back Surface Temperature
[s],[g],[kW/m2],[K]
0,0,-0.127446,303.042
2,0,,303.103
4,0,,303.146
6,0,,303.205
8,0,,303.326
10,0,0.497068,303.381
12,0,,303.469
14,0,,303.578
16,0,,303.729
18,0,,303.843
20,0,6.27812,304.046
22,0,,304.339
24,0,,304.654
26,0,,305.036
28,0,,305.55
30,0,6.65474,306.149
32,0,,306.817
34,0,,307.619
36,0,,308.435
38,0,,309.398
40,0,1.42918,310.389
42,0,,311.559
44,0,,312.634
46,0,,314.04
48,0,,315.42
50,0,1.93191,316.846
52,0,,318.155
54,0,,319.607
56,0,,321.158
58,0,,322.755
60,0,6.23119,324.39
62,0,,326.071
64,0,,327.694
66,0,,329.405
68,0,,331.073
70,0,4.54321,332.816
72,0,,334.655
74,0,,336.313
76,0,,338.175
78,0,,339.835
80,0,2.50805,341.718
82,0,,343.402
84,0,,345.274
86,0,,347.045
88,0,,348.726
90,0,9.84678,350.511
92,0,,352.203
94,0,,354.023
96,0,,355.935
98,0,,357.419
100,0,8.40506,359.169
102,0,,360.893
104,0,,362.506
106,0,,364.205
108,0,,365.824
110,0,16.3507,367.381
112,0,,368.916
114,0,,370.692
116,0,,371.943
118,0,,373.274
120,0,235.002,374.537
122,0,,375.667
124,0,,376.303
126,0,,376.553
128,0,,376.558
130,0,368.958,376.43
132,0,,376.777
134,0,,377.463
136,0,,378.579
138,0,,379.898
140,0,390.591,381.937
142,0,,384.671
144,0,,387.786
146,0,,390.46
148,0,,393.302
150,0,402.514,395.736
152,0,,398.011
154,0,,400.299
156,0,,402.51
158,0,,404.441
160,0,404.927,406.512
162,0,,408.28
164,0,,410.298
166,0,,411.932
168,0,,413.48
170,0,407.521,414.877
172,0,,415.007
174,0,,414.488
176,0,,414.357
178,0,,414.602
180,0,416.952,415.093
182,0,,415.853
184,0,,416.897
186,0,,418.06
188,0,,419.334
190,0,432.038,420.736
192,0,,422.199
194,0,,423.6
196,0,,425.217
198,0,,426.643
200,0,423.025,428.273
202,0,,429.881
204,0,,431.543
206,0,,433.068
208,0,,434.738
210,0,446.061,436.524
212,0,,438.161
214,0,,439.877
216,0,,441.612
218,0,,443.332
220,0,447.771,445.135
222,0,,446.687
224,0,,448.482
226,0,,450.197
228,0,,452.003
230,0,444.835,453.797
232,0,,455.53
234,0,,457.383
236,0,,459.279
238,0,,460.894
240,0,449.834,462.667
242,0,,464.385
244,0,,466.077
246,0,,467.92
248,0,,469.673
250,0,478.672,471.184
252,0,,473.028
254,0,,474.75
256,0,,476.496
258,0,,478.01
260,0,502.408,479.788
262,0,,481.354
264,0,,482.928
266,0,,484.476
268,0,,486.216
270,0,533.966,487.632
272,0,,489.256
274,0,,490.917
276,0,,492.389
278,0,,493.885
280,0,525.407,495.439
282,0,,496.944
284,0,,498.394
286,0,,499.971
288,0,,501.533
290,0,532.087,503.031
292,0,,504.68
294,0,,506.392
296,0,,508.059
298,0,,509.685
300,0,548.614,511.308
302,0,,512.916
304,0,,514.516
306,0,,516.267
308,0,,518.022
310,0,562.138,519.514
312,0,,520.983
314,0,,522.324
316,0,,523.644
318,0,,525.881
320,0,550.733,529.378
322,0,,534.094
324,0,,539.018
326,0,,546.004
328,0,,552.911
330,0,571.1,558.673
332,0,,564.302
334,0,,569.315
336,0,,573.291
338,0,,577.228
340,0,563.534,580.513
342,0,,583.745
344,0,,586.387
346,0,,589.016
348,0,,591.35
350,0,555.323,593.586
352,0,,595.601
354,0,,597.661
356,0,,599.961
358,0,,602.044
360,0,582.266,603.998
362,0,,606.239
364,0,,608.574
366,0,,613.872
368,0,,619.085
370,0,596.104,623.35
372,0,,627.712
374,0,,632.059
376,0,,636.719
378,0,,642.515
380,0,626.98,648.883
382,0,,657.759
384,0,,670.833
386,0,,688.516
388,0,,703.05
390,0,594.777,718.068
392,0,,748.253
394,0,,797.304
396,0,,841.143
398,0,,868.509
400,0,603.688,889.406
402,0,,905.557
404,0,,917.808
406,0,,927.309
408,0,,935.356
410,0,620.127,942.81
412,0,,951.533
414,0,,962.268
416,0,,960.096
418,0,,917.67
420,0,596.013,876.541
422,0,,839.658
424,0,,814.032
426,0,,791.954
428,0,,774.754
430,0,567.21,761.578
432,0,,749.855
434,0,,740.742
436,0,,731.318
438,0,,722.589
440,0,497.319,714.605
442,0,,707.252
444,0,,701.756
446,0,,696.432
448,0,,684.676
450,0,376.682,638.373
452,0,,589.987
454,0,,555.637
456,0,,527.95
458,0,,506.445
460,0,288.471,488.25
462,0,,474.685
464,0,,461.93
466,0,,450.912
468,0,,440.205
470,0,206.761,430.503
472,0,,421.659
474,0,,414.027
476,0,,406.312
478,0,,399.761
480,0,127.039,393.168
482,0,,387.451
484,0,,381.783
486,0,,376.64
488,0,,372.259
490,0,34.1878,367.823
492,0,,363.666
494,0,,360.078
496,0,,356.413
498,0,,353.244
500,0,13.3853,350.04