File: Non-charring/PMMA/LCPP/LCPP_Cone_25kW_3.csv
Time,Mass,HRR,Back Surface Temperature
[s],[g],[kW/m2],[K]
0,0,3.64157,303.076
2,0,,303.075
4,0,,303.099
6,0,,303.136
8,0,,303.202
10,0,4.80093,303.239
12,0,,303.293
14,0,,303.402
16,0,,303.519
18,0,,303.659
20,0,1.92557,303.843
22,0,,304.119
24,0,,304.318
26,0,,304.863
28,0,,305.436
30,0,0.754063,306.008
32,0,,306.791
34,0,,307.617
36,0,,308.569
38,0,,309.659
40,0,-0.454148,310.676
42,0,,312.017
44,0,,313.373
46,0,,314.673
48,0,,316.231
50,0,-2.01552,317.629
52,0,,319.326
54,0,,320.903
56,0,,322.594
58,0,,324.301
60,0,-2.79977,326
62,0,,327.734
64,0,,329.747
66,0,,331.586
68,0,,333.163
70,0,3.06698,335.105
72,0,,337.112
74,0,,338.828
76,0,,340.806
78,0,,342.894
80,0,8.94567,344.557
82,0,,346.631
84,0,,348.27
86,0,,350.325
88,0,,352.14
90,0,3.05757,354.15
92,0,,355.962
94,0,,358.047
96,0,,359.837
98,0,,361.79
100,0,48.3763,363.459
102,0,,365.442
104,0,,367.192
106,0,,369.137
108,0,,370.92
110,0,257.866,372.818
112,0,,374.551
114,0,,376.383
116,0,,378.131
118,0,,379.767
120,0,339.331,381.235
122,0,,382.803
124,0,,384.081
126,0,,385.713
128,0,,387.2
130,0,383.847,388.872
132,0,,390.599
134,0,,392.648
136,0,,394.794
138,0,,396.954
140,0,393.327,398.92
142,0,,401.123
144,0,,403.075
146,0,,405.044
148,0,,407.143
150,0,395.527,409.225
152,0,,411.27
154,0,,413.129
156,0,,414.976
158,0,,416.901
160,0,395.869,418.773
162,0,,420.477
164,0,,422.324
166,0,,424.155
168,0,,425.838
170,0,420.574,427.621
172,0,,429.179
174,0,,430.898
176,0,,432.584
178,0,,433.803
180,0,421.124,434.9
182,0,,435.842
184,0,,436.923
186,0,,438.178
188,0,,439.326
190,0,425.979,440.632
192,0,,441.874
194,0,,443.336
196,0,,444.631
198,0,,446.053
200,0,427.053,447.141
202,0,,448.211
204,0,,449.412
206,0,,450.467
208,0,,451.614
210,0,437.053,452.934
212,0,,454.248
214,0,,455.612
216,0,,456.954
218,0,,458.479
220,0,447.042,460.119
222,0,,461.73
224,0,,463.541
226,0,,465.32
228,0,,467.038
230,0,452.608,468.998
232,0,,470.957
234,0,,472.895
236,0,,475.001
238,0,,476.957
240,0,481.448,479.062
242,0,,480.954
244,0,,483.149
246,0,,485.259
248,0,,487.286
250,0,505.475,489.431
252,0,,491.502
254,0,,493.796
256,0,,495.791
258,0,,497.948
260,0,495.777,499.997
262,0,,502.251
264,0,,504.42
266,0,,506.364
268,0,,508.473
270,0,522.944,510.355
272,0,,512.286
274,0,,514.185
276,0,,515.959
278,0,,517.84
280,0,527.452,519.674
282,0,,521.325
284,0,,523.177
286,0,,525.052
288,0,,526.739
290,0,563.802,528.546
292,0,,530.217
294,0,,532.063
296,0,,533.738
298,0,,535.499
300,0,565.404,537.283
302,0,,538.968
304,0,,540.646
306,0,,542.427
308,0,,544.259
310,0,577.81,545.92
312,0,,547.777
314,0,,549.639
316,0,,551.342
318,0,,553.248
320,0,570.687,555.05
322,0,,556.992
324,0,,558.865
326,0,,560.643
328,0,,562.596
330,0,592.175,564.411
332,0,,566.373
334,0,,568.331
336,0,,570.161
338,0,,572.159
340,0,593.316,573.983
342,0,,575.947
344,0,,577.704
346,0,,579.764
348,0,,581.661
350,0,620.096,583.614
352,0,,585.594
354,0,,587.77
356,0,,589.777
358,0,,591.861
360,0,643.666,594.093
362,0,,596.272
364,0,,598.589
366,0,,601.265
368,0,,603.708
370,0,638.614,606.533
372,0,,609.408
374,0,,612.522
376,0,,615.598
378,0,,619.188
380,0,642.986,622.776
382,0,,627.194
384,0,,632.164
386,0,,638.439
388,0,,646.005
390,0,617.523,656.749
392,0,,672.301
394,0,,690.82
396,0,,711.389
398,0,,738.037
400,0,600.89,779.173
402,0,,821.969
404,0,,853.756
406,0,,899.641
408,0,,933.232
410,0,553.086,965.294
412,0,,994.755
414,0,,1002.336
416,0,,1033.893
418,0,,1042.728
420,0,499.074,1061.95
422,0,,1086.582
424,0,,1104.112
426,0,,1110.266
428,0,,1125.372
430,0,466.813,1133.742
432,0,,1112.226
434,0,,1023.838
436,0,,953.786
438,0,,840.266
440,0,361.756,776.653
442,0,,720.574
444,0,,677.549
446,0,,636.921
448,0,,601.977
450,0,190.047,573.351
452,0,,546.087
454,0,,524.349
456,0,,503.304
458,0,,484.671
460,0,78.4325,465.211
462,0,,448.462
464,0,,434.866
466,0,,421.665
468,0,,410.062
470,0,10.8981,400.552
472,0,,391.157
474,0,,383.362
476,0,,375.778
478,0,,369.411
480,0,2.83274,363.192
482,0,,357.992
484,0,,352.892
486,0,,348.26
488,0,,344.269
490,0,1.57643,340.34
492,0,,336.924
494,0,,333.972
496,0,,331.04
498,0,,328.57
500,0,3.60057,326.218