File: Non-charring/PMMA/LCPP/LCPP_Cone_65kW_2.csv
Time,Mass,HRR,Back Surface Temperature
[s],[g],[kW/m2],[K]
0,0,0.13703,302.632
2,0,,302.629
4,0,,302.714
6,0,,302.762
8,0,,302.809
10,0,1.89801,302.909
12,0,,303.075
14,0,,303.231
16,0,,303.384
18,0,,303.652
20,0,1.45274,303.944
22,0,,304.291
24,0,,304.755
26,0,,305.3
28,0,,305.88
30,0,2.66654,306.583
32,0,,307.432
34,0,,308.407
36,0,,309.371
38,0,,310.53
40,0,0.981868,311.735
42,0,,313.111
44,0,,314.539
46,0,,315.956
48,0,,317.567
50,0,5.34752,319.214
52,0,,320.795
54,0,,322.492
56,0,,324.157
58,0,,325.995
60,0,3.03199,327.664
62,0,,329.59
64,0,,331.381
66,0,,333.331
68,0,,335.17
70,0,0.579029,337.085
72,0,,339.048
74,0,,340.936
76,0,,342.927
78,0,,344.907
80,0,5.24451,346.768
82,0,,348.809
84,0,,350.594
86,0,,352.561
88,0,,354.541
90,0,5.07962,356.372
92,0,,358.251
94,0,,360.184
96,0,,361.971
98,0,,363.874
100,0,0.220041,365.504
102,0,,367.317
104,0,,368.941
106,0,,370.662
108,0,,372.157
110,0,14.9839,373.724
112,0,,375.026
114,0,,376.036
116,0,,376.379
118,0,,376.546
120,0,217.598,377.264
122,0,,378.288
124,0,,379.43
126,0,,380.796
128,0,,381.996
130,0,355.007,383.615
132,0,,385.807
134,0,,388.54
136,0,,391.179
138,0,,393.422
140,0,380.717,395.81
142,0,,398.134
144,0,,400.222
146,0,,402.394
148,0,,404.358
150,0,399.913,406.471
152,0,,408.524
154,0,,410.341
156,0,,412.247
158,0,,414.112
160,0,397.469,415.696
162,0,,417.255
164,0,,418.698
166,0,,420.01
168,0,,421.314
170,0,400.368,422.374
172,0,,422.996
174,0,,423.01
176,0,,422.874
178,0,,422.859
180,0,416.661,422.991
182,0,,423.288
184,0,,423.737
186,0,,424.478
188,0,,425.362
190,0,429.644,426.503
192,0,,427.703
194,0,,429.168
196,0,,430.735
198,0,,432.206
200,0,438.921,433.77
202,0,,435.196
204,0,,436.828
206,0,,438.555
208,0,,440.151
210,0,447.904,441.892
212,0,,443.704
214,0,,445.528
216,0,,447.459
218,0,,449.42
220,0,430.522,451.2
222,0,,453.208
224,0,,455.124
226,0,,457.17
228,0,,459.042
230,0,455.052,461.158
232,0,,463.288
234,0,,465.33
236,0,,468.108
238,0,,471.932
240,0,471.754,478.015
242,0,,484.045
244,0,,489.261
246,0,,494.771
248,0,,499.699
250,0,471.826,504.704
252,0,,509.064
254,0,,513.802
256,0,,518.176
258,0,,522.857
260,0,496.721,527.574
262,0,,531.791
264,0,,535.976
266,0,,539.884
268,0,,543.284
270,0,518.31,546.818
272,0,,550.162
274,0,,553.172
276,0,,556.376
278,0,,559.425
280,0,534.196,562.243
282,0,,565.288
284,0,,568.013
286,0,,570.999
288,0,,573.937
290,0,559.395,576.526
292,0,,579.318
294,0,,581.937
296,0,,584.677
298,0,,586.932
300,0,587.871,589.153
302,0,,591.007
304,0,,592.802
306,0,,594.552
308,0,,596.163
310,0,574.8,597.941
312,0,,599.612
314,0,,601.368
316,0,,603.101
318,0,,604.663
320,0,556.463,606.387
322,0,,607.951
324,0,,609.6
326,0,,611.234
328,0,,612.887
330,0,573.278,614.731
332,0,,616.568
334,0,,618.237
336,0,,620.012
338,0,,622.029
340,0,587.553,624.081
342,0,,626.004
344,0,,628.157
346,0,,630.362
348,0,,632.823
350,0,587.564,635.29
352,0,,637.716
354,0,,640.471
356,0,,643.215
358,0,,646.386
360,0,573.8,651.158
362,0,,656.55
364,0,,663.08
366,0,,670.169
368,0,,676.872
370,0,587.203,685.208
372,0,,694.27
374,0,,702.474
376,0,,710.192
378,0,,719.667
380,0,594.216,734.856
382,0,,759.816
384,0,,797.299
386,0,,829.909
388,0,,859.724
390,0,597.61,881.29
392,0,,905.254
394,0,,921.389
396,0,,938.351
398,0,,956.073
400,0,548.932,972.058
402,0,,985.743
404,0,,993.459
406,0,,976.396
408,0,,920.242
410,0,517.787,880.52
412,0,,852.597
414,0,,829.009
416,0,,812.399
418,0,,800.426
420,0,441.074,787.266
422,0,,776.154
424,0,,766.55
426,0,,758.197
428,0,,749.749
430,0,393.467,741.204
432,0,,733.614
434,0,,726.011
436,0,,718.144
438,0,,709.564
440,0,361.875,700.097
442,0,,691.971
444,0,,684.801
446,0,,677.075
448,0,,669.565
450,0,274.834,661.823
452,0,,654.886
454,0,,648.593
456,0,,642.8
458,0,,637.818
460,0,93.0619,634.592
462,0,,630.78
464,0,,627.403
466,0,,625.07
468,0,,621.156
470,0,8.17078,617.151
472,0,,614.761
474,0,,612.601
476,0,,610.17
478,0,,607.379
480,0,2.45831,603.007
482,0,,600.689
484,0,,598.602
486,0,,596.922
488,0,,594.259
490,0,1.59561,590.965
492,0,,589.218
494,0,,587.515
496,0,,586.024
498,0,,586.512
500,0,2.16477,586.279