File: Wood/Calibration_Data/NIST/NIST_Wood_MCC_O2-20_60K_R3.csv
Time (s),Temperature (K),HRR (W/g)
57.191,392.5,-0.3018
59.477,395,-0.1620
61.833,397.5,-0.1477
64.164,400,-0.1586
66.525,402.5,-0.3345
68.893,405,-0.4308
71.229,407.5,-0.6159
73.594,410,-0.6136
75.983,412.5,-0.6456
78.366,415,-0.8261
80.767,417.5,-1.0002
83.154,420,-0.9857
85.569,422.5,-0.7789
87.977,425,-0.8712
90.445,427.5,-0.7092
92.862,430,-0.7368
95.272,432.5,-0.5713
97.728,435,-0.5066
100.157,437.5,-0.3240
102.635,440,-0.1735
105.084,442.5,0.0372
107.534,445,0.2950
109.984,447.5,0.5513
112.434,450,0.9403
114.870,452.5,1.3653
117.334,455,1.7243
119.789,457.5,2.1089
122.247,460,2.4907
124.709,462.5,2.8841
127.143,465,3.2821
129.628,467.5,3.6608
132.101,470,4.0920
134.560,472.5,4.4264
136.982,475,5.0552
139.466,477.5,5.5941
141.987,480,6.1022
144.440,482.5,6.6984
146.879,485,7.3215
149.369,487.5,7.8474
151.827,490,8.2627
154.325,492.5,8.6751
156.790,495,8.9824
159.248,497.5,9.3971
161.763,500,9.3377
164.235,502.5,9.5811
166.696,505,9.8199
169.189,507.5,10.2592
171.670,510,10.3886
174.156,512.5,10.6970
176.645,515,11.3159
179.138,517.5,11.8488
181.617,520,12.3580
184.125,522.5,13.2093
186.595,525,13.9691
189.093,527.5,14.9934
191.554,530,16.1377
194.069,532.5,17.2209
196.551,535,18.5857
199.047,537.5,20.0185
201.509,540,21.6058
204.010,542.5,23.2449
206.538,545,24.7230
208.994,547.5,26.3370
211.492,550,28.1367
213.989,552.5,29.9766
216.471,555,31.9148
218.942,557.5,33.9857
221.435,560,36.0617
223.929,562.5,38.3049
226.432,565,40.8363
228.902,567.5,43.1863
231.390,570,45.4170
233.905,572.5,48.4660
236.379,575,51.1331
238.849,577.5,54.2163
241.309,580,57.2661
243.782,582.5,60.8209
246.274,585,64.4126
248.750,587.5,68.6277
251.239,590,73.0019
253.732,592.5,77.7957
256.187,595,82.8396
258.660,597.5,88.4390
261.102,600,94.2612
263.605,602.5,100.6534
266.035,605,107.2334
268.504,607.5,114.4593
270.996,610,122.9858
273.436,612.5,133.0839
275.932,615,145.5092
278.413,617.5,160.1554
280.846,620,175.5465
283.331,622.5,190.1021
285.784,625,201.5841
288.249,627.5,207.6760
290.682,630,205.8356
293.105,632.5,195.3840
295.553,635,176.5980
297.937,637.5,153.5301
300.321,640,129.6323
302.732,642.5,108.4695
305.104,645,91.2777
307.504,647.5,78.3060
309.964,650,68.6713
312.453,652.5,62.0072
315.020,655,56.9715
317.569,657.5,53.0711
320.186,660,49.8486
322.806,662.5,47.4071
325.422,665,45.2387
328.040,667.5,43.3668
330.640,670,42.1419
333.246,672.5,41.0171
335.835,675,40.0519
338.387,677.5,39.3144
340.962,680,38.7914
343.528,682.5,38.3285
346.056,685,37.9012
348.585,687.5,37.7625
351.088,690,37.5823
353.611,692.5,37.7660
356.117,695,38.1153
358.630,697.5,38.7676
361.109,700,39.4662
363.591,702.5,40.3909
366.081,705,42.0779
368.545,707.5,41.0476
371.029,710,38.4674
373.477,712.5,47.7458
375.917,715,56.6786
378.332,717.5,93.3864
380.484,720,133.7292
382.605,722.5,149.2207
384.617,725,153.8316
386.631,727.5,153.2373
388.702,730,153.0191
390.856,732.5,154.3416
393.236,735,150.5647
395.775,737.5,145.7853
398.048,740,134.5768
400.691,742.5,117.8974
403.701,745,95.9474
406.891,747.5,51.8786
410.268,750,7.9372
413.939,752.5,0.2210
417.362,755,-0.4887
420.406,757.5,-0.7186
423.199,760,-0.8020
425.870,762.5,-0.4169
428.414,765,-0.3403
430.918,767.5,-0.3131
433.405,770,-0.2604
435.835,772.5,-0.1887
438.299,775,-0.1799
440.754,777.5,-0.2205
443.184,780,-0.1590
445.635,782.5,-0.1596
448.052,785,-0.1052
450.497,787.5,-0.1101
452.935,790,-0.2550
455.406,792.5,-0.2877
457.897,795,-0.4466
460.350,797.5,-0.4872
462.811,800,-0.6590
465.277,802.5,-0.6887
467.762,805,-0.7342
470.250,807.5,-0.7072
472.727,810,-0.5366
475.217,812.5,-0.5711
477.731,815,-0.9723
480.184,817.5,-0.4605
482.654,820,-0.4505
485.117,822.5,-0.5004
487.607,825,-0.3305
490.091,827.5,-0.2929
492.548,830,-0.2727
495.082,832.5,-0.4136
497.568,835,-0.3875
500.046,837.5,-0.1813
502.557,840,-0.2386
505.023,842.5,-0.1825
507.504,845,-0.2091
509.977,847.5,-0.4475
512.459,850,-0.4552
514.990,852.5,-0.0696
517.463,855,-0.1495
519.989,857.5,0.0221
522.456,860,0.1681
524.936,862.5,0.2359
527.453,865,0.3725
529.946,867.5,0.2594
532.439,870,0.2010
534.944,872.5,0.2523
537.437,875,0.2728
539.939,877.5,0.3112
542.408,880,0.3950
544.901,882.5,0.3863
547.370,885,0.5249
549.866,887.5,0.4188
552.330,890,0.5240
554.866,892.5,0.4433
557.370,895,0.4127
559.857,897.5,0.4535
562.320,900,0.4678
564.816,902.5,0.4423
567.333,905,0.4563
569.794,907.5,0.4197
572.275,910,0.4837
574.775,912.5,0.4691
577.276,915,0.5501
579.728,917.5,0.5150
582.248,920,0.5609
584.739,922.5,0.5652
587.262,925,0.5714
589.719,927.5,0.5294
592.200,930,0.4764
594.703,932.5,0.5381
597.213,935,0.5282
599.685,937.5,0.6017
602.157,940,0.4815
604.645,942.5,0.4746
607.146,945,0.3624
609.632,947.5,0.3385
612.107,950,0.4416
614.611,952.5,0.3991
617.103,955,0.3330
619.591,957.5,0.3912
622.082,960,0.4054
624.560,962.5,0.3418
627.046,965,0.2464
629.494,967.5,0.1200
631.987,970,0.2069
634.499,972.5,0.3342
636.995,975,0.1239
639.461,977.5,0.2456
641.942,980,0.1557
644.432,982.5,0.1250
646.908,985,0.1001
649.390,987.5,0.0961
651.901,990,0.1266
654.402,992.5,0.0832
656.885,995,-0.0536
659.359,997.5,0.0132
661.826,1000,-0.0819
664.316,1002.5,-0.0843
666.789,1005,-0.0851
669.253,1007.5,-0.1641
671.741,1010,-0.3462
674.230,1012.5,-0.2238
676.701,1015,-0.4899
679.176,1017.5,-0.5214
681.651,1020,-0.6333
684.121,1022.5,-0.6360
686.619,1025,-0.6427
689.118,1027.5,-0.6923
691.595,1030,-0.9402
694.065,1032.5,-0.9473
696.591,1035,-1.0026
697.557,1036,-0.9487