File: Wood/Calibration_Data/NIST/NIST_Wood_MCC_N2_60K_R11.csv
Time (s),Temperature (K),HRR (W/g)
57.457,392,0.0977
59.283,394,-0.0390
61.140,396,-0.0338
63.000,398,0.0340
64.849,400,0.0366
66.749,402,0.0955
68.637,404,0.1550
70.531,406,-0.0011
72.412,408,-0.0685
74.282,410,-0.1367
76.174,412,-0.0877
78.101,414,0.0262
80.023,416,-0.1106
81.929,418,-0.1206
83.845,420,0.0267
85.781,422,-0.0490
87.715,424,-0.0054
89.673,426,0.0652
91.589,428,0.1899
93.574,430,0.1494
95.459,432,0.4425
97.439,434,0.6963
99.398,436,0.5965
101.358,438,0.8057
103.326,440,1.0336
105.275,442,1.2585
107.244,444,1.3893
109.229,446,1.6138
111.187,448,1.6369
113.139,450,1.7535
115.086,452,1.9898
117.058,454,2.2427
119.017,456,2.4483
120.954,458,2.6864
122.931,460,2.9445
124.882,462,3.3021
126.886,464,3.8043
128.820,466,4.1687
130.804,468,4.5581
132.778,470,4.9288
134.731,472,5.3096
136.690,474,5.7744
138.665,476,6.3099
140.646,478,6.7821
142.623,480,7.3222
144.617,482,7.8175
146.601,484,8.3759
148.549,486,8.9690
150.516,488,9.3677
152.513,490,9.7365
154.485,492,10.3364
156.507,494,10.6693
158.472,496,10.8661
160.466,498,11.0834
162.442,500,11.3220
164.431,502,11.3437
166.397,504,11.5194
168.379,506,11.6239
170.363,508,11.6173
172.352,510,11.7089
174.342,512,11.7549
176.322,514,11.9162
178.313,516,12.1460
180.314,518,12.0985
182.310,520,12.2248
184.299,522,12.3969
186.284,524,13.0335
188.271,526,13.5672
190.260,528,13.9031
192.267,530,14.4756
194.271,532,15.0707
196.255,534,15.8072
198.237,536,16.5474
200.226,538,17.2266
202.231,540,18.0013
204.219,542,18.5538
206.210,544,19.4261
208.215,546,20.3387
210.207,548,21.3126
212.229,550,22.4028
214.254,552,23.1220
216.233,554,23.8424
218.234,556,24.8716
220.199,558,25.9619
222.206,560,27.2199
224.195,562,28.2270
226.197,564,29.3513
228.202,566,30.4127
230.194,568,31.7845
232.196,570,32.9360
234.219,572,34.2311
236.209,574,35.5080
238.203,576,36.6359
240.203,578,37.9106
242.202,580,39.4151
244.178,582,40.8695
246.188,584,42.4537
248.188,586,43.8963
250.191,588,45.5872
252.180,590,47.1442
254.208,592,48.9391
256.207,594,50.8198
258.190,596,52.5264
260.195,598,54.4669
262.208,600,56.5551
264.203,602,58.7540
266.190,604,61.0434
268.226,606,63.1014
270.204,608,65.2261
272.216,610,67.7394
274.213,612,70.0991
276.226,614,72.1957
278.234,616,74.4228
280.220,618,76.7224
282.241,620,79.0687
284.246,622,81.2608
286.226,624,83.3119
288.210,626,85.1641
290.241,628,87.3421
292.242,630,89.6508
294.236,632,91.5094
296.256,634,93.5914
298.277,636,95.6535
300.263,638,98.1255
302.260,640,100.4638
304.292,642,103.1557
306.272,644,105.9027
308.292,646,109.1853
310.285,648,112.6006
312.279,650,116.2406
314.322,652,120.3249
316.312,654,124.4225
318.325,656,128.6089
320.337,658,133.0450
322.329,660,137.0791
324.339,662,140.6199
326.340,664,143.4617
328.357,666,145.2093
330.352,668,145.0303
332.376,670,142.9541
334.360,672,138.6603
336.374,674,131.4548
338.387,676,121.4225
340.383,678,108.9991
342.366,680,95.0901
344.376,682,80.0202
346.360,684,65.6229
348.343,686,52.8423
350.328,688,42.2027
352.274,690,33.8179
354.265,692,27.4694
356.255,694,22.9612
358.238,696,20.0443
360.248,698,18.0113
362.236,700,16.5999
364.226,702,15.6314
366.239,704,14.7251
368.256,706,13.9139
370.265,708,13.1943
372.254,710,12.5716
374.261,712,11.7856
376.284,714,11.4805
378.301,716,11.2135
380.296,718,10.6644
382.295,720,10.1486
384.310,722,9.8901
386.288,724,9.3867
388.282,726,9.0033
390.320,728,8.5887
392.300,730,8.2325
394.320,732,7.9242
396.356,734,7.5105
398.360,736,7.1057
400.368,738,6.6685
402.357,740,6.4853
404.354,742,5.7160
406.353,744,5.3899
408.386,746,5.2257
410.390,748,4.7661
412.415,750,4.3593
414.406,752,4.0654
416.408,754,3.7115
418.411,756,3.4954
420.420,758,3.1456
422.402,760,3.0672
424.427,762,2.8940
426.438,764,2.6482
428.427,766,2.3541
430.423,768,2.2592
432.440,770,2.0509
434.461,772,1.9156
436.496,774,1.6275
438.497,776,1.3485
440.519,778,1.4691
442.511,780,1.3098
444.495,782,1.2019
446.502,784,0.9424
448.499,786,0.7396
450.486,788,0.8189
452.503,790,0.7816
454.496,792,0.6198
456.488,794,0.4756
458.503,796,0.4605
460.508,798,0.5298
462.504,800,0.5815
464.498,802,0.4661
466.491,804,0.4590
468.471,806,0.0583
470.492,808,0.1366
472.534,810,0.2289
474.534,812,0.0623
476.501,814,0.0409
478.517,816,0.0815
480.538,818,0.0873
482.534,820,0.0171
484.518,822,-0.0435
486.522,824,-0.0825
488.522,826,-0.0325
490.569,828,-0.0325
492.518,830,0.2119
494.529,832,0.1231
496.533,834,-0.1594
498.553,836,-0.0463
500.554,838,0.1176
502.544,840,0.0711
504.549,842,0.1069
506.549,844,-0.0081
508.555,846,-0.1409
510.525,848,-0.3976
512.505,850,0.0376
514.529,852,-0.0950
516.541,854,-0.0373
518.559,856,-0.1936
520.523,858,-0.0662
522.533,860,-0.1191
524.536,862,-0.1874
526.506,864,-0.2652
528.524,866,-0.0116
530.508,868,0.0732
532.502,870,0.0607
534.511,872,0.0333
536.469,874,-0.0780
538.510,876,-0.0196
540.524,878,-0.0586
542.481,880,0.0446
544.493,882,0.0248
546.496,884,0.0674
548.514,886,0.0120
550.469,888,0.0457
552.500,890,-0.0902
554.496,892,0.1191
556.490,894,0.2002
558.468,896,0.1649
560.503,898,-0.0717
562.455,900,0.0619
564.408,902,-0.0174
566.464,904,0.0370
568.453,906,0.0353
570.471,908,0.0940
572.465,910,-0.0082
574.451,912,0.1883
576.464,914,0.2900
578.437,916,0.2690
580.457,918,0.0511
582.419,920,-0.1665
584.420,922,-0.0782
586.407,924,-0.0477
588.408,926,-0.0664
590.395,928,-0.0899
592.402,930,-0.1480
594.383,932,-0.0434
596.388,934,-0.0237
598.366,936,0.1000