File: Wood/Calibration_Data/NIST/NIST_Wood_MCC_O2-20_60K_R1.csv
Time (s),Temperature (K),HRR (W/g)
54.911,389.5,0.2424
57.209,392,0.0067
59.517,394.5,-0.1090
61.814,397,-0.0164
64.152,399.5,-0.4702
66.528,402,-0.3497
68.839,404.5,-0.4355
71.190,407,-0.4559
73.567,409.5,-0.5628
75.920,412,-0.6664
78.287,414.5,-0.8059
80.650,417,-0.8039
83.016,419.5,-0.7584
85.469,422,-0.6087
87.884,424.5,-0.4515
90.298,427,-0.5157
92.708,429.5,-0.4723
95.148,432,-0.5203
97.572,434.5,-0.2712
99.992,437,-0.1513
102.428,439.5,0.2573
104.905,442,0.3652
107.356,444.5,0.4287
109.804,447,0.7209
112.243,449.5,1.1080
114.689,452,1.3984
117.158,454.5,1.7796
119.599,457,2.0758
122.045,459.5,2.2006
124.477,462,2.7632
126.952,464.5,2.9699
129.416,467,3.4105
131.881,469.5,3.8697
134.330,472,4.2616
136.777,474.5,4.8701
139.206,477,5.3688
141.696,479.5,5.9284
144.154,482,6.4415
146.619,484.5,7.1145
149.128,487,7.9724
151.602,489.5,8.3623
154.069,492,8.9100
156.536,494.5,9.2618
159.032,497,9.2560
161.496,499.5,9.4933
163.956,502,9.6158
166.450,504.5,9.9129
168.933,507,10.1144
171.421,509.5,10.3014
173.890,512,10.7236
176.369,514.5,11.0824
178.845,517,11.4518
181.351,519.5,12.1089
183.830,522,12.7947
186.311,524.5,13.5610
188.813,527,14.4059
191.280,529.5,15.5095
193.790,532,16.7045
196.258,534.5,17.9335
198.737,537,19.3277
201.222,539.5,20.8031
203.718,542,22.2655
206.199,544.5,23.7415
208.674,547,25.3403
211.150,549.5,27.0533
213.670,552,28.8641
216.153,554.5,31.0062
218.614,557,32.9487
221.095,559.5,34.7515
223.585,562,36.9371
226.072,564.5,39.3894
228.528,567,41.6161
231.048,569.5,44.1948
233.523,572,46.8080
235.999,574.5,49.4974
238.470,577,52.2332
240.963,579.5,55.4135
243.435,582,58.7844
245.924,584.5,62.2713
248.377,587,65.9488
250.843,589.5,70.2036
253.318,592,74.8459
255.804,594.5,79.7506
258.276,597,84.8761
260.730,599.5,90.4886
263.188,602,96.3503
265.667,604.5,102.5183
268.118,607,109.0579
270.599,609.5,116.5765
273.075,612,125.5095
275.566,614.5,136.1417
278.022,617,149.4488
280.485,619.5,164.5054
282.927,622,179.9275
285.407,624.5,193.7620
287.857,627,203.1735
290.322,629.5,206.4227
292.761,632,201.4737
295.190,634.5,188.0160
297.595,637,167.2936
299.966,639.5,143.2520
302.372,642,119.8165
304.744,644.5,100.5907
307.150,647,85.4612
309.535,649.5,74.9690
312.018,652,67.3130
314.521,654.5,61.9490
317.072,657,57.8237
319.629,659.5,54.4337
322.226,662,51.4689
324.857,664.5,49.1058
327.470,667,46.9663
330.117,669.5,45.1274
332.700,672,43.5707
335.326,674.5,42.4879
337.909,677,41.6206
340.460,679.5,40.8755
343.005,682,40.2044
345.559,684.5,39.7693
348.079,687,39.4104
350.602,689.5,39.1292
353.138,692,39.0301
355.651,694.5,39.7290
358.149,697,39.8630
360.602,699.5,40.5003
363.110,702,41.4536
365.565,704.5,42.9947
368.040,707,44.7399
370.519,709.5,47.3145
372.990,712,45.3527
375.415,714.5,43.4387
377.863,717,53.2004
380.288,719.5,62.9846
382.701,722,103.4111
384.800,724.5,145.1055
386.863,727,159.8438
388.853,729.5,160.2919
390.849,732,156.8722
392.918,734.5,154.5551
395.139,737,149.6921
397.700,739.5,140.5359
400.225,742,132.1066
402.635,744.5,118.1006
405.671,747,94.2194
408.844,749.5,65.9209
411.979,752,22.0477
415.856,754.5,1.6562
419.452,757,-0.0353
422.545,759.5,-0.3776
425.391,762,-0.4668
428.046,764.5,-0.2980
430.611,767,-0.2608
433.090,769.5,-0.2361
435.577,772,-0.4059
438.041,774.5,-0.2078
440.488,777,-0.4129
442.896,779.5,-0.3993
445.341,782,-0.3690
447.768,784.5,-0.5367
450.202,787,-0.4624
452.669,789.5,-0.3836
455.113,792,-0.6632
457.568,794.5,-0.5723
460.050,797,-0.7071
462.487,799.5,-0.6991
464.972,802,-0.8114
467.461,804.5,-0.6831
469.893,807,-0.8778
472.432,809.5,-0.8614
474.876,812,-0.7951
477.362,814.5,-0.8147
479.852,817,-0.8671
482.331,819.5,-0.8036
484.804,822,-0.7210
487.282,824.5,-0.5126
489.758,827,-0.5638
492.222,829.5,-0.6614
494.744,832,-0.5327
497.223,834.5,-0.5421
499.704,837,-0.5076
502.179,839.5,-0.4827
504.668,842,-0.4210
507.167,844.5,-0.4105
509.646,847,-0.2302
512.127,849.5,-0.3628
514.600,852,-0.1075
517.112,854.5,-0.0021
519.615,857,0.0565
522.075,859.5,-0.0520
524.567,862,0.0248
527.052,864.5,0.0513
529.551,867,0.1802
532.052,869.5,0.0732
534.545,872,0.0434
537.027,874.5,0.0843
539.524,877,0.2178
541.976,879.5,0.2401
544.486,882,0.2812
546.980,884.5,0.2687
549.467,887,0.2777
551.935,889.5,0.3449
554.444,892,0.3374
556.952,894.5,0.4386
559.456,897,0.4162
561.938,899.5,0.4427
564.412,902,0.4960
566.894,904.5,0.4468
569.408,907,0.5810
571.870,909.5,0.4814
574.350,912,0.5239
576.842,914.5,0.5703
579.321,917,0.5802
581.822,919.5,0.5329
584.311,922,0.5497
586.813,924.5,0.4620
589.275,927,0.5111
591.779,929.5,0.4962
594.281,932,0.3315
596.750,934.5,0.2875
599.281,937,0.6113
601.750,939.5,0.4643
604.247,942,0.5063
606.725,944.5,0.3728
609.211,947,0.3523
611.704,949.5,0.3291
614.175,952,0.3256
616.693,954.5,0.3087
619.198,957,0.4311
621.664,959.5,0.4133
624.156,962,0.2684
626.632,964.5,0.2851
629.113,967,0.2238
631.604,969.5,0.2742
634.101,972,0.2318
636.627,974.5,0.2155
639.104,977,0.1354
641.567,979.5,0.1544
644.061,982,0.1110
646.564,984.5,0.0657
649.031,987,-0.0085
651.518,989.5,-0.0380
653.982,992,-0.0193
656.456,994.5,0.1125
658.983,997,-0.0476
661.466,999.5,-0.1235
663.955,1002,-0.1198
666.465,1004.5,-0.0595
668.903,1007,-0.2799
671.410,1009.5,-0.3308
673.872,1012,-0.3413
676.358,1014.5,-0.3351
678.842,1017,-0.3352
681.322,1019.5,-0.4622
683.795,1022,-0.4813
686.294,1024.5,-0.6695
688.738,1027,-0.4790
691.223,1029.5,-0.5541
693.724,1032,-0.6959
696.210,1034.5,-0.9070
697.700,1036,-0.8479