File: Wood/Calibration_Data/NIST/NIST_Wood_MCC_N2_60K_R8.csv
Time (s),Temperature (K),HRR (W/g)
71.772,408,0.1177
73.667,410,0.0470
75.560,412,0.0151
77.444,414,0.0182
79.360,416,-0.0064
81.285,418,-0.0803
83.185,420,-0.0850
85.128,422,-0.0687
87.053,424,-0.0486
89.014,426,0.0208
90.927,428,0.0544
92.888,430,0.0135
94.849,432,0.0561
96.766,434,0.1321
98.722,436,0.1764
100.642,438,0.1754
102.607,440,0.2523
104.574,442,0.2986
106.558,444,0.3724
108.498,446,0.3920
110.478,448,0.4555
112.437,450,0.5529
114.408,452,0.6119
116.377,454,0.7221
118.324,456,0.8582
120.257,458,0.9847
122.250,460,1.1560
124.233,462,1.2599
126.185,464,1.4288
128.142,466,1.7196
130.116,468,1.8796
132.076,470,2.1092
134.035,472,2.3774
136.014,474,2.6298
137.966,476,2.9437
139.974,478,3.2825
141.933,480,3.5971
143.918,482,3.9260
145.866,484,4.2750
147.876,486,4.6580
149.861,488,5.0855
151.841,490,5.5972
153.825,492,6.0931
155.815,494,6.5578
157.808,496,7.0102
159.780,498,7.4750
161.758,500,7.9659
163.744,502,8.4732
165.733,504,8.9855
167.731,506,9.5031
169.721,508,10.0195
171.703,510,10.4380
173.693,512,10.9246
175.698,514,11.2951
177.683,516,11.5655
179.663,518,11.8556
181.666,520,12.0360
183.628,522,12.2939
185.614,524,12.4735
187.634,526,12.5036
189.617,528,12.6260
191.573,530,12.8342
193.579,532,13.0071
195.611,534,13.2231
197.610,536,13.4377
199.596,538,13.8028
201.557,540,14.1223
203.575,542,14.5503
205.590,544,14.9704
207.591,546,15.3524
209.555,548,15.8287
211.588,550,16.4108
213.592,552,16.9942
215.576,554,17.7610
217.582,556,18.5214
219.564,558,19.3886
221.555,560,20.2383
223.531,562,21.1214
225.558,564,22.0604
227.566,566,23.2266
229.530,568,24.2978
231.534,570,25.4981
233.554,572,26.7045
235.560,574,28.0018
237.578,576,29.3543
239.539,578,30.7974
241.554,580,32.3215
243.551,582,33.8720
245.565,584,35.5890
247.559,586,37.3336
249.538,588,39.2228
251.560,590,41.1605
253.523,592,43.1900
255.566,594,45.2417
257.555,596,47.3992
259.574,598,49.6703
261.579,600,51.9186
263.589,602,54.1548
265.552,604,56.5054
267.582,606,58.8562
269.605,608,61.2024
271.591,610,63.5069
273.599,612,65.8091
275.591,614,68.0769
277.597,616,70.3046
279.623,618,72.5553
281.595,620,74.5949
283.578,622,76.6427
285.612,624,78.6775
287.586,626,80.6724
289.610,628,82.6138
291.595,630,84.5163
293.606,632,86.4892
295.640,634,88.4797
297.642,636,90.4858
299.613,638,92.6496
301.623,640,94.9848
303.616,642,97.3753
305.640,644,100.0971
307.647,646,102.9600
309.637,648,106.0937
311.647,650,109.5514
313.669,652,113.2884
315.671,654,117.0354
317.698,656,120.8768
319.698,658,124.7475
321.724,660,128.3984
323.738,662,131.4999
325.748,664,134.0685
327.760,666,135.7379
329.763,668,136.0950
331.766,670,134.7720
333.803,672,131.5707
335.836,674,126.0360
337.791,676,118.4408
339.789,678,108.3461
341.776,680,96.3102
343.756,682,83.0882
345.725,684,69.7037
347.691,686,57.1987
349.625,688,46.6194
351.585,690,38.1618
353.503,692,31.9092
355.510,694,27.2239
357.467,696,24.0337
359.425,698,21.7562
361.431,700,20.0333
363.420,702,18.5895
365.399,704,17.2626
367.411,706,16.0649
369.421,708,15.1123
371.422,710,14.2450
373.451,712,13.4747
375.453,714,12.7158
377.445,716,12.0790
379.456,718,11.4754
381.454,720,10.9146
383.458,722,10.4143
385.476,724,9.9315
387.457,726,9.3607
389.496,728,8.8738
391.470,730,8.4020
393.507,732,7.9522
395.527,734,7.4573
397.502,736,7.0846
399.533,738,6.6348
401.536,740,6.2368
403.546,742,5.8661
405.572,744,5.4196
407.524,746,5.0533
409.566,748,4.7062
411.580,750,4.2926
413.546,752,4.0240
415.594,754,3.6913
417.577,756,3.4250
419.585,758,3.1758
421.617,760,2.9378
423.623,762,2.7004
425.635,764,2.4540
427.636,766,2.3041
429.623,768,2.0888
431.622,770,1.9167
433.682,772,1.7817
435.663,774,1.6482
437.683,776,1.4774
439.708,778,1.3546
441.694,780,1.2512
443.706,782,1.1603
445.690,784,1.0563
447.660,786,0.9657
449.676,788,0.8690
451.667,790,0.8160
453.666,792,0.7596
455.674,794,0.6848
457.691,796,0.5892
459.679,798,0.5745
461.710,800,0.5732
463.686,802,0.5347
465.668,804,0.4525
467.687,806,0.3839
469.692,808,0.4486
471.684,810,0.3981
473.713,812,0.3414
475.704,814,0.3407
477.724,816,0.2896
479.702,818,0.2785
481.694,820,0.2567
483.734,822,0.1674
485.708,824,0.2474
487.711,826,0.2339
489.686,828,0.1961
491.695,830,0.1363
493.698,832,0.1145
495.713,834,0.1879
497.716,836,0.1438
499.703,838,0.0630
501.690,840,0.0335
503.683,842,0.0586
505.682,844,0.0205
507.698,846,0.0066
509.682,848,0.0151
511.695,850,-0.0113
513.696,852,0.0366
515.681,854,-0.0004
517.699,856,-0.0094
519.694,858,0.0233
521.688,860,0.0716
523.697,862,-0.0371
525.691,864,-0.0564
527.682,866,-0.0399
529.646,868,0.0738
531.679,870,0.0289
533.682,872,0.0310
535.681,874,-0.0490
537.659,876,-0.0817
539.678,878,-0.0709
541.667,880,-0.0461
543.677,882,-0.0691
545.634,884,-0.0897
547.656,886,-0.0761
549.658,888,-0.1365
551.638,890,-0.0489
553.640,892,-0.0564
555.661,894,-0.0701
557.657,896,-0.0540
559.639,898,0.0072
561.622,900,0.0493
563.615,902,0.0489
565.614,904,0.0348
567.606,906,0.0697
569.614,908,0.0774
571.614,910,-0.0085
573.583,912,0.0503
575.594,914,0.0863
577.586,916,0.1043
579.582,918,0.0259
581.574,920,0.0365
583.570,922,0.0212
585.547,924,0.0249
587.502,926,-0.0162
589.548,928,-0.0093
591.523,930,0.0045
593.523,932,-0.0148
595.524,934,-0.0311
597.549,936,-0.0230