File: Wood/Calibration_Data/NIST/NIST_Wood_MCC_N2_60K_R3.csv
Time (s),Temperature (K),HRR (W/g)
72.762,409,0.0641
74.655,411,0.0026
76.533,413,0.0028
78.435,415,-0.0745
80.325,417,-0.0632
82.234,419,-0.0361
84.183,421,0.0330
86.103,423,0.0921
88.030,425,0.0725
89.986,427,0.0660
91.916,429,0.1094
93.839,431,0.1758
95.757,433,0.2167
97.707,435,0.2800
99.684,437,0.3226
101.621,439,0.4471
103.579,441,0.4806
105.541,443,0.5959
107.509,445,0.6983
109.483,447,0.7007
111.436,449,0.7567
113.374,451,0.8700
115.333,453,0.9449
117.300,455,1.0349
119.256,457,1.1491
121.224,459,1.3429
123.173,461,1.4753
125.160,463,1.6619
127.127,465,1.9024
129.125,467,2.1358
131.038,469,2.3026
133.052,471,2.4912
135.010,473,2.7571
136.981,475,3.1325
138.941,477,3.3848
140.921,479,3.6331
142.879,481,4.0919
144.884,483,4.4384
146.866,485,4.8075
148.859,487,5.2775
150.838,489,5.7229
152.805,491,6.1937
154.818,493,6.6653
156.804,495,7.2149
158.772,497,7.7191
160.723,499,8.1410
162.725,501,8.7077
164.720,503,9.3443
166.695,505,9.8003
168.660,507,10.3185
170.704,509,10.8533
172.675,511,11.3016
174.654,513,11.7540
176.643,515,12.2285
178.642,517,12.6038
180.648,519,12.8274
182.636,521,13.0448
184.638,523,13.2639
186.609,525,13.3972
188.606,527,13.5104
190.612,529,13.7029
192.600,531,13.8747
194.589,533,14.0361
196.568,535,14.2628
198.573,537,14.5494
200.529,539,14.8242
202.540,541,15.2709
204.545,543,15.6240
206.512,545,15.9895
208.481,547,16.4041
210.497,549,16.9718
212.519,551,17.6151
214.504,553,18.2294
216.530,555,18.9667
218.525,557,19.8081
220.494,559,20.6535
222.516,561,21.5539
224.505,563,22.5679
226.549,565,23.6028
228.534,567,24.6981
230.513,569,25.8378
232.520,571,27.0309
234.520,573,28.3069
236.521,575,29.7006
238.511,577,31.1396
240.506,579,32.5964
242.519,581,34.2397
244.515,583,35.8718
246.535,585,37.6070
248.501,587,39.4921
250.521,589,41.4143
252.520,591,43.3303
254.525,593,45.4443
256.524,595,47.4869
258.545,597,49.7077
260.517,599,51.8821
262.508,601,54.1877
264.536,603,56.5103
266.530,605,58.9144
268.526,607,61.1839
270.545,609,63.6414
272.571,611,65.9802
274.569,613,68.2562
276.579,615,70.5568
278.556,617,72.7914
280.559,619,75.1013
282.574,621,77.2061
284.537,623,79.2765
286.572,625,81.3298
288.565,627,83.2987
290.561,629,85.3501
292.571,631,87.4145
294.576,633,89.3288
296.606,635,91.4630
298.585,637,93.4773
300.593,639,95.7749
302.587,641,98.1072
304.622,643,100.6792
306.654,645,103.4827
308.596,647,106.3867
310.634,649,109.6420
312.608,651,113.0562
314.639,653,116.7156
316.624,655,120.4501
318.682,657,124.3845
320.699,659,128.0533
322.723,661,131.4620
324.744,663,134.3968
326.747,665,136.6336
328.756,667,137.8404
330.763,669,137.7197
332.797,671,135.8987
334.791,673,132.1873
336.782,675,126.2716
338.777,677,118.0537
340.755,679,107.6882
342.727,681,95.6127
344.668,683,82.5069
346.619,685,69.2865
348.607,687,56.7690
350.528,689,46.3716
352.506,691,37.9438
354.478,693,31.6637
356.434,695,27.2882
358.416,697,24.2171
360.404,699,21.9518
362.378,701,20.3334
364.354,703,18.9633
366.368,705,17.5958
368.378,707,16.3913
370.368,709,15.4631
372.366,711,14.6586
374.387,713,13.8253
376.408,715,13.0750
378.393,717,12.4391
380.415,719,11.8266
382.380,721,11.3149
384.416,723,10.7060
386.437,725,10.2331
388.435,727,9.6487
390.445,729,9.1343
392.458,731,8.7054
394.459,733,8.2705
396.476,735,7.8273
398.523,737,7.3256
400.517,739,6.8374
402.522,741,6.4555
404.525,743,6.0189
406.530,745,5.6057
408.534,747,5.2806
410.561,749,4.8988
412.526,751,4.6451
414.568,753,4.2605
416.577,755,3.9439
418.570,757,3.5895
420.568,759,3.2815
422.602,761,3.0515
424.628,763,2.7896
426.554,765,2.5543
428.614,767,2.4110
430.616,769,2.1964
432.604,771,2.0425
434.633,773,1.8748
436.668,775,1.7075
438.701,777,1.5440
440.678,779,1.4683
442.670,781,1.3414
444.653,783,1.2206
446.663,785,1.1083
448.666,787,1.0229
450.643,789,0.9511
452.668,791,0.9153
454.686,793,0.8442
456.679,795,0.7284
458.681,797,0.6776
460.680,799,0.6666
462.686,801,0.6255
464.693,803,0.5031
466.703,805,0.4890
468.692,807,0.3761
470.679,809,0.3590
472.708,811,0.3503
474.724,813,0.4013
476.702,815,0.3162
478.732,817,0.2451
480.745,819,0.3127
482.741,821,0.2530
484.706,823,0.2397
486.742,825,0.2416
488.722,827,0.1905
490.717,829,0.1007
492.722,831,0.0666
494.712,833,0.1226
496.713,835,0.1033
498.716,837,0.0544
500.717,839,-0.0099
502.725,841,-0.0151
504.724,843,0.0292
506.704,845,0.0756
508.715,847,-0.0039
510.717,849,-0.0428
512.683,851,-0.0866
514.717,853,-0.0393
516.716,855,-0.0219
518.704,857,-0.0591
520.704,859,-0.0347
522.691,861,-0.0220
524.721,863,-0.0917
526.698,865,0.0567
528.680,867,0.0972
530.702,869,-0.0652
532.687,871,-0.1451
534.692,873,-0.0203
536.686,875,-0.0017
538.696,877,0.0607
540.675,879,0.0136
542.694,881,0.0046
544.660,883,-0.0701
546.666,885,0.0123
548.658,887,0.0676
550.659,889,0.0286
552.642,891,-0.0091
554.650,893,-0.0137
556.646,895,0.0113
558.649,897,0.0275
560.642,899,-0.0181
562.628,901,0.0469
564.659,903,-0.0186
566.629,905,0.0586
568.630,907,0.0455
570.604,909,0.0649
572.641,911,0.0414
574.610,913,0.0185
576.632,915,-0.0178
578.638,917,-0.0359
580.597,919,-0.0135
582.635,921,0.0017
584.614,923,0.0265
586.579,925,0.0178
588.563,927,0.0067
590.551,929,0.0234
592.581,931,-0.0277
594.567,933,-0.0072
596.549,935,-0.0306
598.070,936.5,-0.0778