File: Wood/Calibration_Data/NIST/NIST_Wood_MCC_N2_60K_R6.csv
Time (s),Temperature (K),HRR (W/g)
73.488,409,0.0409
75.393,411,0.0495
77.277,413,-0.1182
79.154,415,-0.0760
81.042,417,-0.0022
82.980,419,-0.0528
84.887,421,-0.0473
86.828,423,0.0428
88.767,425,0.0031
90.690,427,-0.0170
92.628,429,0.0803
94.583,431,0.0916
96.490,433,0.1456
98.462,435,0.2311
100.421,437,0.3105
102.352,439,0.4543
104.293,441,0.5254
106.261,443,0.6614
108.221,445,0.6976
110.184,447,0.8166
112.125,449,0.8943
114.122,451,0.9589
116.061,453,1.1544
118.022,455,1.2928
119.992,457,1.3705
121.925,459,1.5707
123.941,461,1.8039
125.901,463,1.9751
127.871,465,2.1853
129.857,467,2.3573
131.812,469,2.5870
133.767,471,2.8216
135.720,473,3.1344
137.693,475,3.4817
139.667,477,3.8124
141.649,479,4.0799
143.648,481,4.4770
145.636,483,4.8004
147.592,485,5.2184
149.572,487,5.6125
151.542,489,6.0928
153.528,491,6.6251
155.539,493,7.0803
157.515,495,7.5611
159.462,497,8.0536
161.462,499,8.5606
163.437,501,9.1646
165.436,503,9.6413
167.417,505,10.0942
169.409,507,10.7226
171.438,509,11.2047
173.407,511,11.6540
175.397,513,12.1191
177.383,515,12.5151
179.371,517,12.9212
181.377,519,13.1059
183.372,521,13.2769
185.343,523,13.3982
187.345,525,13.5654
189.339,527,13.7680
191.344,529,14.0012
193.363,531,14.1304
195.346,533,14.2765
197.323,535,14.5317
199.312,537,14.8032
201.304,539,15.0863
203.284,541,15.4031
205.293,543,15.7945
207.277,545,16.1797
209.275,547,16.6713
211.276,549,17.2164
213.282,551,17.7107
215.281,553,18.3534
217.241,555,19.1218
219.244,557,19.8657
221.257,559,20.6626
223.246,561,21.5752
225.229,563,22.4785
227.247,565,23.5449
229.254,567,24.6517
231.248,569,25.7400
233.226,571,26.9827
235.263,573,28.2601
237.271,575,29.5527
239.249,577,30.9339
241.227,579,32.4033
243.239,581,34.0170
245.246,583,35.6771
247.258,585,37.4171
249.260,587,39.2212
251.271,589,41.1501
253.253,591,43.0309
255.261,593,45.1284
257.263,595,47.2360
259.274,597,49.3209
261.269,599,51.6080
263.283,601,53.8480
265.279,603,56.1411
267.284,605,58.4837
269.310,607,60.8280
271.291,609,63.1147
273.287,611,65.5224
275.295,613,67.7928
277.277,615,70.0746
279.289,617,72.3163
281.286,619,74.3976
283.302,621,76.4937
285.306,623,78.5666
287.282,625,80.5892
289.307,627,82.5977
291.299,629,84.4908
293.313,631,86.4155
295.328,633,88.4466
297.310,635,90.4127
299.300,637,92.5550
301.332,639,94.7467
303.319,641,97.1432
305.306,643,99.7913
307.321,645,102.6188
309.339,647,105.7220
311.329,649,109.0728
313.347,651,112.7331
315.365,653,116.6619
317.396,655,120.5913
319.400,657,124.4709
321.407,659,128.3105
323.428,661,131.8387
325.431,663,134.6902
327.446,665,136.7229
329.458,667,137.6000
331.472,669,137.0188
333.488,671,134.5661
335.517,673,129.8912
337.525,675,123.0603
339.506,677,113.8823
341.478,679,102.5301
343.446,681,89.5463
345.391,683,76.1412
347.383,685,62.8263
349.334,687,51.2338
351.291,689,41.8020
353.260,691,34.5063
355.196,693,29.4505
357.182,695,25.8123
359.145,697,23.3060
361.133,699,21.3958
363.115,701,19.8845
365.133,703,18.4660
367.115,705,17.1806
369.112,707,16.0910
371.119,709,15.1278
373.139,711,14.2510
375.144,713,13.5048
377.153,715,12.8781
379.142,717,12.2623
381.159,719,11.6313
383.170,721,11.1118
385.164,723,10.6110
387.182,725,10.0909
389.173,727,9.5859
391.190,729,9.1003
393.172,731,8.6398
395.199,733,8.1735
397.215,735,7.7161
399.223,737,7.2318
401.213,739,6.8412
403.236,741,6.4106
405.210,743,6.0011
407.248,745,5.4905
409.260,747,5.2270
411.264,749,4.8778
413.263,751,4.5014
415.263,753,4.0652
417.260,755,3.8292
419.273,757,3.5937
421.272,759,3.3145
423.300,761,3.0833
425.305,763,2.8444
427.305,765,2.6205
429.300,767,2.4285
431.312,769,2.2382
433.312,771,2.1449
435.337,773,1.9584
437.360,775,1.8351
439.358,777,1.6986
441.375,779,1.5823
443.359,781,1.4449
445.347,783,1.3228
447.355,785,1.1974
449.358,787,1.1743
451.337,789,1.0566
453.327,791,1.0097
455.342,793,0.9157
457.335,795,0.8594
459.357,797,0.7685
461.336,799,0.6851
463.356,801,0.7123
465.362,803,0.6461
467.328,805,0.5849
469.360,807,0.5540
471.345,809,0.5389
473.368,811,0.4911
475.350,813,0.4111
477.396,815,0.3859
479.387,817,0.4160
481.376,819,0.4280
483.364,821,0.4385
485.404,823,0.3761
487.377,825,0.2934
489.376,827,0.2785
491.387,829,0.2524
493.352,831,0.2839
495.389,833,0.3009
497.402,835,0.2673
499.394,837,0.2256
501.407,839,0.1983
503.370,841,0.1284
505.376,843,0.1579
507.390,845,0.1242
509.368,847,0.1239
511.371,849,0.1403
513.374,851,0.1304
515.376,853,0.0375
517.366,855,-0.0016
519.457,857,0.0354
521.377,859,-0.0181
523.398,861,0.0036
525.397,863,-0.0509
527.404,865,-0.0483
529.372,867,-0.0410
531.398,869,-0.0717
533.403,871,-0.0267
535.391,873,-0.0060
537.400,875,0.0608
539.374,877,-0.0064
541.377,879,-0.0678
543.382,881,-0.0299
545.383,883,-0.0281
547.370,885,-0.0030
549.380,887,-0.0207
551.370,889,-0.0191
553.352,891,0.0546
555.362,893,0.0551
557.370,895,-0.0397
559.368,897,-0.0545
561.329,899,-0.0136
563.335,901,0.0656
565.333,903,0.0073
567.366,905,-0.0578
569.342,907,0.0320
571.328,909,0.0354
573.354,911,0.0333
575.313,913,0.0607
577.339,915,0.0246
579.323,917,0.0652
581.308,919,0.0418
583.316,921,0.0202
585.338,923,0.0437
587.293,925,-0.0031
589.274,927,0.0093
591.282,929,-0.0070
593.255,931,-0.0574
595.252,933,-0.0303
597.244,935,-0.0588
598.255,936,-0.0226