File: Wood/Calibration_Data/NIST/NIST_Wood_MCC_N2_60K_R7.csv
Time (s),Temperature (K),HRR (W/g)
72.134,408,0.0736
74.000,410,0.0587
75.905,412,0.0135
77.800,414,-0.0003
79.710,416,-0.0484
81.625,418,-0.0546
83.524,420,-0.0765
85.469,422,-0.0844
87.379,424,-0.0271
89.332,426,-0.0417
91.263,428,-0.0712
93.169,430,-0.0627
95.138,432,-0.0867
97.056,434,-0.0255
99.003,436,0.1028
100.965,438,0.1393
102.908,440,0.1399
104.896,442,0.1953
106.848,444,0.1985
108.788,446,0.2391
110.731,448,0.3426
112.727,450,0.3783
114.674,452,0.4284
116.638,454,0.5727
118.595,456,0.6693
120.574,458,0.8093
122.554,460,0.9296
124.525,462,1.1419
126.478,464,1.3598
128.425,466,1.4465
130.428,468,1.6577
132.370,470,1.8603
134.341,472,2.1530
136.295,474,2.3944
138.285,476,2.6964
140.232,478,3.0390
142.234,480,3.2988
144.199,482,3.6206
146.196,484,4.0400
148.159,486,4.4631
150.140,488,4.9191
152.162,490,5.3377
154.125,492,5.7307
156.101,494,6.2518
158.047,496,6.7313
160.022,498,7.2145
162.032,500,7.8175
164.038,502,8.3119
166.029,504,8.7840
168.007,506,9.3322
169.970,508,9.8963
171.959,510,10.2787
173.978,512,10.7315
175.969,514,11.1431
177.944,516,11.3550
179.932,518,11.6587
181.940,520,11.8775
183.923,522,12.1030
185.916,524,12.1960
187.912,526,12.2783
189.910,528,12.3868
191.889,530,12.5700
193.860,532,12.7128
195.864,534,12.9248
197.843,536,13.2223
199.854,538,13.5725
201.846,540,13.8896
203.835,542,14.2551
205.821,544,14.7153
207.846,546,15.1780
209.824,548,15.6740
211.836,550,16.1798
213.854,552,16.8514
215.855,554,17.6059
217.833,556,18.3547
219.790,558,19.1986
221.819,560,20.1097
223.791,562,20.9854
225.780,564,22.0375
227.784,566,23.1076
229.804,568,24.2812
231.817,570,25.5240
233.818,572,26.7422
235.816,574,27.9537
237.810,576,29.3775
239.803,578,30.8324
241.775,580,32.3314
243.765,582,33.8844
245.808,584,35.5962
247.774,586,37.3215
249.787,588,39.1970
251.794,590,41.1560
253.794,592,43.1848
255.810,594,45.3541
257.774,596,47.4131
259.789,598,49.6266
261.800,600,51.8310
263.797,602,54.0996
265.793,604,56.4093
267.783,606,58.6998
269.783,608,60.9864
271.809,610,63.3133
273.822,612,65.6107
275.809,614,67.8245
277.825,616,70.0209
279.821,618,72.2077
281.827,620,74.2769
283.806,622,76.3609
285.798,624,78.3133
287.813,626,80.2405
289.815,628,82.1127
291.829,630,84.1100
293.835,632,85.9970
295.848,634,87.9778
297.853,636,90.0334
299.860,638,92.1672
301.828,640,94.5141
303.845,642,96.9757
305.844,644,99.5990
307.874,646,102.5719
309.863,648,105.6010
311.858,650,109.0157
313.879,652,112.7619
315.912,654,116.6281
317.915,656,120.3870
319.952,658,124.2490
321.955,660,127.8983
323.973,662,131.0507
325.984,664,133.4498
327.975,666,134.9554
330.012,668,135.2958
332.024,670,133.9336
334.015,672,130.7650
336.016,674,125.3306
337.998,676,117.7108
339.985,678,107.9068
342.005,680,95.7589
343.959,682,82.7564
345.917,684,69.4970
347.884,686,57.0078
349.828,688,46.3604
351.811,690,37.6929
353.760,692,31.2851
355.710,694,26.7383
357.683,696,23.6234
359.653,698,21.4862
361.641,700,19.8170
363.619,702,18.3411
365.641,704,16.9239
367.626,706,15.7997
369.611,708,14.8533
371.616,710,14.0435
373.637,712,13.1901
375.648,714,12.4514
377.643,716,11.8068
379.645,718,11.2248
381.642,720,10.6267
383.658,722,10.1126
385.651,724,9.5960
387.673,726,9.1176
389.680,728,8.5985
391.676,730,8.0945
393.695,732,7.6376
395.699,734,7.1353
397.704,736,6.7692
399.712,738,6.3094
401.725,740,5.8609
403.731,742,5.4829
405.728,744,5.0911
407.746,746,4.7512
409.769,748,4.4134
411.763,750,3.9963
413.768,752,3.7131
415.794,754,3.4342
417.800,756,3.2223
419.793,758,2.9015
421.806,760,2.6395
423.812,762,2.3317
425.832,764,2.1624
427.832,766,1.9989
429.834,768,1.8834
431.853,770,1.7083
433.848,772,1.5324
435.850,774,1.4326
437.870,776,1.3194
439.882,778,1.1809
441.891,780,1.0270
443.840,782,0.9509
445.856,784,0.8399
447.876,786,0.7768
449.862,788,0.6978
451.891,790,0.6523
453.866,792,0.5534
455.876,794,0.5319
457.871,796,0.4384
459.872,798,0.4000
461.869,800,0.3455
463.895,802,0.3079
465.870,804,0.2974
467.871,806,0.2781
469.922,808,0.2262
471.900,810,0.2776
473.904,812,0.1997
475.937,814,0.2194
477.933,816,0.1416
479.917,818,0.0878
481.945,820,0.1488
483.924,822,0.1786
485.924,824,0.0525
487.915,826,0.0786
489.938,828,0.0544
491.932,830,0.0886
493.936,832,0.0602
495.924,834,0.0832
497.929,836,0.0774
499.928,838,0.0038
501.914,840,0.0504
503.907,842,0.0216
505.899,844,-0.0179
507.951,846,-0.0109
509.930,848,0.0236
511.923,850,0.0238
513.935,852,0.0904
515.932,854,0.0992
517.898,856,-0.0165
519.923,858,0.0167
521.910,860,0.0151
523.893,862,0.0318
525.890,864,0.0365
527.873,866,-0.0070
529.909,868,-0.0427
531.910,870,-0.0479
533.898,872,-0.0130
535.919,874,-0.0440
537.947,876,-0.0446
539.902,878,-0.0078
541.889,880,-0.0298
543.881,882,-0.0222
545.891,884,-0.0138
547.892,886,-0.0266
549.922,888,-0.0502
551.879,890,0.0067
553.865,892,-0.0229
555.866,894,-0.0645
557.891,896,-0.0735
559.901,898,0.0027
561.894,900,0.0172
563.846,902,-0.0032
565.841,904,-0.0220
567.856,906,-0.0321
569.848,908,0.0162
571.828,910,0.0298
573.824,912,0.0420
575.835,914,0.0881
577.829,916,0.0428
579.827,918,0.0642
581.806,920,0.0266
583.781,922,0.0255
585.789,924,0.0102
587.767,926,-0.0110
589.773,928,0.0100
591.756,930,-0.0084
593.760,932,0.0014
595.762,934,-0.0203
597.756,936,-0.0306