File: Wood/Calibration_Data/NIST/NIST_Wood-char_MCC_O2-20_60K_R3.csv
Time (s),Temperature (K),HRR (W/g)
90.050,426.5,-0.6310
91.978,428.5,-0.7563
93.901,430.5,-0.2426
95.868,432.5,0.2103
97.819,434.5,-0.0520
99.763,436.5,0.0283
101.714,438.5,0.1582
103.661,440.5,-0.0093
105.613,442.5,-0.0229
107.609,444.5,-0.1416
109.591,446.5,0.3318
111.519,448.5,0.0976
113.500,450.5,-0.4963
115.422,452.5,-0.7668
117.408,454.5,-0.0874
119.347,456.5,0.4694
121.302,458.5,0.3853
123.275,460.5,0.3643
125.256,462.5,0.1109
127.213,464.5,-0.0622
129.170,466.5,0.0049
131.160,468.5,0.3998
133.119,470.5,0.1179
135.071,472.5,0.2590
137.030,474.5,0.3348
139.010,476.5,0.4452
140.959,478.5,0.8612
142.930,480.5,0.2435
144.891,482.5,0.8719
146.895,484.5,0.9125
148.865,486.5,1.0245
150.870,488.5,0.6050
152.855,490.5,0.9374
154.822,492.5,0.9766
156.809,494.5,1.0924
158.747,496.5,1.2474
160.746,498.5,0.8410
162.724,500.5,1.1055
164.707,502.5,1.1435
166.702,504.5,0.7254
168.670,506.5,1.3805
170.673,508.5,1.7951
172.635,510.5,2.1100
174.651,512.5,2.0128
176.631,514.5,1.9290
178.618,516.5,2.0050
180.582,518.5,2.5903
182.569,520.5,2.5316
184.553,522.5,2.9416
186.550,524.5,2.8859
188.558,526.5,2.7186
190.577,528.5,2.9743
192.539,530.5,3.3797
194.536,532.5,3.3310
196.502,534.5,3.7298
198.522,536.5,3.7416
200.514,538.5,3.9685
202.488,540.5,3.8568
204.499,542.5,4.1694
206.499,544.5,4.1571
208.505,546.5,4.6877
210.473,548.5,5.6802
212.492,550.5,5.6463
214.475,552.5,5.5272
216.493,554.5,5.6428
218.468,556.5,6.0489
220.440,558.5,6.2976
222.458,560.5,6.7379
224.444,562.5,7.0213
226.458,564.5,7.3451
228.428,566.5,7.6873
230.439,568.5,7.9141
232.413,570.5,8.3760
234.420,572.5,8.6161
236.416,574.5,8.8777
238.397,576.5,9.3928
240.383,578.5,9.7730
242.380,580.5,10.5331
244.427,582.5,10.8616
246.375,584.5,10.7305
248.385,586.5,11.3407
250.363,588.5,12.0834
252.349,590.5,12.7364
254.376,592.5,12.9862
256.369,594.5,13.3471
258.354,596.5,14.3310
260.344,598.5,14.7436
262.333,600.5,15.6481
264.344,602.5,16.0746
266.336,604.5,16.6601
268.335,606.5,17.9161
270.330,608.5,19.0014
272.313,610.5,19.7187
274.333,612.5,20.2628
276.295,614.5,21.3052
278.305,616.5,22.2154
280.282,618.5,22.7738
282.258,620.5,23.7506
284.252,622.5,25.0986
286.263,624.5,26.3693
288.241,626.5,27.5909
290.250,628.5,28.8921
292.227,630.5,30.4172
294.240,632.5,31.8574
296.205,634.5,33.4402
298.181,636.5,35.0783
300.165,638.5,37.1635
302.172,640.5,39.2797
304.132,642.5,41.1780
306.109,644.5,43.4393
308.093,646.5,46.3566
310.064,648.5,49.0585
312.014,650.5,52.0519
313.988,652.5,55.4031
315.982,654.5,59.2140
317.935,656.5,63.8660
319.913,658.5,69.1498
321.838,660.5,74.5058
323.797,662.5,76.0478
325.761,664.5,76.4018
327.694,666.5,92.9927
329.624,668.5,115.2927
331.532,670.5,150.9142
333.437,672.5,233.8436
335.204,674.5,333.2006
336.777,676.5,384.3906
338.258,678.5,400.8529
339.708,680.5,401.6589
341.177,682.5,397.5097
342.697,684.5,393.2846
344.323,686.5,390.1394
346.073,688.5,388.0051
347.891,690.5,387.7753
349.845,692.5,387.2413
351.864,694.5,385.8018
353.896,696.5,385.5450
355.976,698.5,389.0506
358.108,700.5,389.5166
360.209,702.5,389.8569
362.333,704.5,388.3797
364.487,706.5,381.2892
366.550,708.5,375.3287
368.671,710.5,368.2696
370.852,712.5,366.0426
373.023,714.5,365.2986
375.143,716.5,363.0156
377.228,718.5,358.9053
379.327,720.5,345.0491
381.399,722.5,325.4793
383.456,724.5,310.1312
385.665,726.5,299.1199
387.920,728.5,308.5045
390.159,730.5,343.6032
392.237,732.5,374.6199
394.112,734.5,384.4531
395.963,736.5,381.4187
397.807,738.5,366.4011
399.677,740.5,347.6930
401.650,742.5,322.4082
403.762,744.5,300.8969
406.170,746.5,276.2766
408.430,748.5,244.9587
410.788,750.5,251.9141
412.730,752.5,277.7787
414.714,754.5,262.0001
417.104,756.5,212.3052
419.424,758.5,167.4401
421.618,760.5,117.4257
424.226,762.5,38.4422
427.173,764.5,6.1913
429.860,766.5,1.9225
432.278,768.5,0.6252
434.525,770.5,0.4803
436.690,772.5,0.4203
438.758,774.5,0.0683
440.827,776.5,0.0356
442.784,778.5,0.0702
444.735,780.5,0.1456
446.671,782.5,0.0726
448.598,784.5,0.1107
450.533,786.5,-0.1385
452.495,788.5,-0.1979
454.435,790.5,-0.1492
456.377,792.5,-0.1656
458.327,794.5,-0.1335
460.285,796.5,-0.0687
462.238,798.5,-0.4497
464.164,800.5,-0.1897
466.113,802.5,-0.4469
468.118,804.5,0.1948
470.047,806.5,-0.3457
472.017,808.5,-0.5367
473.997,810.5,-0.1091
475.986,812.5,-0.1783
477.917,814.5,-0.3642
479.928,816.5,-0.2514
481.895,818.5,-0.3001
483.873,820.5,-0.6073
485.851,822.5,-0.4081
487.820,824.5,-0.5637
489.791,826.5,-0.2829
491.799,828.5,-0.6382
493.759,830.5,-0.4264
495.761,832.5,-0.2374
497.734,834.5,-0.3769
499.716,836.5,0.1651
501.702,838.5,0.0453
503.692,840.5,-0.1316
505.668,842.5,0.1845
507.653,844.5,-0.0163
509.603,846.5,-0.2409
511.595,848.5,-0.1301
513.612,850.5,-0.1158
515.574,852.5,0.0631
517.561,854.5,0.3038
519.575,856.5,0.4808
521.563,858.5,0.4070
523.532,860.5,0.7176
525.512,862.5,0.1167
527.475,864.5,0.0354
529.475,866.5,0.5929
531.490,868.5,0.4932
533.495,870.5,0.0933
535.475,872.5,0.1733
537.468,874.5,0.4426
539.453,876.5,0.7464
541.441,878.5,0.7714
543.470,880.5,0.8175
545.469,882.5,0.5292
547.427,884.5,0.3124
549.411,886.5,0.2479
551.390,888.5,0.2074
553.409,890.5,0.3498
555.366,892.5,0.2847
557.360,894.5,0.4850
559.342,896.5,0.1563
561.331,898.5,0.1298
563.322,900.5,0.1865
565.320,902.5,0.1581
567.305,904.5,0.0404
569.315,906.5,-0.1327
571.281,908.5,-0.1776
573.287,910.5,0.0709
575.293,912.5,-0.2510
577.280,914.5,-0.1747
579.287,916.5,-0.1058
581.242,918.5,-0.1480
583.245,920.5,0.0068
585.232,922.5,-0.3416
587.246,924.5,-0.5138
589.211,926.5,-0.4770
591.220,928.5,-0.3149
593.219,930.5,-0.2595
595.212,932.5,-0.4184
597.191,934.5,-0.6723
598.695,936,-0.8018