File: Wood/Calibration_Data/NIST/NIST_Wood-char_MCC_O2-20_60K_R1.csv
Time (s),Temperature (K),HRR (W/g)
102.278,439,-1.7483
105.205,442,-1.3476
108.133,445,-1.0591
111.089,448,-0.9473
114.033,451,-0.3390
116.988,454,-0.1287
119.925,457,-0.0696
122.871,460,-0.0782
125.805,463,0.6018
128.743,466,0.0155
131.686,469,0.1853
134.628,472,1.5379
137.607,475,0.6685
140.550,478,0.5412
143.500,481,0.7872
146.441,484,1.1276
149.428,487,0.9380
152.404,490,1.4995
155.396,493,2.1140
158.341,496,2.3008
161.328,499,2.0788
164.318,502,2.5237
167.259,505,2.7740
170.262,508,3.1333
173.250,511,3.1340
176.235,514,3.7681
179.193,517,3.6676
182.187,520,4.1246
185.149,523,4.4203
188.153,526,4.3134
191.139,529,4.9040
194.135,532,5.2645
197.115,535,5.3588
200.094,538,5.8848
203.080,541,6.2464
206.076,544,6.9049
209.067,547,6.8212
212.086,550,7.5896
215.079,553,7.9923
218.027,556,8.9491
221.065,559,9.1533
224.032,562,9.6923
227.064,565,9.5728
230.055,568,11.1310
233.031,571,11.5224
236.051,574,11.5647
239.017,577,12.5704
242.006,580,13.0073
244.973,583,13.3816
247.999,586,14.4918
250.984,589,15.2513
253.976,592,15.7074
256.997,595,17.1324
259.973,598,18.1968
262.987,601,19.3488
265.979,604,20.3000
268.930,607,21.1886
271.933,610,22.5298
274.917,613,24.6243
277.899,616,25.7710
280.900,619,26.8900
283.872,622,29.6550
286.856,625,30.3048
289.823,628,32.7342
292.834,631,35.7606
295.800,634,38.2238
298.767,637,41.0143
301.744,640,44.4399
304.691,643,48.4744
307.657,646,53.3125
310.604,649,58.5705
313.556,652,64.4776
316.520,655,56.5516
319.488,658,84.3043
322.353,661,129.1570
325.189,664,301.6622
327.593,667,408.5611
329.747,670,428.6357
331.880,673,424.9772
334.117,676,414.6303
336.523,679,402.0921
339.187,682,381.8527
342.111,685,364.5163
345.222,688,340.7851
348.634,691,348.6050
352.204,694,355.8529
355.385,697,351.3717
358.612,700,360.8789
361.885,703,343.4367
365.064,706,317.5451
368.238,709,281.2468
371.459,712,251.7189
374.771,715,228.8750
378.110,718,271.2069
381.065,721,315.9346
383.904,724,330.3097
386.571,727,342.2606
389.483,730,311.6356
392.529,733,281.9146
395.759,736,252.9722
399.170,739,310.8472
402.051,742,303.4045
404.899,745,287.7807
407.909,748,245.3920
411.277,751,238.9353
414.249,754,235.2498
418.020,757,210.3421
421.143,760,182.3109
424.550,763,109.3617
428.264,766,17.5547
432.310,769,2.8445
435.905,772,2.1561
439.135,775,1.4588
442.275,778,1.4928
445.240,781,1.4630
448.157,784,1.1430
451.082,787,1.2024
453.987,790,1.2887
456.923,793,1.2474
459.861,796,0.6195
462.768,799,0.2413
465.710,802,0.2337
468.637,805,0.5069
471.609,808,0.1020
474.547,811,-0.2358
477.526,814,-0.4916
480.474,817,-0.5387
483.445,820,-0.5176
486.404,823,-0.6021
489.396,826,-0.5952
492.371,829,-0.4440
495.344,832,-0.3761
498.304,835,-0.5875
501.281,838,-0.5025
504.255,841,-0.6891
507.219,844,0.2418
510.179,847,-0.5450
513.190,850,0.1443
516.184,853,0.0373
519.130,856,-0.1888
522.102,859,-0.3424
525.102,862,-0.1837
528.070,865,0.1290
531.072,868,0.4935
534.073,871,0.0223
537.055,874,0.5226
540.022,877,0.1925
542.972,880,0.7108
545.997,883,0.3114
548.973,886,0.1525
551.956,889,0.2878
554.960,892,0.4052
557.978,895,0.0699
560.931,898,-0.1722
563.913,901,0.3188
566.914,904,0.6599
569.883,907,-0.1273
572.869,910,0.2670
575.888,913,0.5675
578.891,916,0.5114
581.879,919,0.1572
584.893,922,0.1192
587.845,925,0.0285
590.824,928,0.0170
593.808,931,0.2115
596.806,934,0.1962
599.775,937,0.0833
602.759,940,0.0619
605.753,943,0.3014
608.728,946,0.3478
611.717,949,0.1838
614.726,952,0.4933
617.718,955,0.1943
620.695,958,0.0461
623.679,961,0.0321
626.688,964,-0.0820
629.645,967,0.1307
632.626,970,-0.2961
635.615,973,-0.1905
638.622,976,0.0020
641.602,979,-0.1193
644.590,982,-0.2205
647.567,985,-0.1312
650.510,988,-0.0813
653.524,991,-0.2186
656.502,994,-0.2035
659.496,997,-0.1130
662.484,1000,-0.1541
665.446,1003,-0.1321
668.427,1006,-0.1364
671.415,1009,-0.4749
674.395,1012,-0.3089
677.362,1015,-0.2935
680.346,1018,-0.5191
683.364,1021,-0.2241
686.320,1024,-0.3387
689.273,1027,-0.1900
692.247,1030,-0.3018
695.232,1033,-0.2789
698.197,1036,-0.1996
701.186,1039,-0.0315
704.194,1042,-0.4636
707.116,1045,-0.1985
710.107,1048,-0.2908
713.109,1051,0.1578
716.069,1054,0.1950
719.050,1057,-0.3425
722.018,1060,-0.1007
724.982,1063,0.0234
727.908,1066,-0.0013
730.907,1069,0.4243
733.840,1072,0.5189
736.877,1075,0.3971
739.826,1078,-0.0754
742.809,1081,0.2659
745.814,1084,-0.4832
748.775,1087,-0.0446
751.748,1090,0.5644
754.764,1093,0.1104
757.752,1096,-0.0743
760.719,1099,-0.3579
763.702,1102,0.0047
766.681,1105,0.1114
769.663,1108,-0.2001
772.683,1111,-0.1815
775.667,1114,0.2153
778.645,1117,-0.3736
781.648,1120,0.1162
784.584,1123,0.7364
787.570,1126,0.3695
790.534,1129,0.5169
793.563,1132,-0.3133
796.613,1135,0.3477
799.617,1138,-0.0136
802.527,1141,0.0549
805.418,1144,0.4252
808.451,1147,0.3666
811.528,1150,0.5092
814.493,1153,0.6704
817.434,1156,0.1253
820.473,1159,0.3707
823.457,1162,0.3153
826.427,1165,-0.0920
829.462,1168,0.1433
832.404,1171,-0.2272
835.392,1174,-0.0426
838.349,1177,-0.0792
841.269,1180,0.2381
844.262,1183,0.2401
847.256,1186,0.4592
850.215,1189,0.5725
853.090,1192,0.6262
856.096,1195,0.1183
859.153,1198,-0.0218
862.084,1201,-0.0411
865.072,1204,-0.4557
868.072,1207,-0.7463
871.082,1210,-0.2052
874.002,1213,-0.4686
876.992,1216,-0.5590
879.961,1219,-0.4254
883.037,1222,-0.2657
886.194,1225,-0.3802
889.395,1228,-0.4629
892.700,1231,-0.8043
896.139,1234,-0.0417
899.767,1237,-0.1626
903.556,1240,0.3254
907.528,1243,0.2691
909.614,1244.5,0.5456