File: Wood/Calibration_Data/NIST/NIST_Wood_MCC_N2_60K_R10.csv
Time (s),Temperature (K),HRR (W/g)
56.260,391.5,0.1838
58.106,393.5,0.0314
59.956,395.5,-0.1052
61.779,397.5,-0.0264
63.692,399.5,0.1383
65.538,401.5,0.1728
67.445,403.5,0.1403
69.313,405.5,0.1336
71.219,407.5,-0.0544
73.090,409.5,0.0217
75.004,411.5,-0.2070
76.860,413.5,-0.2465
78.783,415.5,-0.1119
80.692,417.5,-0.0282
82.609,419.5,-0.1154
84.536,421.5,-0.0442
86.482,423.5,0.1738
88.439,425.5,0.0891
90.358,427.5,-0.1336
92.314,429.5,0.2836
94.228,431.5,-0.0953
96.186,433.5,0.0431
98.106,435.5,0.1603
100.078,437.5,0.3218
102.055,439.5,0.7826
104.009,441.5,0.8051
105.995,443.5,1.1418
107.968,445.5,1.3535
109.920,447.5,1.6971
111.871,449.5,1.9444
113.835,451.5,2.0997
115.779,453.5,2.4397
117.754,455.5,2.6267
119.706,457.5,3.0887
121.663,459.5,3.4626
123.625,461.5,3.9978
125.616,463.5,4.4466
127.602,465.5,4.8378
129.545,467.5,5.4188
131.532,469.5,5.7908
133.456,471.5,6.3206
135.445,473.5,6.9180
137.423,475.5,7.2376
139.360,477.5,7.9328
141.357,479.5,8.5215
143.316,481.5,9.0036
145.298,483.5,9.5649
147.281,485.5,10.0846
149.262,487.5,10.8201
151.254,489.5,11.3148
153.230,491.5,11.8948
155.226,493.5,12.2859
157.208,495.5,12.5282
159.168,497.5,12.8263
161.165,499.5,13.0652
163.145,501.5,13.1457
165.126,503.5,13.2494
167.117,505.5,13.1912
169.089,507.5,13.2220
171.104,509.5,12.9873
173.050,511.5,13.1436
175.098,513.5,13.2116
177.055,515.5,13.1217
179.039,517.5,13.4110
181.095,519.5,13.4489
183.036,521.5,13.4099
185.018,523.5,13.9170
187.032,525.5,14.1998
189.003,527.5,14.6687
191.027,529.5,15.1455
193.033,531.5,15.7499
194.961,533.5,16.4449
197.014,535.5,17.2033
199.015,537.5,17.9392
200.994,539.5,18.6508
202.991,541.5,19.3174
205.010,543.5,20.1208
206.973,545.5,20.7094
209.008,547.5,22.0548
211.027,549.5,22.6118
212.997,551.5,23.3502
214.989,553.5,24.3386
216.996,555.5,25.4341
218.961,557.5,26.4299
220.986,559.5,27.5613
222.972,561.5,28.5687
224.991,563.5,29.4485
226.959,565.5,30.7149
228.977,567.5,32.0342
230.985,569.5,33.2237
233.000,571.5,34.4797
234.987,573.5,35.8130
237.004,575.5,36.9239
238.984,577.5,38.1623
240.968,579.5,39.5415
242.998,581.5,40.9502
244.977,583.5,42.4452
246.965,585.5,44.1010
249.018,587.5,45.5061
251.009,589.5,47.1358
253.000,591.5,48.7709
255.008,593.5,50.6296
256.995,595.5,52.4612
259.010,597.5,54.6330
260.975,599.5,56.6207
262.983,601.5,58.5333
265.026,603.5,60.7227
267.005,605.5,62.7910
268.982,607.5,65.2782
270.992,609.5,67.7991
273.022,611.5,70.1424
275.018,613.5,72.3163
277.015,615.5,74.4268
278.994,617.5,76.8043
281.011,619.5,79.0050
283.009,621.5,81.1822
285.010,623.5,83.3495
287.014,625.5,85.2323
289.019,627.5,87.4733
291.021,629.5,89.5902
293.029,631.5,91.5160
295.040,633.5,93.5592
297.067,635.5,95.8502
299.050,637.5,98.0294
301.042,639.5,100.4442
303.046,641.5,103.1374
305.064,643.5,105.7620
307.067,645.5,108.7008
309.089,647.5,112.1356
311.084,649.5,115.9338
313.080,651.5,119.8019
315.127,653.5,124.1942
317.133,655.5,128.5474
319.125,657.5,133.1331
321.145,659.5,137.4344
323.126,661.5,141.5142
325.159,663.5,144.8943
327.173,665.5,147.0968
329.174,667.5,148.0432
331.176,669.5,146.7209
333.174,671.5,142.9529
335.185,673.5,136.3007
337.189,675.5,126.8748
339.182,677.5,114.6508
341.188,679.5,100.2636
343.170,681.5,84.7238
345.146,683.5,69.5125
347.133,685.5,55.8024
349.124,687.5,44.4628
351.117,689.5,35.2353
353.086,691.5,28.6807
355.095,693.5,24.0803
357.073,695.5,21.1228
359.041,697.5,19.1709
361.047,699.5,17.6016
363.055,701.5,16.5349
365.062,703.5,15.4675
367.062,705.5,14.7843
369.049,707.5,14.0474
371.059,709.5,13.6990
373.057,711.5,12.7945
375.069,713.5,12.1741
377.061,715.5,11.5581
379.087,717.5,11.2504
381.051,719.5,10.9952
383.086,721.5,10.5330
385.118,723.5,10.0097
387.101,725.5,9.6831
389.093,727.5,9.2660
391.096,729.5,8.8845
393.119,731.5,8.4626
395.143,733.5,7.8989
397.131,735.5,7.6198
399.147,737.5,7.1747
401.154,739.5,6.7747
403.178,741.5,6.3061
405.167,743.5,5.9283
407.134,745.5,5.4237
409.133,747.5,5.2358
411.159,749.5,4.7222
413.170,751.5,4.3451
415.188,753.5,4.0903
417.173,755.5,3.7843
419.216,757.5,3.4228
421.202,759.5,3.1776
423.208,761.5,2.9637
425.223,763.5,2.8033
427.224,765.5,2.5359
429.227,767.5,2.2609
431.224,769.5,2.1677
433.236,771.5,2.1315
435.260,773.5,1.9441
437.237,775.5,1.8191
439.275,777.5,1.6853
441.272,779.5,1.4714
443.281,781.5,1.3331
445.280,783.5,1.2440
447.268,785.5,1.0876
449.273,787.5,0.9872
451.284,789.5,1.0221
453.284,791.5,1.0242
455.301,793.5,0.8452
457.306,795.5,0.7692
459.314,797.5,0.5449
461.308,799.5,0.5556
463.276,801.5,0.4977
465.296,803.5,0.6180
467.298,805.5,0.5773
469.333,807.5,0.5122
471.313,809.5,0.4369
473.328,811.5,0.2900
475.341,813.5,0.1035
477.329,815.5,0.2343
479.345,817.5,0.1113
481.345,819.5,0.2374
483.356,821.5,0.2524
485.361,823.5,0.1098
487.348,825.5,-0.0464
489.362,827.5,-0.0963
491.350,829.5,-0.1551
493.360,831.5,-0.0157
495.376,833.5,0.1617
497.359,835.5,0.0268
499.362,837.5,0.0195
501.395,839.5,0.1246
503.372,841.5,-0.0538
505.351,843.5,-0.0375
507.380,845.5,0.0094
509.373,847.5,0.0804
511.351,849.5,0.0107
513.336,851.5,0.0586
515.360,853.5,0.0646
517.353,855.5,-0.0167
519.347,857.5,-0.0885
521.343,859.5,0.0210
523.364,861.5,-0.1120
525.337,863.5,0.0221
527.359,865.5,-0.0851
529.382,867.5,0.0158
531.345,869.5,-0.0733
533.344,871.5,-0.0967
535.350,873.5,-0.0778
537.347,875.5,-0.0126
539.352,877.5,-0.1378
541.348,879.5,-0.0575
543.368,881.5,-0.0898
545.333,883.5,-0.1374
547.351,885.5,-0.0836
549.333,887.5,-0.0480
551.346,889.5,0.0502
553.353,891.5,-0.0316
555.351,893.5,-0.2285
557.369,895.5,-0.2432
559.359,897.5,-0.0494
561.324,899.5,0.0119
563.310,901.5,0.0868
565.306,903.5,-0.0904
567.287,905.5,-0.0604
569.275,907.5,0.1726
571.285,909.5,0.0032
573.269,911.5,-0.1501
575.282,913.5,-0.0678
577.302,915.5,0.1085
579.290,917.5,0.0808
581.257,919.5,0.0242
583.280,921.5,0.0234
585.275,923.5,0.0851
587.246,925.5,0.1562
589.253,927.5,0.1607
591.232,929.5,0.0909
593.225,931.5,0.0648
595.233,933.5,0.0380
597.224,935.5,-0.0102
597.733,936,0.0182