File: Wood/Calibration_Data/NIST/NIST_Wood_MCC_N2_60K_R12.csv
Time (s),Temperature (K),HRR (W/g)
58.199,393,0.0444
60.057,395,-0.1732
61.910,397,-0.0808
63.760,399,0.1280
65.618,401,0.2108
67.507,403,0.0529
69.413,405,-0.0026
71.262,407,0.0320
73.157,409,-0.0192
75.057,411,-0.0836
76.944,413,-0.0714
78.870,415,-0.1321
80.766,417,-0.0350
82.669,419,-0.0528
84.610,421,-0.0333
86.536,423,0.2383
88.447,425,0.4895
90.396,427,0.3102
92.354,429,0.3632
94.315,431,0.4613
96.239,433,0.6177
98.204,435,0.7521
100.169,437,0.9527
102.118,439,1.0525
104.048,441,1.3267
106.037,443,1.5740
108.014,445,1.6212
109.984,447,1.8413
111.920,449,1.8402
113.910,451,2.0224
115.859,453,2.4447
117.828,455,2.6641
119.771,457,2.6713
121.727,459,2.9528
123.715,461,3.3829
125.669,463,3.7098
127.640,465,4.2538
129.634,467,4.4240
131.581,469,4.8935
133.566,471,5.3369
135.509,473,5.7597
137.496,475,6.2818
139.466,477,6.8456
141.451,479,7.2225
143.393,481,7.8102
145.369,483,8.3206
147.356,485,8.8993
149.327,487,9.3731
151.315,489,9.8097
153.283,491,10.3019
155.263,493,10.6996
157.234,495,11.2486
159.227,497,11.4344
161.221,499,11.7384
163.204,501,11.7909
165.171,503,11.9301
167.167,505,12.1091
169.159,507,12.0460
171.163,509,12.0213
173.158,511,12.1810
175.129,513,12.3857
177.123,515,12.3871
179.124,517,12.5513
181.116,519,12.7811
183.101,521,12.9079
185.063,523,13.0383
187.084,525,13.5985
189.069,527,14.1965
191.077,529,14.6429
193.098,531,15.1705
195.041,533,15.6086
197.063,535,16.5291
199.053,537,17.2495
201.029,539,17.8848
203.042,541,18.5585
205.035,543,19.3416
207.008,545,20.1215
209.027,547,21.0130
211.017,549,21.8373
213.038,551,22.8232
215.053,553,23.7116
217.026,555,24.4678
219.018,557,25.6054
221.009,559,26.6077
223.021,561,27.7753
225.026,563,29.0083
227.014,565,30.1537
229.013,567,31.2285
230.997,569,32.5044
233.033,571,33.6715
235.012,573,34.7856
237.006,575,36.0638
238.994,577,37.4480
241.019,579,38.9625
243.003,581,40.2271
245.046,583,41.6499
247.007,585,43.2370
249.010,587,44.7543
250.999,589,46.4567
253.005,591,47.8746
255.006,593,49.5749
257.025,595,51.3079
259.012,597,53.1795
261.026,599,55.2777
263.013,601,57.4529
265.007,603,59.5680
267.023,605,61.8906
269.004,607,63.9936
270.975,609,66.2105
273.034,611,68.7296
275.014,613,71.0602
276.994,615,73.3601
279.012,617,75.8312
281.012,619,77.9409
283.014,621,80.0938
284.997,623,82.4207
287.011,625,84.4866
289.011,627,86.5600
291.011,629,88.6146
293.041,631,90.8297
295.041,633,92.8913
297.051,635,95.0429
299.054,637,97.0398
301.039,639,99.3520
303.056,641,101.8819
305.043,643,104.6932
307.070,645,107.5970
309.051,647,110.7048
311.053,649,114.1015
313.038,651,118.0345
315.071,653,122.2177
317.086,655,126.4850
319.053,657,130.9572
321.075,659,135.6810
323.104,661,140.0361
325.097,663,143.6543
327.119,665,146.5708
329.155,667,148.2368
331.127,669,147.8020
333.127,671,145.5622
335.165,673,140.3018
337.167,675,132.0109
339.163,677,121.0637
341.131,679,107.7872
343.141,681,92.3956
345.139,683,76.4991
347.107,685,61.8054
349.082,687,49.0843
351.055,689,38.9577
353.034,691,31.4101
355.040,693,25.9694
357.023,695,22.3237
359.010,697,19.9060
361.018,699,18.0800
362.998,701,16.8048
365.009,703,15.7740
367.023,705,15.1243
369.033,707,14.4809
370.999,709,13.8481
373.031,711,13.2492
375.077,713,12.7026
377.038,715,12.1495
379.025,717,11.7100
381.054,719,11.0816
383.026,721,10.6459
385.020,723,10.3702
387.051,725,9.9375
389.055,727,9.4089
391.083,729,9.1923
393.108,731,8.7878
395.112,733,8.3871
397.116,735,7.9977
399.119,737,7.6378
401.115,739,7.2753
403.144,741,6.7549
405.123,743,6.4512
407.130,745,5.9712
409.138,747,5.4709
411.127,749,5.1852
413.140,751,4.9027
415.166,753,4.6205
417.203,755,4.2291
419.201,757,3.7833
421.201,759,3.5590
423.172,761,3.2238
425.213,763,2.9941
427.222,765,2.7233
429.209,767,2.5245
431.201,769,2.4188
433.230,771,2.2582
435.231,773,2.0515
437.257,775,1.8777
439.274,777,1.6820
441.281,779,1.4492
443.275,781,1.4199
445.261,783,1.3989
447.284,785,1.2250
449.251,787,1.1034
451.267,789,1.0198
453.255,791,1.0235
455.256,793,0.9078
457.297,795,0.7912
459.274,797,0.7121
461.286,799,0.5039
463.298,801,0.5044
465.290,803,0.3568
467.296,805,0.4616
469.286,807,0.2966
471.276,809,0.3037
473.286,811,0.4942
475.301,813,0.3316
477.311,815,0.1803
479.298,817,0.1469
481.309,819,0.0519
483.286,821,0.0483
485.291,823,0.0989
487.322,825,-0.0002
489.301,827,0.0545
491.302,829,0.0117
493.309,831,-0.0261
495.304,833,0.0999
497.283,835,0.0636
499.285,837,-0.0934
501.298,839,-0.0231
503.297,841,0.0641
505.296,843,-0.0685
507.285,845,-0.1457
509.287,847,-0.0325
511.271,849,-0.0131
513.275,851,0.0050
515.280,853,0.0292
517.288,855,0.1401
519.273,857,0.0388
521.272,859,-0.0341
523.293,861,-0.0959
525.270,863,-0.1087
527.279,865,0.0293
529.267,867,0.0648
531.275,869,0.0357
533.269,871,-0.0686
535.254,873,-0.0948
537.278,875,0.0147
539.267,877,-0.0149
541.250,879,-0.0238
543.292,881,0.0148
545.256,883,-0.0249
547.267,885,-0.0499
549.252,887,-0.0145
551.234,889,0.0363
553.258,891,0.0269
555.244,893,0.0775
557.248,895,0.0669
559.243,897,0.0220
561.249,899,0.1034
563.234,901,0.0855
565.238,903,-0.0162
567.228,905,-0.0035
569.237,907,-0.0820
571.189,909,-0.0520
573.173,911,-0.0581
575.195,913,-0.0239
577.188,915,-0.0478
579.180,917,-0.0671
581.171,919,-0.0410
583.184,921,-0.0129
585.157,923,0.0959
587.173,925,-0.0263
589.154,927,0.0020
591.155,929,0.0006
593.144,931,0.1084
595.181,933,0.0679
597.138,935,0.0343
598.149,936,0.0725