File: Wood/Calibration_Data/NIST/NIST_Wood_MCC_O2-20_60K_R2.csv
Time (s),Temperature (K),HRR (W/g)
59.847,395.5,-0.4617
62.189,398,-0.7233
64.520,400.5,-0.5910
66.874,403,-0.6753
69.205,405.5,-0.8845
71.600,408,-0.9118
73.950,410.5,-0.9439
76.324,413,-0.9312
78.707,415.5,-0.8077
81.091,418,-0.7658
83.508,420.5,-0.7411
85.920,423,-0.8279
88.341,425.5,-0.7360
90.750,428,-0.4383
93.187,430.5,-0.3808
95.624,433,-0.2780
98.055,435.5,-0.1152
100.486,438,-0.0589
102.964,440.5,0.0500
105.394,443,0.2957
107.846,445.5,0.7739
110.322,448,0.9133
112.767,450.5,1.3698
115.233,453,1.6513
117.662,455.5,1.9215
120.142,458,2.3923
122.590,460.5,2.5877
125.004,463,3.0829
127.507,465.5,3.4696
129.989,468,3.8307
132.416,470.5,4.1643
134.895,473,4.5789
137.347,475.5,5.2846
139.807,478,5.9543
142.266,480.5,6.4225
144.753,483,6.7502
147.223,485.5,7.3603
149.707,488,7.8712
152.213,490.5,8.5088
154.680,493,8.8946
157.130,495.5,9.3430
159.631,498,9.5113
162.100,500.5,9.6850
164.582,503,10.0157
167.039,505.5,10.2994
169.556,508,10.5956
172.052,510.5,10.8893
174.544,513,11.2568
177.035,515.5,11.7765
179.535,518,12.3257
182.007,520.5,13.0962
184.490,523,13.7088
186.941,525.5,14.6127
189.452,528,15.6638
191.955,530.5,16.6838
194.482,533,17.7391
196.983,535.5,19.0207
199.416,538,20.3135
201.922,540.5,21.7624
204.419,543,23.3643
206.900,545.5,24.7930
209.373,548,26.5609
211.874,550.5,28.1732
214.387,553,29.9954
216.869,555.5,31.9810
219.334,558,34.0377
221.817,560.5,36.1162
224.312,563,38.3110
226.797,565.5,40.6569
229.275,568,43.1823
231.776,570.5,45.5836
234.281,573,48.2896
236.747,575.5,51.2003
239.220,578,54.0151
241.689,580.5,57.4554
244.179,583,60.7408
246.647,585.5,64.7391
249.131,588,68.6779
251.597,590.5,73.1010
254.062,593,77.7693
256.536,595.5,82.9923
259.002,598,88.5106
261.467,600.5,94.4484
263.916,603,100.8398
266.387,605.5,107.6205
268.856,608,115.4399
271.305,610.5,124.2954
273.797,613,134.9906
276.254,615.5,147.5492
278.713,618,162.0202
281.185,620.5,176.8915
283.640,623,190.7400
286.083,625.5,201.1407
288.522,628,205.4951
290.978,630.5,202.4078
293.376,633,192.1095
295.803,635.5,175.0243
298.182,638,154.2104
300.562,640.5,132.1172
302.948,643,112.0390
305.357,645.5,94.7706
307.789,648,81.3790
310.260,650.5,71.2112
312.747,653,63.9521
315.316,655.5,58.6205
317.867,658,54.7065
320.512,660.5,51.8626
323.084,663,49.2957
325.730,665.5,47.3772
328.351,668,45.6423
330.968,670.5,44.3816
333.576,673,43.0349
336.156,675.5,42.0012
338.687,678,41.4891
341.257,680.5,40.9171
343.776,683,40.8926
346.286,685.5,40.8772
348.797,688,40.9792
351.343,690.5,41.4116
353.841,693,42.2941
356.363,695.5,43.4011
358.817,698,37.6034
361.279,700.5,41.8985
363.715,703,51.0074
366.129,705.5,69.8274
368.475,708,118.3918
370.452,710.5,146.5852
372.398,713,154.8109
374.424,715.5,155.7375
376.505,718,153.4102
378.665,720.5,150.3810
380.911,723,146.0810
383.297,725.5,136.0142
386.091,728,134.3792
388.661,730.5,133.5301
391.312,733,118.3467
394.204,735.5,108.9563
396.545,738,94.3132
399.933,740.5,64.6574
403.032,743,32.5646
406.539,745.5,4.1607
410.078,748,-0.1356
413.253,750.5,-0.5274
416.116,753,-0.5910
418.762,755.5,-0.5368
421.346,758,-0.6626
423.855,760.5,-0.5593
426.306,763,-0.5188
428.739,765.5,-0.5905
431.181,768,-0.4163
433.614,770.5,-0.3410
436.065,773,-0.4797
438.509,775.5,-0.4652
440.955,778,-0.3344
443.422,780.5,-0.3962
445.853,783,-0.4301
448.298,785.5,-0.4441
450.741,788,-0.4389
453.205,790.5,-0.5164
455.699,793,-0.5178
458.154,795.5,-0.4686
460.643,798,-0.6052
463.092,800.5,-0.5570
465.560,803,-0.6060
468.029,805.5,-0.5735
470.517,808,-0.6978
473.029,810.5,-0.6798
475.529,813,-0.5353
478.007,815.5,-0.5481
480.482,818,-0.2935
482.967,820.5,-0.0492
485.440,823,-0.4167
487.920,825.5,-0.3879
490.395,828,-0.2566
492.882,830.5,-0.1430
495.370,833,-0.0935
497.857,835.5,0.0568
500.341,838,0.0531
502.847,840.5,0.1395
505.332,843,0.0810
507.843,845.5,0.0955
510.306,848,0.1929
512.808,850.5,0.1452
515.318,853,0.0491
517.811,855.5,0.1515
520.319,858,0.1655
522.798,860.5,0.2830
525.300,863,0.3118
527.789,865.5,0.3583
530.252,868,0.2813
532.767,870.5,0.3194
535.280,873,0.3483
537.752,875.5,0.3765
540.249,878,0.3463
542.724,880.5,0.4689
545.233,883,0.3314
547.718,885.5,0.3385
550.200,888,0.3990
552.695,890.5,0.3251
555.209,893,0.3850
557.716,895.5,0.3737
560.199,898,0.4507
562.666,900.5,0.3339
565.158,903,0.3203
567.644,905.5,0.3760
570.146,908,0.3160
572.646,910.5,0.4589
575.126,913,0.3884
577.632,915.5,0.4986
580.112,918,0.5028
582.616,920.5,0.4134
585.136,923,0.5091
587.601,925.5,0.5268
590.093,928,0.4534
592.601,930.5,0.4217
595.071,933,0.4807
597.579,935.5,0.4813
600.067,938,0.2960
602.554,940.5,0.4304
605.019,943,0.4137
607.517,945.5,0.3728
609.983,948,0.2290
612.452,950.5,0.3387
614.940,953,0.2667
617.466,955.5,0.2172
619.955,958,0.5485
622.458,960.5,0.2402
624.926,963,0.2558
627.397,965.5,0.2211
629.895,968,0.2359
632.360,970.5,0.1594
634.838,973,0.1241
637.349,975.5,-0.0233
639.844,978,0.0732
642.323,980.5,0.0917
644.804,983,0.1827
647.310,985.5,0.2802
649.792,988,0.1565
652.285,990.5,0.2000
654.778,993,0.1413
657.288,995.5,-0.1152
659.743,998,0.0060
662.214,1000.5,-0.1072
664.691,1003,-0.1457
667.215,1005.5,-0.2812
669.693,1008,-0.3440
672.182,1010.5,-0.5221
674.646,1013,-0.4604
677.134,1015.5,-0.4620
679.616,1018,-0.3065
682.117,1020.5,-0.6878
684.584,1023,-0.6762
687.071,1025.5,-0.5674
689.529,1028,-0.6381
692.047,1030.5,-0.6781
694.580,1033,-0.7404
697.016,1035.5,-0.8274
697.486,1036,-0.7236