File: Wood/Calibration_Data/NIST/NIST_Wood-char_MCC_O2-20_60K_R2.csv
Time (s),Temperature (K),HRR (W/g)
101.880,438,-0.3763
103.856,440,-0.3644
105.826,442,-0.9727
107.785,444,-0.6666
109.757,446,-0.2278
111.724,448,0.0681
113.709,450,0.3003
115.644,452,0.3469
117.625,454,0.2090
119.576,456,0.0131
121.564,458,-0.0539
123.524,460,-0.1844
125.460,462,0.0355
127.423,464,-0.0777
129.420,466,0.5482
131.389,468,0.4527
133.369,470,0.1743
135.335,472,0.4928
137.300,474,0.3689
139.249,476,0.3707
141.220,478,0.2153
143.200,480,0.1388
145.150,482,-0.0912
147.155,484,0.2295
149.105,486,0.0207
151.117,488,0.1180
153.111,490,0.1365
155.094,492,0.4388
157.051,494,0.3140
159.019,496,0.2650
161.000,498,0.8034
163.029,500,0.4825
164.975,502,0.6985
166.976,504,0.9054
168.938,506,1.0262
170.951,508,1.4109
172.951,510,1.2256
174.926,512,1.5634
176.909,514,1.6458
178.918,516,1.3268
180.902,518,1.5181
182.901,520,1.5490
184.883,522,1.8971
186.872,524,2.0476
188.898,526,2.2036
190.884,528,2.4470
192.874,530,2.2147
194.885,532,1.9949
196.871,534,2.3540
198.842,536,2.8144
200.854,538,3.1883
202.855,540,3.8283
204.839,542,3.7204
206.844,544,4.0291
208.824,546,4.1758
210.829,548,4.3898
212.837,550,5.0252
214.838,552,5.4122
216.838,554,5.3743
218.846,556,6.0511
220.806,558,6.2412
222.781,560,6.5029
224.796,562,6.5682
226.790,564,6.9870
228.783,566,7.2497
230.784,568,7.3050
232.767,570,8.0330
234.778,572,8.3153
236.784,574,8.7484
238.776,576,9.6478
240.779,578,9.3803
242.748,580,9.7218
244.740,582,10.5546
246.750,584,10.7653
248.739,586,11.7100
250.725,588,12.3516
252.733,590,12.6863
254.728,592,13.4806
256.751,594,14.4189
258.722,596,14.6863
260.709,598,15.1446
262.715,600,15.8125
264.704,602,16.7927
266.705,604,17.8495
268.696,606,18.5152
270.676,608,19.3786
272.683,610,19.9000
274.687,612,20.9732
276.673,614,22.1840
278.664,616,24.4837
280.651,618,24.1502
282.624,620,24.8641
284.604,622,26.7281
286.606,624,28.1619
288.604,626,29.6601
290.559,628,31.2428
292.538,630,32.4128
294.555,632,34.8098
296.555,634,36.6923
298.498,636,39.2862
300.511,638,41.5221
302.481,640,44.2435
304.439,642,47.5173
306.420,644,50.7483
308.409,646,55.6324
310.368,648,53.5333
312.325,650,45.4131
314.298,652,62.0106
316.253,654,82.1828
318.210,656,118.1336
320.107,658,228.0046
321.962,660,372.3925
323.506,662,439.3966
325.001,664,464.0409
326.390,666,469.5206
327.784,668,468.0287
329.179,670,463.4169
330.683,672,457.9958
332.262,674,451.6608
333.909,676,443.1086
335.703,678,431.1451
337.576,680,419.7155
339.541,682,404.9123
341.624,684,387.9769
343.794,686,382.7012
346.076,688,388.9133
348.500,690,388.5276
350.833,692,393.7533
353.039,694,397.8200
355.134,696,405.1757
357.121,698,396.2769
359.121,700,371.1779
361.113,702,348.3280
363.223,704,319.8777
365.440,706,301.4480
367.699,708,320.5838
369.931,710,331.6224
372.137,712,327.0182
374.254,714,327.6451
376.370,716,346.3040
378.677,718,357.1787
380.657,720,347.9453
382.580,722,333.9377
384.447,724,318.0118
386.353,726,299.5319
388.488,728,298.6506
390.567,730,320.5517
392.642,732,316.1334
394.627,734,299.8207
396.786,736,274.9470
399.093,738,236.3784
401.339,740,235.4939
403.312,742,248.4395
405.001,744,218.4321
407.492,746,126.2076
410.338,748,32.9909
413.218,750,7.4004
415.962,752,3.3833
418.424,754,2.6987
420.747,756,2.4868
422.892,758,2.4910
425.020,760,1.8623
426.999,762,1.8171
429.021,764,2.2198
431.015,766,2.3669
432.938,768,2.1365
434.912,770,1.9087
436.840,772,1.9246
438.782,774,2.0147
440.746,776,1.7752
442.711,778,1.3159
444.651,780,1.2677
446.568,782,0.8982
448.525,784,0.9742
450.488,786,0.9297
452.449,788,0.4266
454.406,790,0.6002
456.379,792,0.4413
458.344,794,0.3252
460.335,796,0.1507
462.273,798,0.2709
464.246,800,0.0334
466.218,802,-0.3101
468.212,804,-0.5101
470.172,806,-0.6701
472.164,808,-0.6522
474.111,810,-0.6924
476.123,812,-0.7108
478.101,814,-0.2014
480.078,816,-0.4159
482.064,818,-0.5235
484.033,820,-0.3852
486.009,822,-0.4030
487.982,824,-0.2962
489.935,826,-0.6432
491.988,828,-0.2380
493.957,830,0.0489
495.923,832,-0.0654
497.952,834,-0.3000
499.951,836,-0.1728
501.923,838,0.2105
503.920,840,0.2709
505.897,842,0.2090
507.909,844,0.2156
509.879,846,-0.0413
511.858,848,0.1195
513.847,850,0.3059
515.843,852,0.5746
517.833,854,0.6242
519.844,856,0.6878
521.853,858,0.1988
523.812,860,0.1845
525.793,862,0.5829
527.789,864,0.3232
529.798,866,0.6082
531.776,868,0.4549
533.777,870,0.4549
535.761,872,0.6300
537.771,874,0.4367
539.761,876,0.5594
541.753,878,0.2326
543.752,880,-0.0858
545.736,882,0.3376
547.709,884,0.4994
549.710,886,0.2366
551.700,888,0.4036
553.687,890,-0.1339
555.676,892,0.2396
557.668,894,0.1126
559.704,896,0.0716
561.641,898,0.0194
563.648,900,-0.0190
565.642,902,-0.2422
567.638,904,-0.0535
569.627,906,-0.1468
571.621,908,0.2181
573.568,910,0.2807
575.597,912,0.0403
577.592,914,0.3581
579.617,916,0.0572
581.634,918,-0.0446
583.576,920,-0.2902
585.524,922,-0.5715
587.567,924,-0.3714
589.553,926,0.0081
591.539,928,-0.3939
593.564,930,-0.4079
595.519,932,-0.8161
597.536,934,-0.4618
599.458,936,-0.5931