File: Wood/Calibration_Data/NIST/NIST_Wood_MCC_N2_60K_R9.csv
Time (s),Temperature (K),HRR (W/g)
74.089,410,-0.0276
75.967,412,0.0514
77.910,414,-0.0189
79.804,416,0.0142
81.726,418,-0.0030
83.655,420,0.0252
85.588,422,0.0070
87.499,424,-0.0078
89.453,426,-0.0826
91.388,428,-0.0349
93.308,430,0.0284
95.262,432,0.0272
97.185,434,0.0483
99.150,436,0.1710
101.094,438,0.4353
103.091,440,0.5055
105.021,442,0.6017
106.980,444,0.6406
108.936,446,0.7977
110.917,448,0.9610
112.863,450,1.0059
114.825,452,1.1865
116.804,454,1.1951
118.717,456,1.3734
120.710,458,1.5734
122.671,460,1.7937
124.633,462,1.9162
126.601,464,2.1112
128.596,466,2.3298
130.547,468,2.4519
132.479,470,2.6983
134.461,472,2.9526
136.445,474,3.2836
138.377,476,3.5041
140.350,478,3.7564
142.343,480,4.2113
144.320,482,4.5219
146.273,484,4.8281
148.285,486,5.1805
150.288,488,5.6392
152.229,490,6.1392
154.220,492,6.5348
156.186,494,6.9615
158.200,496,7.5109
160.129,498,8.0391
162.147,500,8.4990
164.114,502,8.9862
166.110,504,9.6093
168.092,506,10.1547
170.114,508,10.6194
172.087,510,11.0688
174.082,512,11.5837
176.056,514,12.0280
178.043,516,12.4592
180.057,518,12.7283
182.004,520,12.9962
184.006,522,13.3507
186.012,524,13.5960
187.994,526,13.8537
190.009,528,13.9861
192.011,530,14.1847
194.019,532,14.4244
196.009,534,14.6807
197.963,536,14.9701
199.963,538,15.2634
201.968,540,15.5330
203.944,542,15.9608
205.954,544,16.3015
207.926,546,16.6714
209.940,548,17.1197
211.937,550,17.6307
213.927,552,18.2128
215.914,554,18.8102
217.939,556,19.5942
219.938,558,20.3484
221.886,560,21.1754
223.875,562,22.1504
225.907,564,23.1265
227.890,566,24.1517
229.904,568,25.3451
231.896,570,26.4558
233.913,572,27.6139
235.934,574,28.9060
237.890,576,30.2295
239.870,578,31.6729
241.876,580,33.1611
243.888,582,34.7090
245.869,584,36.3841
247.897,586,38.2046
249.894,588,40.0299
251.912,590,41.9714
253.942,592,44.0616
255.913,594,46.1335
257.901,596,48.2380
259.882,598,50.4102
261.903,600,52.6196
263.887,602,54.9491
265.888,604,57.3513
267.879,606,59.7492
269.906,608,62.1852
271.935,610,64.5643
273.958,612,66.8789
275.917,614,69.2157
277.938,616,71.5448
279.937,618,73.7865
281.942,620,75.9466
283.952,622,78.0613
285.913,624,80.0958
287.935,626,82.2278
289.960,628,84.2637
291.958,630,86.1573
293.983,632,88.1221
295.976,634,90.0879
297.992,636,92.1178
299.983,638,94.2510
301.985,640,96.4106
303.989,642,98.8348
305.977,644,101.3157
307.994,646,104.1260
309.994,648,107.1712
312.041,650,110.5228
314.029,652,114.0351
316.067,654,117.8547
318.072,656,121.6548
320.059,658,125.4710
322.070,660,129.2317
324.102,662,132.7556
326.106,664,135.7275
328.141,666,137.8154
330.145,668,138.9158
332.145,670,138.5925
334.123,672,136.5223
336.177,674,132.2704
338.163,676,125.8549
340.150,678,117.0586
342.119,680,106.0956
344.070,682,93.5515
346.067,684,79.7560
348.022,686,66.5247
349.974,688,54.4591
351.974,690,44.3181
353.921,692,36.6707
355.865,694,30.9998
357.809,696,27.0290
359.784,698,24.2118
361.784,700,22.2237
363.784,702,20.6911
365.777,704,19.3879
367.786,706,18.1269
369.772,708,16.9854
371.769,710,16.0420
373.804,712,15.2859
375.810,714,14.5140
377.828,716,13.8411
379.838,718,13.2360
381.844,720,12.5699
383.846,722,11.8469
385.848,724,11.3648
387.840,726,10.8332
389.845,728,10.3730
391.881,730,9.9318
393.880,732,9.4257
395.933,734,8.9919
397.938,736,8.6289
399.952,738,8.0819
401.932,740,7.6333
403.947,742,7.1425
405.930,744,6.7864
407.939,746,6.3827
409.944,748,5.9232
411.981,750,5.5619
413.965,752,5.1872
415.994,754,4.8326
418.005,756,4.4989
420.050,758,4.1265
422.041,760,3.8592
424.013,762,3.5766
426.045,764,3.2787
428.041,766,3.0367
430.045,768,2.8418
432.052,770,2.6310
434.064,772,2.4487
436.083,774,2.2506
438.076,776,2.1592
440.125,778,1.9067
442.092,780,1.7516
444.108,782,1.6664
446.100,784,1.5596
448.104,786,1.4108
450.090,788,1.3404
452.106,790,1.2579
454.117,792,1.1506
456.110,794,1.1121
458.119,796,1.0824
460.132,798,0.9853
462.135,800,0.8988
464.117,802,0.8750
466.112,804,0.8319
468.129,806,0.7496
470.134,808,0.6715
472.131,810,0.6289
474.121,812,0.6615
476.141,814,0.6020
478.159,816,0.5823
480.155,818,0.5135
482.173,820,0.4922
484.141,822,0.4362
486.163,824,0.4253
488.163,826,0.3797
490.155,828,0.3390
492.148,830,0.3106
494.163,832,0.2772
496.165,834,0.2287
498.178,836,0.1594
500.181,838,0.1999
502.183,840,0.1773
504.178,842,0.1603
506.170,844,0.0910
508.181,846,0.0622
510.188,848,0.0601
512.172,850,0.0609
514.186,852,0.0703
516.189,854,0.0433
518.186,856,-0.0175
520.202,858,0.0267
522.198,860,0.0198
524.181,862,-0.0485
526.165,864,-0.0065
528.198,866,-0.0104
530.194,868,-0.0573
532.225,870,-0.0359
534.193,872,-0.0218
536.202,874,-0.0317
538.205,876,-0.0316
540.196,878,-0.0607
542.185,880,-0.0428
544.172,882,-0.0557
546.174,884,-0.0337
548.161,886,-0.0316
550.183,888,-0.0956
552.142,890,-0.1170
554.162,892,0.0317
556.183,894,0.0212
558.167,896,0.0475
560.147,898,0.0170
562.142,900,-0.0095
564.120,902,0.0448
566.131,904,0.0315
568.137,906,0.0678
570.111,908,0.0337
572.122,910,0.0392
574.101,912,0.0159
576.099,914,0.0155
578.118,916,0.0049
580.104,918,0.0405
582.112,920,-0.0196
584.071,922,-0.0336
586.068,924,0.0227
588.074,926,-0.0029
590.067,928,-0.0359
592.047,930,-0.0124
594.046,932,0.0281
596.069,934,-0.0107
598.029,936,-0.0460