File: Wood/Calibration_Data/NIST/NIST_Wood_MCC_N2_60K_R5.csv
Time (s),Temperature (K),HRR (W/g)
72.820,409,0.0887
74.716,411,-0.0763
76.600,413,-0.0508
78.496,415,0.0043
80.384,417,-0.0156
82.310,419,-0.0310
84.239,421,0.0459
86.163,423,0.0884
88.098,425,-0.0149
90.012,427,0.0845
91.985,429,0.1868
93.911,431,0.2522
95.866,433,0.3242
97.831,435,0.3672
99.771,437,0.4283
101.734,439,0.4856
103.709,441,0.5645
105.669,443,0.6218
107.648,445,0.6376
109.601,447,0.6983
111.513,449,0.8773
113.532,451,0.9371
115.453,453,1.0386
117.407,455,1.0841
119.411,457,1.1990
121.330,459,1.3824
123.326,461,1.6080
125.286,463,1.7486
127.276,465,2.0155
129.224,467,2.2362
131.197,469,2.3567
133.181,471,2.6773
135.150,473,2.8383
137.121,475,3.1252
139.086,477,3.5469
141.082,479,3.8166
143.046,481,4.1969
145.006,483,4.6273
147.034,485,4.9368
149.004,487,5.3436
151.019,489,5.8315
152.978,491,6.2926
154.944,493,6.8199
156.946,495,7.3028
158.896,497,7.7707
160.896,499,8.2987
162.860,501,8.8022
164.867,503,9.4046
166.856,505,9.9113
168.859,507,10.4749
170.873,509,10.8899
172.850,511,11.2851
174.825,513,11.7280
176.816,515,12.1470
178.810,517,12.4853
180.825,519,12.7337
182.816,521,12.9991
184.799,523,13.1976
186.806,525,13.2856
188.800,527,13.4424
190.809,529,13.5974
192.776,531,13.7496
194.770,533,14.0032
196.769,535,14.2464
198.747,537,14.5015
200.735,539,14.8286
202.721,541,15.1910
204.741,543,15.6318
206.749,545,16.0510
208.733,547,16.4964
210.738,549,17.0642
212.758,551,17.6443
214.758,553,18.2606
216.744,555,19.0395
218.735,557,19.8911
220.732,559,20.7612
222.745,561,21.6323
224.746,563,22.6034
226.731,565,23.6034
228.726,567,24.7732
230.702,569,25.9112
232.712,571,27.1109
234.724,573,28.4438
236.730,575,29.8586
238.710,577,31.2783
240.722,579,32.7731
242.738,581,34.4212
244.717,583,36.0551
246.722,585,37.9052
248.727,587,39.7635
250.705,589,41.6600
252.723,591,43.7384
254.738,593,45.7720
256.724,595,47.9305
258.763,597,50.1850
260.746,599,52.3538
262.747,601,54.6626
264.746,603,56.9775
266.745,605,59.3638
268.762,607,61.7102
270.775,609,64.0989
272.746,611,66.3403
274.767,613,68.6725
276.745,615,70.8989
278.777,617,73.1957
280.794,619,75.4205
282.778,621,77.4943
284.778,623,79.5726
286.756,625,81.4943
288.746,627,83.4668
290.756,629,85.4648
292.762,631,87.4436
294.769,633,89.4029
296.793,635,91.4202
298.778,637,93.5190
300.811,639,95.7946
302.787,641,98.1272
304.785,643,100.6800
306.827,645,103.4619
308.805,647,106.4981
310.806,649,109.7360
312.828,651,113.2628
314.849,653,116.9582
316.879,655,120.7620
318.884,657,124.6162
320.893,659,128.3421
322.922,661,131.8155
324.911,663,134.7133
326.924,665,136.8130
328.914,667,137.8780
330.974,669,137.5225
332.964,671,135.4457
334.981,673,131.4285
336.980,675,125.2338
338.958,677,116.6745
340.942,679,106.0117
342.953,681,93.5205
344.918,683,80.2945
346.844,685,67.3876
348.834,687,55.0810
350.767,689,45.1385
352.730,691,37.0686
354.681,693,31.1066
356.659,695,26.7928
358.611,697,23.8389
360.591,699,21.7628
362.606,701,20.2168
364.569,703,18.7890
366.587,705,17.4917
368.631,707,16.4138
370.600,709,15.5195
372.614,711,14.7035
374.641,713,13.9928
376.610,715,13.1817
378.621,717,12.3955
380.650,719,11.7826
382.626,721,11.2932
384.649,723,10.7934
386.654,725,10.3064
388.670,727,9.7935
390.672,729,9.1849
392.715,731,8.8278
394.732,733,8.4215
396.724,735,7.8965
398.731,737,7.4269
400.756,739,6.9811
402.699,741,6.6265
404.734,743,6.2007
406.745,745,5.7605
408.761,747,5.3348
410.820,749,4.9784
412.750,751,4.6046
414.793,753,4.2522
416.782,755,3.8802
418.830,757,3.6065
420.825,759,3.3300
422.829,761,3.0560
424.819,763,2.8152
426.832,765,2.5826
428.869,767,2.3572
430.827,769,2.2000
432.875,771,2.0229
434.872,773,1.8455
436.931,775,1.7628
438.895,777,1.6574
440.895,779,1.4704
442.891,781,1.3426
444.862,783,1.2088
446.877,785,1.1320
448.843,787,1.1053
450.884,789,1.1053
452.910,791,0.8994
454.896,793,0.8249
456.893,795,0.7246
458.873,797,0.6355
460.890,799,0.5644
462.900,801,0.4987
464.888,803,0.5154
466.896,805,0.4881
468.876,807,0.4629
470.902,809,0.4984
472.902,811,0.4299
474.915,813,0.4181
476.918,815,0.3788
478.933,817,0.3586
480.883,819,0.3028
482.884,821,0.2775
484.893,823,0.2627
486.890,825,0.2591
488.907,827,0.2485
490.894,829,0.1896
492.925,831,0.1668
494.906,833,0.1427
496.892,835,0.1030
498.901,837,0.0704
500.909,839,0.0664
502.916,841,0.0768
504.908,843,0.0603
506.914,845,0.0545
508.934,847,0.0503
510.921,849,-0.0284
512.906,851,0.0336
514.909,853,-0.0070
516.896,855,-0.0513
518.894,857,-0.0914
520.899,859,-0.0146
522.920,861,-0.0343
524.919,863,0.0046
526.880,865,-0.0515
528.914,867,-0.0067
530.886,869,0.0246
532.885,871,-0.0459
534.837,873,-0.0390
536.895,875,-0.0112
538.881,877,-0.0205
540.898,879,-0.0473
542.885,881,0.0049
544.905,883,0.0516
546.865,885,0.0487
548.909,887,0.1082
550.887,889,0.0711
552.886,891,0.0225
554.863,893,0.0261
556.888,895,0.0430
558.874,897,-0.0347
560.873,899,0.0041
562.863,901,-0.0125
564.863,903,0.0492
566.861,905,-0.0533
568.842,907,-0.0297
570.851,909,-0.0102
572.841,911,0.0435
574.854,913,0.0572
576.868,915,0.0051
578.837,917,-0.0067
580.815,919,0.0114
582.837,921,0.0117
584.826,923,0.0613
586.828,925,0.0272
588.811,927,-0.0614
590.805,929,-0.0010
592.779,931,-0.0114
594.801,933,-0.1063
596.821,935,-0.0562
597.806,936,-0.0880