File: Wood/Calibration_Data/NIST/NIST_Wood_MCC_N2_60K_R2.csv
Time (s),Temperature (K),HRR (W/g)
74.644,410,0.0134
76.545,412,-0.0806
78.427,414,-0.1003
80.335,416,-0.1172
82.228,418,-0.1576
84.143,420,-0.1376
86.093,422,-0.1710
87.996,424,-0.1796
89.912,426,-0.2148
91.848,428,-0.2135
93.788,430,-0.2004
95.719,432,-0.1980
97.662,434,-0.1580
99.633,436,-0.0959
101.575,438,-0.0334
103.530,440,0.1115
105.492,442,0.1525
107.436,444,0.2320
109.390,446,0.4160
111.360,448,0.4589
113.321,450,0.5580
115.253,452,0.7045
117.213,454,0.7790
119.178,456,0.9061
121.143,458,1.0521
123.075,460,1.2418
125.059,462,1.3390
127.021,464,1.5444
129.010,466,1.7825
130.985,468,1.9688
132.929,470,2.1420
134.920,472,2.3963
136.861,474,2.6704
138.845,476,2.9465
140.821,478,3.2456
142.820,480,3.5618
144.787,482,3.9277
146.742,484,4.2578
148.709,486,4.6919
150.727,488,5.0823
152.717,490,5.4968
154.694,492,5.9437
156.654,494,6.3908
158.636,496,6.8905
160.613,498,7.4076
162.606,500,7.8503
164.573,502,8.4282
166.571,504,8.9400
168.582,506,9.4073
170.550,508,10.0011
172.546,510,10.4841
174.537,512,10.9459
176.547,514,11.4077
178.517,516,11.7350
180.486,518,12.0469
182.486,520,12.3656
184.476,522,12.5646
186.464,524,12.7735
188.471,526,12.8666
190.448,528,13.0625
192.440,530,13.2882
194.435,532,13.5096
196.433,534,13.7985
198.428,536,14.0351
200.410,538,14.2395
202.376,540,14.5244
204.403,542,14.9459
206.381,544,15.3595
208.377,546,15.7778
210.384,548,16.1978
212.389,550,16.7294
214.394,552,17.2841
216.402,554,17.9087
218.400,556,18.6804
220.379,558,19.4971
222.353,560,20.3037
224.357,562,21.1538
226.360,564,22.1856
228.355,566,23.2082
230.350,568,24.2364
232.368,570,25.3783
234.367,572,26.5802
236.353,574,27.8574
238.356,576,29.1797
240.349,578,30.5928
242.348,580,32.1330
244.346,582,33.7189
246.363,584,35.3687
248.352,586,37.1348
250.344,588,38.9609
252.352,590,40.9050
254.346,592,43.0123
256.367,594,45.1105
258.367,596,47.2375
260.396,598,49.4953
262.385,600,51.8013
264.365,602,54.1211
266.377,604,56.5712
268.380,606,58.9649
270.358,608,61.3861
272.369,610,63.7958
274.376,612,66.1887
276.407,614,68.4598
278.389,616,70.7803
280.430,618,73.1685
282.401,620,75.4122
284.383,622,77.5156
286.406,624,79.6334
288.416,626,81.7260
290.404,628,83.6788
292.422,630,85.6512
294.438,632,87.6493
296.426,634,89.5702
298.448,636,91.6345
300.467,638,93.7785
302.472,640,95.9073
304.460,642,98.3203
306.448,644,100.8979
308.480,646,103.6840
310.457,648,106.7301
312.470,650,110.0686
314.506,652,113.8283
316.526,654,117.6390
318.531,656,121.5846
320.515,658,125.5393
322.563,660,129.5719
324.571,662,133.2163
326.566,664,136.2599
328.577,666,138.6298
330.592,668,139.8459
332.616,670,139.5320
334.627,672,137.4879
336.632,674,133.2796
338.623,676,126.6842
340.618,678,117.5585
342.586,680,106.2190
344.577,682,92.9666
346.537,684,78.9393
348.495,686,65.3922
350.453,688,53.3318
352.424,690,43.4036
354.391,692,35.8285
356.346,694,30.3945
358.312,696,26.5453
360.250,698,23.9178
362.236,700,21.9307
364.225,702,20.4312
366.231,704,19.0887
368.211,706,17.7489
370.229,708,16.6071
372.217,710,15.6832
374.214,712,14.7730
376.252,714,14.0388
378.262,716,13.3375
380.253,718,12.6459
382.298,720,11.9731
384.276,722,11.5031
386.303,724,10.8736
388.288,726,10.3530
390.325,728,9.7292
392.300,730,9.2841
394.312,732,8.8078
396.341,734,8.3980
398.328,736,7.9992
400.351,738,7.4870
402.349,740,6.9656
404.364,742,6.6251
406.361,744,6.1876
408.384,746,5.8038
410.387,748,5.3952
412.391,750,5.0472
414.395,752,4.7233
416.412,754,4.3501
418.451,756,3.9714
420.435,758,3.6222
422.435,760,3.4316
424.423,762,3.1602
426.453,764,2.8900
428.460,766,2.6786
430.455,768,2.5287
432.470,770,2.2405
434.501,772,2.0857
436.505,774,1.9899
438.508,776,1.8100
440.515,778,1.6632
442.514,780,1.4696
444.527,782,1.3589
446.531,784,1.4089
448.516,786,1.2546
450.486,788,1.0573
452.505,790,0.9678
454.532,792,0.9373
456.523,794,0.9569
458.538,796,0.8689
460.561,798,0.8017
462.549,800,0.7029
464.551,802,0.6589
466.519,804,0.5553
468.529,806,0.5260
470.530,808,0.5227
472.530,810,0.5086
474.553,812,0.4807
476.563,814,0.3591
478.575,816,0.4077
480.554,818,0.3828
482.553,820,0.3578
484.539,822,0.3650
486.553,824,0.3665
488.556,826,0.2662
490.561,828,0.2255
492.568,830,0.2529
494.547,832,0.2004
496.576,834,0.2146
498.606,836,0.2185
500.568,838,0.1827
502.569,840,0.1839
504.576,842,0.1194
506.567,844,0.0166
508.580,846,0.0317
510.595,848,0.0431
512.602,850,0.0114
514.541,852,0.0271
516.601,854,0.0596
518.586,856,-0.0108
520.621,858,0.0013
522.562,860,-0.0024
524.554,862,-0.0142
526.541,864,-0.0155
528.567,866,-0.0432
530.561,868,-0.0236
532.553,870,-0.0681
534.582,872,-0.0428
536.578,874,-0.0642
538.581,876,-0.0282
540.580,878,-0.0404
542.561,880,-0.0481
544.574,882,0.0032
546.564,884,0.0701
548.563,886,0.0213
550.574,888,0.0203
552.544,890,0.0478
554.553,892,0.0104
556.532,894,-0.0556
558.498,896,-0.0041
560.544,898,-0.0203
562.527,900,0.0169
564.516,902,0.0536
566.516,904,0.0508
568.489,906,0.0120
570.507,908,-0.0269
572.515,910,0.0359
574.512,912,0.0137
576.524,914,0.0201
578.497,916,-0.0088
580.463,918,0.0043
582.503,920,-0.0176
584.511,922,0.0000
586.499,924,-0.0165
588.445,926,-0.0251
590.472,928,-0.0077
592.443,930,-0.0196
594.425,932,-0.0102
596.401,934,-0.0508
598.432,936,-0.0272