File: Wood/Calibration_Data/NIST/NIST_Wood_MCC_N2_60K_R1.csv
Time (s),Temperature (K),HRR (W/g)
73.349,409,-0.0254
76.199,412,0.0371
79.022,415,-0.0387
81.917,418,-0.0469
84.762,421,0.0110
87.670,424,0.0131
90.554,427,0.0953
93.457,430,0.1798
96.357,433,0.2004
99.316,436,0.4516
102.203,439,0.4991
105.183,442,0.7723
108.120,445,0.9171
111.063,448,1.1250
113.972,451,1.3452
116.924,454,1.5286
119.861,457,1.7621
122.792,460,2.0489
125.776,463,2.3829
128.731,466,2.6949
131.681,469,2.9934
134.606,472,3.3828
137.603,475,3.8085
140.525,478,4.2627
143.514,481,4.8618
146.475,484,5.3704
149.462,487,5.9978
152.462,490,6.6254
155.414,493,7.3068
158.413,496,8.0434
161.351,499,8.7601
164.323,502,9.5855
167.325,505,10.4471
170.295,508,11.2245
173.315,511,12.0667
176.290,514,12.8075
179.273,517,13.4405
182.247,520,13.8575
185.240,523,14.3318
188.263,526,14.6310
191.240,529,14.9100
194.247,532,15.1644
197.200,535,15.5110
200.202,538,15.9189
203.198,541,16.3772
206.151,544,16.9285
209.169,547,17.4520
212.180,550,18.2307
215.163,553,19.0620
218.186,556,20.1766
221.143,559,21.3541
224.151,562,22.7502
227.120,565,24.2143
230.145,568,25.9152
233.184,571,27.6785
236.200,574,29.5599
239.153,577,31.6334
242.147,580,33.9206
245.177,583,36.3168
248.174,586,38.9655
251.160,589,41.7440
254.167,592,44.7597
257.221,595,47.9447
260.188,598,51.1529
263.204,601,54.6322
266.191,604,58.1196
269.183,607,61.7092
272.193,610,65.3276
275.213,613,68.7909
278.234,616,72.2281
281.231,619,75.5784
284.239,622,78.8695
287.238,625,81.9417
290.247,628,84.9310
293.274,631,87.8122
296.255,634,90.7843
299.271,637,93.9120
302.283,640,97.1291
305.247,643,100.7598
308.263,646,104.8717
311.299,649,109.6728
314.337,652,114.9637
317.344,655,120.6653
320.362,658,126.5150
323.387,661,132.0571
326.389,664,136.5600
329.399,667,139.3530
332.456,670,139.1428
335.459,673,135.0132
338.440,676,125.9224
341.453,679,111.4379
344.388,682,93.0655
347.338,685,72.8772
350.279,688,54.4971
353.238,691,40.4515
356.179,694,31.2435
359.103,697,25.8631
362.070,700,22.5841
365.053,703,20.3676
368.024,706,18.4520
371.071,709,16.8439
374.084,712,15.4611
377.095,715,14.2879
380.106,718,13.2633
383.104,721,12.3655
386.118,724,11.5134
389.108,727,10.7058
392.145,730,10.0036
395.168,733,9.2809
398.180,736,8.5410
401.172,739,7.8433
404.194,742,7.1702
407.177,745,6.5502
410.217,748,6.0004
413.223,751,5.4789
416.257,754,4.8058
419.256,757,4.4084
422.262,760,3.9600
425.267,763,3.6308
428.293,766,3.2445
431.324,769,2.9567
434.351,772,2.5969
437.365,775,2.3822
440.368,778,2.2002
443.379,781,1.8802
446.377,784,1.6884
449.322,787,1.5400
452.333,790,1.3327
455.350,793,1.2076
458.339,796,1.0859
461.369,799,0.8871
464.356,802,0.8618
467.358,805,0.7927
470.345,808,0.7329
473.395,811,0.6358
476.414,814,0.5468
479.396,817,0.5199
482.418,820,0.4676
485.425,823,0.3391
488.425,826,0.2814
491.442,829,0.3547
494.417,832,0.3809
497.461,835,0.2949
500.449,838,0.2429
503.438,841,0.2248
506.424,844,0.1608
509.446,847,0.0914
512.420,850,0.1409
515.442,853,0.0570
518.460,856,0.0543
521.458,859,0.0141
524.467,862,0.0797
527.488,865,-0.0354
530.481,868,-0.0693
533.452,871,-0.0751
536.450,874,-0.1148
539.442,877,-0.1023
542.424,880,-0.1471
545.420,883,-0.1638
548.429,886,-0.1138
551.423,889,-0.1474
554.446,892,-0.1614
557.416,895,-0.1364
560.416,898,-0.1613
563.397,901,-0.1946
566.403,904,-0.2368
569.373,907,-0.1730
572.368,910,-0.1181
575.402,913,-0.2311
578.386,916,-0.2787
581.347,919,-0.1846
584.324,922,-0.1068
587.340,925,-0.1730
590.305,928,-0.1595
593.299,931,-0.1353
596.304,934,-0.1458
599.274,937,-0.1517
602.262,940,-0.1706
605.234,943,-0.1812
608.236,946,-0.1920
611.219,949,-0.2391
614.221,952,-0.2114
617.209,955,-0.2382
620.174,958,-0.2430
623.162,961,-0.1955
626.126,964,-0.1960
629.076,967,-0.2311
632.098,970,-0.2115
635.071,973,-0.0977
638.004,976,-0.1067
641.040,979,-0.0216
644.041,982,-0.0057
647.028,985,-0.0388
650.016,988,-0.0013
652.966,991,0.0028
655.956,994,-0.0620
658.962,997,0.0097
661.888,1000,-0.0435
664.930,1003,0.1084
667.883,1006,-0.0534
670.835,1009,0.0325
673.812,1012,0.0189
676.806,1015,0.0344
679.782,1018,0.0647
682.749,1021,0.0275
685.726,1024,0.1051
688.730,1027,0.0652
691.711,1030,0.0756
694.670,1033,0.0501
697.635,1036,0.1459
700.654,1039,0.1468
703.628,1042,0.1593
706.590,1045,0.1383
709.563,1048,0.1766
712.543,1051,0.1554
715.559,1054,0.1829
718.577,1057,0.1956
721.539,1060,0.1759
724.501,1063,0.1857
727.435,1066,0.1592
730.467,1069,0.1999
733.450,1072,0.1457
736.476,1075,0.1526
739.458,1078,0.1193
742.444,1081,0.1536
745.396,1084,0.1063
748.396,1087,0.1422
751.356,1090,0.1049
754.335,1093,0.1227
757.336,1096,0.0628
760.360,1099,0.0797
763.337,1102,0.0373
766.353,1105,0.0766
769.368,1108,0.0412
772.347,1111,0.0173
775.313,1114,0.0112
778.302,1117,0.0326
781.334,1120,0.0339
784.266,1123,-0.0562
787.273,1126,-0.0181
790.288,1129,0.0071
793.215,1132,-0.0021
796.239,1135,-0.0199
799.196,1138,-0.0205
802.204,1141,0.0113
805.187,1144,-0.0118
808.173,1147,-0.0299
811.167,1150,-0.0562
814.119,1153,-0.0215
817.135,1156,-0.0341
820.137,1159,0.0159
823.046,1162,0.0781
826.042,1165,0.0580
828.978,1168,-0.0193
831.964,1171,-0.0245
834.864,1174,-0.0298
837.890,1177,-0.0141
840.839,1180,-0.0111
843.858,1183,-0.0542
846.830,1186,-0.0325
849.781,1189,-0.0509
852.699,1192,-0.0765
855.702,1195,-0.0491
858.612,1198,0.0340
861.573,1201,-0.0038
864.480,1204,-0.0332
867.534,1207,-0.0484
870.479,1210,-0.0540
873.453,1213,0.0115
876.371,1216,0.0272
879.358,1219,0.0421
882.426,1222,-0.0846
885.489,1225,0.0065
888.710,1228,-0.0249
892.087,1231,0.0182
895.493,1234,-0.1524
899.076,1237,-0.0582
902.903,1240,-0.1080
907.052,1243,-0.0701
910.591,1245.5,-0.0765