File: Wood/Calibration_Data/NIST/NIST_Wood_MCC_N2_60K_R4.csv
Time (s),Temperature (K),HRR (W/g)
73.717,409.5,0.1443
75.570,411.5,-0.0098
77.480,413.5,0.0370
79.379,415.5,-0.0444
81.270,417.5,-0.0270
83.178,419.5,0.0321
85.117,421.5,-0.0170
86.988,423.5,0.0018
88.943,425.5,0.0031
90.872,427.5,0.0319
92.822,429.5,0.1247
94.754,431.5,0.1982
96.708,433.5,0.1506
98.644,435.5,0.2854
100.576,437.5,0.4086
102.564,439.5,0.5261
104.461,441.5,0.5301
106.468,443.5,0.5967
108.423,445.5,0.6632
110.354,447.5,0.6620
112.276,449.5,0.8099
114.264,451.5,0.8813
116.234,453.5,0.9477
118.197,455.5,1.0425
120.143,457.5,1.1634
122.109,459.5,1.2749
124.074,461.5,1.4252
126.051,463.5,1.5758
128.013,465.5,1.7691
129.970,467.5,2.0175
131.956,469.5,2.1752
133.900,471.5,2.4452
135.883,473.5,2.7645
137.856,475.5,2.9552
139.802,477.5,3.2080
141.780,479.5,3.5268
143.760,481.5,3.8941
145.721,483.5,4.2688
147.711,485.5,4.6181
149.675,487.5,5.0640
151.692,489.5,5.5340
153.663,491.5,5.8430
155.640,493.5,6.3296
157.621,495.5,6.8359
159.600,497.5,7.3242
161.563,499.5,7.7547
163.556,501.5,8.3052
165.538,503.5,8.8499
167.506,505.5,9.2390
169.496,507.5,9.7168
171.483,509.5,10.2957
173.470,511.5,10.7568
175.453,513.5,11.2008
177.468,515.5,11.6731
179.454,517.5,12.0123
181.407,519.5,12.3316
183.411,521.5,12.6098
185.412,523.5,12.8191
187.441,525.5,13.0500
189.389,527.5,13.2806
191.420,529.5,13.4263
193.385,531.5,13.6295
195.416,533.5,13.8734
197.371,535.5,14.1025
199.374,537.5,14.3841
201.371,539.5,14.7218
203.346,541.5,14.9418
205.340,543.5,15.3022
207.363,545.5,15.7210
209.321,547.5,16.0685
211.336,549.5,16.5276
213.342,551.5,17.1353
215.344,553.5,17.7545
217.323,555.5,18.4209
219.357,557.5,19.2113
221.319,559.5,20.0057
223.326,561.5,20.8703
225.303,563.5,21.8080
227.318,565.5,22.8507
229.316,567.5,23.9459
231.313,569.5,25.1130
233.298,571.5,26.2737
235.282,573.5,27.4718
237.298,575.5,28.7855
239.276,577.5,30.1707
241.280,579.5,31.7142
243.271,581.5,33.4018
245.287,583.5,34.9640
247.292,585.5,36.6189
249.290,587.5,38.5054
251.292,589.5,40.4290
253.315,591.5,42.4822
255.306,593.5,44.5593
257.296,595.5,46.6783
259.315,597.5,48.9776
261.288,599.5,51.2344
263.284,601.5,53.5988
265.314,603.5,56.0209
267.296,605.5,58.4352
269.293,607.5,60.8782
271.302,609.5,63.3694
273.316,611.5,65.8058
275.332,613.5,68.1840
277.322,615.5,70.5271
279.339,617.5,72.8187
281.315,619.5,75.0329
283.332,621.5,77.2248
285.302,623.5,79.2818
287.330,625.5,81.3533
289.326,627.5,83.3328
291.349,629.5,85.2211
293.316,631.5,87.0744
295.355,633.5,89.0247
297.344,635.5,90.9364
299.348,637.5,92.9616
301.348,639.5,95.1049
303.367,641.5,97.3761
305.370,643.5,99.9204
307.373,645.5,102.6476
309.387,647.5,105.6860
311.369,649.5,108.9331
313.372,651.5,112.6242
315.390,653.5,116.6045
317.443,655.5,120.7651
319.445,657.5,124.9608
321.451,659.5,129.1642
323.484,661.5,133.2062
325.492,663.5,136.6370
327.493,665.5,139.3040
329.508,667.5,141.0612
331.486,669.5,141.1619
333.547,671.5,139.4003
335.553,673.5,135.4771
337.554,675.5,129.1322
339.521,677.5,120.3567
341.520,679.5,109.0721
343.460,681.5,96.3897
345.438,683.5,82.4129
347.403,685.5,68.7267
349.362,687.5,56.3324
351.328,689.5,45.9235
353.270,691.5,37.7901
355.240,693.5,31.6863
357.197,695.5,27.4618
359.175,697.5,24.4912
361.152,699.5,22.3922
363.119,701.5,20.8373
365.115,703.5,19.4090
367.107,705.5,18.0787
369.105,707.5,17.0250
371.099,709.5,16.0096
373.136,711.5,15.1503
375.151,713.5,14.4105
377.139,715.5,13.7459
379.153,717.5,12.9835
381.126,719.5,12.4468
383.154,721.5,11.9385
385.156,723.5,11.3691
387.159,725.5,10.8785
389.180,727.5,10.4065
391.176,729.5,9.8685
393.199,731.5,9.3191
395.212,733.5,8.8357
397.215,735.5,8.3849
399.243,737.5,7.9701
401.240,739.5,7.4766
403.236,741.5,7.0049
405.241,743.5,6.5977
407.249,745.5,6.2944
409.279,747.5,5.8665
411.272,749.5,5.4003
413.280,751.5,5.0135
415.302,753.5,4.6574
417.317,755.5,4.2781
419.306,757.5,3.9785
421.349,759.5,3.7040
423.357,761.5,3.4446
425.316,763.5,3.1702
427.354,765.5,2.8804
429.333,767.5,2.6663
431.349,769.5,2.4539
433.369,771.5,2.3067
435.389,773.5,2.1450
437.448,775.5,1.8824
439.413,777.5,1.8099
441.421,779.5,1.6633
443.399,781.5,1.5445
445.361,783.5,1.4117
447.392,785.5,1.2871
449.407,787.5,1.2205
451.405,789.5,1.0764
453.406,791.5,1.0258
455.423,793.5,0.9826
457.426,795.5,0.9790
459.423,797.5,0.8106
461.407,799.5,0.6875
463.398,801.5,0.6669
465.476,803.5,0.6784
467.475,805.5,0.6045
469.413,807.5,0.5867
471.465,809.5,0.6065
473.435,811.5,0.5706
475.443,813.5,0.5178
477.442,815.5,0.4348
479.459,817.5,0.4435
481.462,819.5,0.3686
483.432,821.5,0.3643
485.407,823.5,0.3662
487.430,825.5,0.3399
489.448,827.5,0.3482
491.414,829.5,0.2855
493.433,831.5,0.2535
495.439,833.5,0.1810
497.425,835.5,0.1423
499.450,837.5,0.1606
501.460,839.5,0.1693
503.422,841.5,0.1410
505.435,843.5,0.1161
507.393,845.5,0.1273
509.428,847.5,0.0761
511.408,849.5,0.0322
513.428,851.5,0.0581
515.435,853.5,0.0459
517.435,855.5,0.0614
519.459,857.5,0.0468
521.444,859.5,0.0380
523.434,861.5,-0.0152
525.406,863.5,-0.0144
527.413,865.5,-0.0716
529.435,867.5,-0.0648
531.437,869.5,-0.0148
533.404,871.5,-0.0059
535.438,873.5,-0.0202
537.419,875.5,-0.0109
539.405,877.5,-0.0217
541.405,879.5,-0.0092
543.393,881.5,0.0252
545.402,883.5,-0.0235
547.375,885.5,0.1137
549.393,887.5,0.0207
551.369,889.5,-0.0870
553.378,891.5,-0.0936
555.375,893.5,-0.0589
557.398,895.5,-0.0043
559.370,897.5,0.0455
561.374,899.5,0.0496
563.344,901.5,-0.0485
565.344,903.5,-0.0639
567.329,905.5,-0.0202
569.355,907.5,0.0252
571.324,909.5,0.0019
573.335,911.5,0.0004
575.323,913.5,0.0533
577.348,915.5,0.0359
579.325,917.5,0.0817
581.331,919.5,0.0566
583.303,921.5,-0.0017
585.280,923.5,0.0042
587.277,925.5,0.0153
589.260,927.5,-0.0193
591.284,929.5,-0.0416
593.277,931.5,-0.0282
595.237,933.5,0.0055
597.274,935.5,0.0026
597.777,936,-0.0008