File: Non-charring/PMMA/Edinburgh/Edinburgh_Cone_65kW_1.csv
Time,Mass,HRR,Temperature Backing Centre
[s],[g],[kW/m2],[K]
0,67.01,2.9,296.75
2,67.02,2.8,296.75
4.1,66.96,2.5,296.85
6.1,66.83,-0.1,296.85
8.1,66.58,2.4,296.95
10.1,66.25,2.3,296.95
12.2,65.87,2.5,297.05
14.2,65.48,2.2,297.05
16.2,65.1,2.2,297.05
18.3,64.73,9.4,297.15
20.3,64.33,24.4,297.25
22.3,63.91,56,297.35
24.3,63.49,100.2,297.35
26.4,63.06,134.2,297.45
28.4,62.61,190.5,297.55
30.4,62.14,238.4,297.65
32.4,61.67,297.9,297.75
35.1,61.07,317.1,297.85
36.6,60.72,337.9,297.95
38.5,60.3,374.9,298.05
40.6,59.83,400.1,298.15
42.6,59.31,441.5,298.25
44.6,58.81,440.8,298.45
46.6,58.31,463,298.55
48.7,57.79,498,298.75
50.7,57.27,510.8,298.95
52.7,56.77,514.6,299.05
56.8,55.74,508.7,299.65
58.8,55.23,556.4,299.85
60.8,54.68,560.8,300.15
62.9,54.18,579.6,300.45
64.9,53.64,586.5,300.75
66.9,53.12,564.2,301.05
69,52.59,604.5,301.35
71,52.05,558.1,301.65
73,51.52,582.5,302.15
75,50.99,600.6,302.55
77.1,50.44,595.7,303.05
79.1,49.91,607.5,303.55
81.1,49.38,631.3,303.95
83.1,48.83,631.8,304.55
85.2,48.27,618.8,305.05
87.2,47.73,630.5,305.55
89.2,47.18,624.5,306.15
91.3,46.64,647.6,306.65
93.3,46.09,651.5,307.25
95.3,45.56,664.7,307.85
97.3,45.01,636.5,308.35
99.4,44.44,651.7,308.95
101.4,43.89,653.2,309.55
103.4,43.34,647.1,310.25
105.5,42.78,652.9,310.85
107.5,42.21,651.9,311.45
109.5,41.67,668.6,312.05
111.5,41.12,687.9,312.55
113.6,40.57,678.3,313.05
115.6,40,657.2,313.55
117.6,39.45,691.4,314.05
119.7,38.86,658,314.45
121.7,38.29,691.8,314.95
123.7,37.68,693.4,315.35
125.7,37.12,689.9,315.85
127.8,36.53,646.8,316.35
129.8,35.97,650,316.75
131.8,35.43,689.1,317.25
133.8,34.83,662.6,317.75
136.2,34.2,674.7,318.05
137.9,33.7,714,318.55
139.9,33.12,694.8,318.95
142,32.52,663.4,319.45
144,31.94,674,319.85
146,31.35,666.2,320.25
148,30.72,693.7,320.65
150.1,30.09,694.7,321.05
152.1,29.49,671.4,321.45
154.1,28.87,663.7,321.95
156.2,28.22,685.1,322.35
158.2,27.59,706.4,322.75
160.2,26.94,676.3,323.15
162.2,26.28,642.6,323.55
164.3,25.61,687,324.05
166.3,24.92,710.7,324.45
168.3,24.21,673.7,324.85
170.4,23.51,695.2,325.25
172.4,22.81,715.3,325.75
174.4,22.07,736.4,326.15
176.4,21.33,747.5,326.65
178.5,20.61,703.3,327.15
180.5,19.9,766.2,327.65
182.5,19.2,719.2,328.25
184.6,18.49,753.4,328.85
186.6,17.76,772.3,329.55
188.6,17.03,853.1,330.15
190.6,16.3,813.8,330.95
192.7,15.57,839.5,331.65
194.7,14.84,804.2,332.45
196.7,14.09,812.6,333.35
198.7,13.35,817,334.15
200.8,12.61,882.5,335.05
202.8,11.91,829,335.95
204.8,11.21,864.6,336.85
206.9,10.52,885.4,337.85
208.9,9.89,890.3,338.85
210.9,9.24,926.3,339.85
212.9,8.63,929.6,340.85
215,8.06,939.5,341.85
217,7.53,951.3,342.95
219,7.04,975.6,344.05
221.1,6.59,942.5,345.25
223.1,6.16,972.7,346.45
225.1,5.78,932.3,347.85
227.1,5.41,960.5,349.15
229.2,5.11,967.6,350.65
231.2,4.8,947.4,352.05
233.2,4.56,940.5,353.75
235.3,4.32,869.5,355.75
237.8,4.07,864,357.15
239.3,3.94,799.2,358.85
241.3,3.78,765.2,360.65
243.4,3.6,720.2,362.45
245.4,3.44,674.3,364.15
247.4,3.3,612.2,365.65
249.4,3.15,576.6,367.35
251.5,3,529.6,368.95
253.5,2.87,483.4,370.75
255.5,2.75,456.4,371.45
257.6,2.68,422.3,371.45
259.6,2.55,375.3,371.35
261.6,2.39,354.2,371.45
263.6,2.27,332.8,371.45
265.7,2.14,297.7,371.55
267.7,2.08,283.5,371.65
269.7,1.98,261.7,371.75
271.8,1.9,249.2,372.05
273.8,1.81,226,372.95
277.8,1.68,200.1,382.65
279.9,1.6,183.3,385.25
281.9,1.52,172.4,387.35
283.9,1.44,168.9,389.25
286,1.36,155.3,391.05
288,1.3,148.4,392.65
290,1.24,139.7,394.25
292,1.18,135.6,395.75
294.1,1.11,128.4,397.15
296.1,1.07,123.3,398.65
298.1,1.02,112.1,400.05
300.1,0.97,111.1,401.45
302.2,0.91,104.2,402.85
304.2,0.87,102.1,404.25
306.2,0.83,100.7,405.65
308.3,0.78,94.3,407.05
310.3,0.74,92.2,408.35
312.3,0.69,84.5,409.65
314.3,0.66,83.9,411.05
316.4,0.64,80.8,412.35
318.4,0.54,77.6,413.65
320.4,0.52,73.8,414.95
322.5,0.45,73.6,416.35
324.5,0.39,71.4,417.65
326.5,0.35,70,418.95
328.5,0.35,67,420.25
330.6,0.3,64.6,424.45
337.4,0.17,60.7,425.35
338.9,0.15,61.3,427.05
340.7,0.13,55.6,427.95
343.2,0.07,56.1,429.05
344.8,0.04,54.4,430.25
346.8,0.03,54.9,431.45
348.8,0.01,52.5,432.65
350.8,-0.02,49.6,433.85
352.9,-0.05,49.6,434.95
354.9,-0.08,47.9,436.15
356.9,-0.12,45.1,437.25
359,-0.13,44.5,438.45
361,-0.14,42.9,439.55
363,-0.15,39.6,440.65
365,-0.18,40.5,441.85
367.1,-0.19,37.9,442.85
369.1,-0.21,35.3,443.95
371.1,-0.25,32.8,445.05
373.2,-0.26,33.1,446.05
375.2,-0.29,30.1,447.25
377.2,-0.3,27.9,448.25
379.2,-0.29,28.1,449.35
381.3,-0.29,25.7,450.45
383.3,-0.3,25.6,451.45
385.3,-0.33,23.1,452.45
387.4,-0.36,24.2,453.55
389.4,-0.38,20.9,454.55
391.4,-0.38,21.6,455.45
393.4,-0.39,21.5,456.45
395.5,-0.41,18.3,457.45
397.5,-0.44,19,458.45
399.5,-0.45,16.1,459.45
401.5,-0.45,16.3,460.45
403.6,-0.45,16.5,461.35
405.6,-0.48,13.5,462.35
407.6,-0.5,13.7,463.25
409.7,-0.51,13.9,464.25
411.7,-0.51,11.1,465.15
413.7,-0.53,11.2,466.05
415.7,-0.54,11.1,467.05
417.8,-0.54,8.6,467.95
419.8,-0.54,8.3,468.85
421.8,-0.56,8.4,469.75
423.9,-0.56,8.6,470.65
425.9,-0.57,5.7,471.55
427.9,-0.58,6,472.45
429.9,-0.58,5.9,473.35
432,-0.59,6.1,474.25
434,-0.6,3.1,475.15
436,-0.6,3.2,475.95
438.1,-0.6,3.4,476.85
440.1,-0.61,3.7,478.05
442.1,-0.63,3.6,478.75
444.6,-0.64,0.8,479.55
446.2,-0.65,0.9,480.45
448.2,-0.65,0.7,481.25
450.2,-0.66,0.8,482.15
452.2,-0.65,0.9,482.95
454.3,-0.65,-2.1,483.85
456.3,-0.65,-1.9,484.65
458.3,-0.67,-2.1,485.55
460.4,-0.65,-2,486.35
462.4,-0.66,-2,487.25
464.4,-0.68,-1.8,488.05
466.4,-0.7,-1.7,488.95
468.5,-0.7,-4.5,489.75
470.5,-0.7,-4.6,490.55
472.5,-0.73,-4.5,491.45
474.6,-0.75,-4.3,492.35
476.6,-0.73,-4.5,493.05
478.6,-0.74,-4.2,493.95
480.6,-0.74,-4.3,494.75
482.7,-0.76,-4,495.45
484.7,-0.76,-3.7,496.35
486.7,-0.75,-3.9,497.05
488.8,-0.77,-3.8,497.95
490.8,-0.77,-3.9,498.65
492.8,-0.77,-4.1,499.45
494.8,-0.77,-7.2,500.25
496.9,-0.79,-7,500.95
497.9,-0.8,-7.3,501.35