File: Non-charring/PMMA/TIFP/TIFP_DSC_N2_10K_1.csv
Time,Temperature,Heat Flow
[s],[K],[mW/mg]
0,300.105,8.82E-03
22.8,300.111,8.90E-03
45.6,300.114,9.00E-03
68.4,300.12,9.19E-03
91.2,300.126,8.79E-03
114,300.133,8.66E-03
136.8,300.134,8.79E-03
159.6,300.14,8.46E-03
182.4,300.139,8.46E-03
205.2,300.144,8.40E-03
228,300.149,8.48E-03
250.8,300.151,8.01E-03
273.6,300.154,8.12E-03
296.4,300.156,7.91E-03
309.0498,300.157,7.83E-03
320.4498,300.198,8.53E-03
331.8498,300.353,1.06E-02
343.2498,300.702,1.54E-02
354.6498,301.317,2.36E-02
366.0498,302.246,3.59E-02
377.4498,303.527,5.19E-02
388.8498,305.161,7.11E-02
400.2498,307.135,9.15E-02
411.6498,309.404,0.11027
423.0498,311.908,0.1266
434.4498,314.581,0.13845
445.8498,317.365,0.14717
457.2498,320.196,0.15114
468.6498,323.02,0.15193
480.0498,325.8,0.15001
491.4498,328.517,0.14665
502.8498,331.132,0.14259
514.2498,333.65,0.13817
525.6498,336.057,0.13442
537.0498,338.366,0.13102
548.4498,340.588,0.12839
559.8498,342.728,0.12645
571.2498,344.799,0.12602
582.6498,346.818,0.12625
594.0498,348.796,0.12731
605.4498,350.74,0.12911
616.8498,352.663,0.13127
628.2498,354.569,0.13267
639.6498,356.469,0.13259
651.0498,358.364,0.1313
662.4498,360.255,0.12984
673.8498,362.142,0.12824
685.2498,364.027,0.12729
696.6498,365.916,0.12695
708.0498,367.804,0.12685
719.4498,369.685,0.12685
730.8498,371.57,0.12737
742.2498,373.449,0.12813
753.6498,375.334,0.12934
765.0498,377.217,0.13047
776.4498,379.094,0.13168
787.8498,380.976,0.13253
799.2498,382.863,0.13424
810.6498,384.744,0.13748
822.0498,386.635,0.14032
833.4498,388.527,0.14233
844.8498,390.421,0.14242
856.2498,392.324,0.14262
867.6498,394.227,0.14261
879.0498,396.137,0.13961
890.4498,398.048,0.13145
901.8498,399.965,0.11785
913.2498,401.88,0.10046
924.6498,403.797,8.53E-02
936.0498,405.712,7.33E-02
947.4498,407.627,6.53E-02
958.8498,409.543,5.78E-02
970.2498,411.456,5.41E-02
981.6498,413.369,5.18E-02
993.0498,415.282,5.02E-02
1004.45,417.196,4.99E-02
1015.85,419.108,4.82E-02
1027.25,421.019,4.62E-02
1038.65,422.931,4.43E-02
1050.05,424.847,4.28E-02
1061.45,426.754,4.63E-02
1072.85,428.663,4.70E-02
1084.25,430.569,4.76E-02
1095.65,432.472,4.69E-02
1107.05,434.373,4.59E-02
1118.45,436.273,4.67E-02
1129.85,438.169,4.56E-02
1141.25,440.066,4.47E-02
1152.65,441.964,4.40E-02
1164.05,443.859,4.39E-02
1175.45,445.757,4.37E-02
1186.85,447.651,5.08E-02
1198.25,449.545,5.31E-02
1209.65,451.442,5.56E-02
1221.05,453.334,5.77E-02
1232.45,455.226,5.87E-02
1243.85,457.12,6.05E-02
1255.25,459.014,6.25E-02
1266.65,460.909,6.45E-02
1278.05,462.808,6.65E-02
1289.45,464.699,6.88E-02
1300.85,466.596,7.11E-02
1312.25,468.492,7.45E-02
1323.65,470.389,7.70E-02
1335.05,472.288,8.07E-02
1346.45,474.186,8.50E-02
1357.85,476.083,8.90E-02
1369.25,477.986,9.29E-02
1380.65,479.882,9.60E-02
1392.05,481.781,9.92E-02
1403.45,483.68,0.10365
1414.85,485.581,0.10718
1426.25,487.479,0.11024
1437.65,489.377,0.11532
1449.05,491.273,0.12035
1460.45,493.162,0.1228
1471.85,495.063,0.12561
1483.25,496.956,0.12866
1494.65,498.851,0.13229
1506.05,500.744,0.13614
1517.45,502.634,0.13921
1528.85,504.527,0.1415
1540.25,506.423,0.14437
1551.65,508.317,0.14762
1563.05,510.216,0.15174
1574.45,512.111,0.15576
1585.85,514.01,0.15979
1597.25,515.908,0.16448
1608.65,517.81,0.16918
1620.05,519.708,0.17385
1631.45,521.606,0.17868
1642.85,523.501,0.18419
1654.25,525.398,0.19034
1665.65,527.295,0.19628
1677.05,529.187,0.2015
1688.45,531.086,0.20971
1699.85,532.979,0.21774
1711.25,534.876,0.22715
1722.65,536.776,0.23749
1734.05,538.678,0.25015
1745.45,540.586,0.26597
1756.85,542.497,0.28314
1768.25,544.415,0.30282
1779.65,546.325,0.32584
1791.05,548.239,0.3521
1802.45,550.148,0.38238
1813.85,552.058,0.41772
1825.25,553.966,0.46011
1836.65,555.875,0.50868
1848.05,557.776,0.56404
1859.45,559.677,0.6279
1870.85,561.582,0.70202
1882.25,563.48,0.78641
1893.65,565.383,0.88423
1905.05,567.279,1.01814
1916.45,569.176,1.1689
1927.85,571.072,1.33466
1939.25,572.966,1.51945
1950.65,574.859,1.70974
1962.05,576.757,1.87303
1973.45,578.663,2.03828
1984.85,580.571,2.29172
1996.25,582.486,2.45004
2007.65,584.398,2.58768
2019.05,586.307,2.71782
2030.45,588.221,2.78416
2041.85,590.134,2.84062
2053.25,592.049,2.91576
2064.65,593.962,2.97571
2076.05,595.873,3.01741
2087.45,597.78,3.04578
2098.85,599.687,3.06146
2110.25,601.591,3.03413
2121.65,603.492,3.01053
2133.05,605.389,2.98944
2144.45,607.287,2.971
2155.85,609.178,2.92682
2167.25,611.06,2.86886
2178.65,612.949,2.93264
2190.05,614.833,2.93418
2201.45,616.718,2.92828
2212.85,618.61,2.95721
2224.25,620.506,3.03046
2235.65,622.409,3.04336
2247.05,624.326,3.10375
2258.45,626.253,3.15531
2269.85,628.181,3.13933
2281.25,630.131,3.21335
2292.65,632.089,3.30549
2304.05,634.051,3.34441
2315.45,636.025,3.39704
2326.85,637.983,3.36207
2338.25,639.94,3.38523
2349.65,641.886,3.30435
2361.05,643.805,3.23799
2372.45,645.697,3.10007
2383.85,647.551,2.94456
2395.25,649.375,2.70721
2406.65,651.156,2.46273
2418.05,652.937,2.47509
2429.45,654.718,2.40667
2440.85,656.471,2.38989
2452.25,658.196,2.22997
2463.65,659.94,2.25348
2475.05,661.693,2.18534
2486.45,663.462,2.09245
2497.85,665.246,1.99974
2509.25,667.057,1.91163
2520.65,668.895,1.83305
2532.05,670.759,1.76305
2543.45,672.652,1.70122
2554.85,674.568,1.64401
2566.25,676.512,1.59157
2577.65,678.475,1.5438
2589.05,680.448,1.49926
2600.45,682.434,1.45993
2611.85,684.423,1.42421
2623.25,686.41,1.38995
2634.65,688.403,1.35504
2646.05,690.389,1.31698
2657.45,692.361,1.26827
2668.85,694.324,1.21186
2680.25,696.274,1.15176
2691.65,698.21,1.09461
2703.05,700.14,1.0621
2714.45,702.057,1.05715
2725.85,703.967,1.0624
2737.25,705.869,1.07043
2748.65,707.766,1.079
2760.05,709.66,1.08644
2771.45,711.55,1.09434
2782.85,713.44,1.10189
2794.25,715.329,1.10797
2805.65,717.214,1.11294
2817.05,719.102,1.11707
2828.45,720.992,1.12124
2839.85,722.883,1.12217
2851.25,724.772,1.12181
2862.65,726.667,1.11954
2874.05,728.562,1.11463
2885.45,730.461,1.1081
2896.85,732.357,1.09705
2908.25,734.26,1.08333
2919.65,736.16,1.06476
2931.05,738.061,1.04127
2942.45,739.964,1.01395
2953.85,741.868,0.98003
2965.25,743.772,0.93908
2976.65,745.678,0.89126
2988.05,747.582,0.83532
2999.45,749.482,0.77362
3010.85,751.386,0.70843
3022.25,753.285,0.64429
3033.65,755.181,0.58482
3045.05,757.083,0.53535
3056.45,758.98,0.49678
3067.85,760.874,0.46793
3079.25,762.77,0.44565
3090.65,764.661,0.43007
3102.05,766.554,0.41832
3113.45,768.449,0.41153
3124.85,770.344,0.40649
3136.25,772.24,0.4033
3147.65,774.142,0.40039
3159.05,776.039,0.39877
3170.45,777.937,0.39733
3181.85,779.83,0.39615
3193.25,781.727,0.39614
3204.65,783.632,0.39642
3216.05,785.546,0.3973
3227.45,787.479,0.39887
3238.85,789.423,0.40141
3250.25,791.372,0.40543
3261.65,793.321,0.40944
3273.05,795.262,0.41257
3284.45,797.2,0.4168
3295.85,799.122,0.42081
3307.25,801.031,0.42427
3318.65,802.934,0.42761
3330.05,804.819,0.43103
3341.45,806.695,0.43265
3352.85,808.567,0.43525
3364.25,810.442,0.43763
3375.65,812.306,0.44018
3387.05,814.173,0.44241
3398.45,816.043,0.44545
3409.85,817.918,0.4473
3421.25,819.8,0.45031
3432.65,821.683,0.451
3436.85,822.381,0.45132