File: Non-charring/PMMA/TIFP/TIFP_TGA_N2_10K_4.csv
Time,Temperature,Mass
[s],[K],[mg]
0,300.339,5.1046
12,300.323,5.1073
24,300.365,5.1073
36,300.562,5.1074
48,301.006,5.1095
60,301.77,5.1108
72,302.903,5.1129
84,304.434,5.1134
96,306.356,5.1144
108,308.631,5.1156
120,311.195,5.1173
132,313.966,5.116
144,316.884,5.1187
156,319.859,5.1174
168,322.838,5.1191
180,325.774,5.1207
192,328.624,5.1193
204,331.371,5.1207
216,334.001,5.122
228,336.514,5.1247
240,338.921,5.1249
252,341.232,5.1263
264,343.462,5.1263
276,345.62,5.1289
288,347.728,5.1316
300,349.794,5.133
312,351.832,5.133
324,353.85,5.1343
336,355.856,5.1343
348,357.851,5.1357
360,359.846,5.136
372,361.834,5.1378
384,363.827,5.1401
396,365.812,5.1411
408,367.795,5.1408
420,369.778,5.1425
432,371.756,5.1416
444,373.737,5.1411
456,375.712,5.1438
468,377.693,5.1452
480,379.67,5.1452
492,381.65,5.1465
504,383.635,5.1452
516,385.626,5.1608
528,387.615,5.1592
540,389.612,5.1552
552,391.613,5.1509
564,393.618,5.1515
576,395.631,5.1519
588,397.639,5.1532
600,399.656,5.1532
612,401.674,5.1542
624,403.692,5.1532
636,405.715,5.1529
648,407.738,5.1529
660,409.764,5.1634
672,411.784,5.1499
684,413.809,5.1499
696,415.829,5.1499
708,417.848,5.1496
720,419.87,5.1496
732,421.883,5.1483
744,423.893,5.1483
756,425.906,5.1469
768,427.912,5.1446
780,429.916,5.1459
792,431.923,5.1442
804,433.92,5.1428
816,435.92,5.1415
828,437.914,5.1375
840,439.91,5.1368
852,441.904,5.1334
864,443.892,5.1307
876,445.886,5.1294
888,447.876,5.1254
900,449.866,5.1191
912,451.86,5.1154
924,453.85,5.1089
936,455.842,5.1069
948,457.831,5.0984
960,459.824,5.0898
972,461.811,5.0849
984,463.805,5.0804
996,465.797,5.0729
1008,467.789,5.0666
1020,469.786,5.0619
1032,471.779,5.0554
1044,473.776,5.0511
1056,475.775,5.0458
1068,477.769,5.0404
1080,479.766,5.0348
1092,481.76,5.0295
1104,483.753,5.0241
1116,485.748,5.0187
1128,487.737,5.0137
1140,489.731,5.0117
1152,491.727,5.0137
1164,493.722,5.0137
1176,495.714,5.0113
1188,497.713,5.0066
1200,499.704,5.0049
1212,501.703,5.0035
1224,503.697,5.0053
1236,505.696,5.004
1248,507.694,5.0053
1260,509.693,5.0025
1272,511.692,5.0028
1284,513.695,5.0022
1296,515.69,4.9995
1308,517.69,4.9998
1320,519.69,4.9998
1332,521.696,4.9985
1344,523.695,4.9981
1356,525.694,4.9958
1368,527.696,4.9948
1380,529.694,4.9932
1392,531.696,4.9912
1404,533.692,4.9895
1416,535.693,4.9872
1428,537.689,4.9858
1440,539.687,4.9818
1452,541.684,4.9778
1464,543.677,4.9768
1476,545.673,4.9721
1488,547.664,4.9676
1500,549.672,4.9623
1512,551.673,4.9568
1524,553.674,4.9514
1536,555.675,4.9458
1548,557.669,4.939
1560,559.664,4.9325
1572,561.662,4.924
1584,563.657,4.9151
1596,565.651,4.9046
1608,567.649,4.8954
1620,569.642,4.8823
1632,571.639,4.8734
1644,573.634,4.8605
1656,575.632,4.8497
1668,577.626,4.837
1680,579.619,4.8258
1692,581.617,4.8106
1704,583.616,4.7969
1716,585.617,4.7808
1728,587.609,4.7649
1740,589.605,4.7488
1752,591.602,4.7306
1764,593.595,4.7099
1776,595.588,4.6885
1788,597.587,4.6629
1800,599.587,4.636
1812,601.589,4.6066
1824,603.587,4.5745
1836,605.584,4.5368
1848,607.585,4.4918
1860,609.588,4.4456
1872,611.59,4.3907
1884,613.588,4.3329
1896,615.584,4.2671
1908,617.583,4.1972
1920,619.583,4.1153
1932,621.581,4.023
1944,623.592,3.9246
1956,625.594,3.8155
1968,627.594,3.6963
1980,629.592,3.5691
1992,631.583,3.4291
2004,633.572,3.2818
2016,635.557,3.1251
2028,637.533,2.9645
2040,639.51,2.8019
2052,641.487,2.6406
2064,643.468,2.4844
2076,645.495,2.3203
2088,647.494,2.1464
2100,649.489,1.9773
2112,651.481,1.8066
2124,653.476,1.6439
2136,655.473,1.4846
2148,657.472,1.3367
2160,659.473,1.1982
2172,661.468,1.0687
2184,663.46,0.952
2196,665.458,0.849
2208,667.461,0.7595
2220,669.461,0.6798
2232,671.479,0.6091
2244,673.496,0.5481
2256,675.505,0.4936
2268,677.515,0.4473
2280,679.52,0.4083
2292,681.519,0.3768
2304,683.517,0.3497
2316,685.507,0.331
2328,687.5,0.3137
2340,689.494,0.2994
2352,691.485,0.2879
2364,693.479,0.2765
2376,695.473,0.2683
2388,697.468,0.2619
2400,699.457,0.2591
2412,701.451,0.2551
2424,703.446,0.2508
2436,705.437,0.2481
2448,707.43,0.2446
2460,709.422,0.2441
2472,711.42,0.2447
2484,713.413,0.2427
2496,715.405,0.2444
2508,717.397,0.2447
2520,719.389,0.2457
2532,721.38,0.2451
2544,723.375,0.2464
2556,725.372,0.2471
2568,727.371,0.2457
2580,729.369,0.2457
2592,731.364,0.2471
2604,733.365,0.2471
2616,735.371,0.2471
2628,737.39,0.2474
2640,739.403,0.2471
2652,741.415,0.2498
2664,743.422,0.2498
2676,745.424,0.2498
2688,747.424,0.2514
2700,749.421,0.2508
2712,751.415,0.2498
2724,753.411,0.2524
2736,755.408,0.2511
2748,757.405,0.2534
2760,759.399,0.2521
2772,761.39,0.2561
2784,763.38,0.2555
2796,765.367,0.2568
2808,767.365,0.2568
2820,769.363,0.2578
2832,771.365,0.2575
2844,773.368,0.2578
2856,775.372,0.2588
2868,777.381,0.2588
2880,779.387,0.2602
2892,781.395,0.2612
2904,783.421,0.2632
2916,785.442,0.2608
2928,787.457,0.2618
2940,789.467,0.2632
2952,791.477,0.2632
2964,793.482,0.2632
2976,795.485,0.2615
2988,797.486,0.2642
3000,799.485,0.2645
3012,801.479,0.2641
3024,803.468,0.2641
3036,805.46,0.2681
3048,807.456,0.2667
3060,809.447,0.2681
3072,811.439,0.2681
3084,813.431,0.267
3096,815.426,0.2707
3108,817.428,0.2697
3120,819.438,0.2693
3132,821.443,0.2713
3135,821.949,0.2707