File: Non-charring/PMMA/TIFP/TIFP_Cone_25_3.csv
Time,mass,HRR,Back surface temperature 1,Back surface temperature 2
s,g,kW/m2,K,K
0,69.88,-1.03571,299.15,299.45
4,70.1129,-0.833333,299.05,299.35
8,69.7776,-0.309524,298.85,299.05
12,69.6676,-0.583333,298.85,299.05
16,69.598,0.25,298.95,299.15
20,69.6149,1.65476,299.35,299.55
24,69.5419,0.607143,300.35,300.45
28,69.5276,-0.77381,302.95,302.35
32,69.5038,-0.690476,305.25,304.85
36,69.4872,2.15476,307.95,307.25
40,69.5145,2.85714,310.95,309.95
44,69.4755,4.05952,314.25,312.95
48,69.5071,3.47619,317.85,316.05
52,69.4777,1.95238,321.55,319.25
56,69.4949,2.91667,325.35,322.55
60,69.4734,4.35714,329.25,326.05
64,69.4874,5.09524,333.35,329.55
68,69.4988,5.2619,337.35,333.05
72,69.5689,3.64286,342.75,336.65
76,69.6217,3.02381,346.85,340.15
80,69.6214,2.05952,350.75,343.75
84,69.6705,7.09524,354.85,348.65
88,69.7006,7.39286,358.75,352.35
92,69.7403,4.90476,362.55,355.95
96,69.7356,0.75,366.25,359.55
100,69.6934,38.2857,369.95,363.05
104,69.5941,132.738,373.35,366.55
108,69.3114,226.667,376.85,369.85
112,68.9108,286.476,380.15,373.15
116,68.4161,313,383.45,376.35
120,67.9969,321.75,386.55,379.45
124,67.5863,343.048,389.85,382.45
128,67.1819,346.036,393.35,385.55
132,66.7961,352.619,396.85,388.45
136,66.286,362.643,400.55,391.25
140,65.7509,367.786,404.15,394.45
144,65.2641,366.774,407.75,397.95
148,64.759,367.048,411.25,401.45
152,64.2541,365.869,414.75,404.95
156,63.7529,364.381,418.25,408.35
160,63.2189,371.833,421.65,411.85
164,62.7122,373.286,426.15,415.35
168,62.2273,387.643,429.55,418.65
172,61.6293,384.893,432.95,423.35
176,61.1663,386.25,436.55,426.55
180,60.61,384.131,440.05,429.95
184,60.0634,395.036,443.45,433.25
188,59.5292,398.321,447.05,436.65
192,58.9893,379.095,450.55,440.05
196,58.4656,391.786,453.95,443.15
200,57.9078,397.238,457.35,446.35
204,57.3625,398.048,460.75,449.55
208,56.8098,402.667,463.85,452.65
212,56.2497,411.119,467.15,455.45
216,55.6747,409.464,469.85,456.95
220,55.1196,411.262,472.55,457.55
224,54.5216,404.869,475.55,460.65
228,53.9589,406.464,478.15,463.75
232,53.3205,412.345,480.75,467.05
236,52.7481,420.131,482.85,470.35
240,52.0907,428.476,486.75,474.25
244,51.4529,456.488,488.85,481.15
248,50.7684,458.202,485.25,485.85
252,50.1096,452.679,489.15,489.75
256,49.4539,449.857,492.15,492.35
260,48.7665,463.488,495.55,493.25
264,48.3504,477.048,497.65,497.55
268,47.6962,474.155,499.65,498.75
272,46.8847,467.762,503.95,501.05
276,46.1904,489.75,508.45,503.25
280,45.6378,487.333,513.05,505.95
284,44.9464,498.762,517.65,511.05
288,44.4694,492.845,522.25,513.15
292,43.7628,518.452,525.65,515.95
296,43.0669,513.298,529.85,519.45
300,42.3088,513.714,532.15,523.85
304,41.6152,508.476,535.65,527.75
308,40.9077,506.619,540.15,535.05
312,40.2049,510.619,544.35,542.65
316,39.4467,507.869,548.05,552.55
320,38.7031,524.286,552.25,556.15
324,37.9591,506.381,558.65,559.45
328,37.1755,506.548,565.95,562.05
332,36.4731,539.214,572.05,564.95
336,35.7728,521.94,580.25,567.65
340,35.2322,524.56,588.15,570.35
344,34.5677,518.286,586.45,572.95
348,33.7311,528.905,584.35,574.85
352,33.1338,528.702,589.35,575.55
356,32.3365,522.155,593.05,575.35
360,31.571,547.952,597.05,578.25
364,30.8354,535.726,600.35,581.25
368,30.1168,535.131,607.35,584.25
372,29.3465,537.726,613.25,587.55
376,28.5991,534.75,618.05,590.65
380,27.8232,542.143,623.15,594.05
384,27.2034,556.595,626.75,597.85
388,26.3056,541.298,631.05,601.45
392,25.5933,521.857,636.45,605.35
396,25.2001,545.429,643.35,608.85
400,24.4717,534.988,652.85,613.55
404,23.6878,550.774,,
408,22.9166,528.452,,
412,22.1257,550.69,,
416,21.3839,543.155,,
420,20.656,529.107,,
424,19.9333,533.619,,
428,19.1373,537.321,,
432,18.3877,544.619,,
436,17.6914,498.405,,
440,17.0264,462.31,,
444,16.3865,422.5,,
448,15.8562,383.381,,
452,15.3205,331.274,,
456,14.8625,308.56,,
460,14.4571,268.619,,
464,14.0887,243.81,,
468,13.7407,225.488,,
472,13.4678,209.095,,
476,13.1817,193,,
480,12.9366,186.417,,
484,12.6709,178.798,,
488,12.4287,175.798,,
492,12.1617,172.44,,
496,11.9513,169.298,,
500,11.7166,166.155,,
504,11.5025,165.607,,
508,11.2637,160.75,,
512,11.0596,161.024,,
516,10.8694,150.536,,
520,10.6395,154.071,,
524,10.4137,155.905,,
528,10.1861,154.119,,
532,9.9846,152.905,,
536,9.7811,148.548,,
540,9.5743,147.071,,
544,9.3707,142.107,,
548,9.1746,133.405,,
552,9.0071,123.488,,
556,8.8318,121.393,,
560,8.6673,116.857,,
564,8.5278,111.548,,
568,8.3899,108.75,,
572,8.25,104.929,,
576,8.0941,106.071,,
580,7.93,104.94,,
584,7.7822,101.333,,
588,7.6478,100.81,,
592,7.5022,104.048,,
596,7.3721,102.964,,
600,7.2188,101.869,,
604,7.0909,100.214,,
608,6.9416,102.012,,
612,6.7957,102.226,,
616,6.6482,100.512,,
620,6.5194,100.286,,
624,6.4079,99.9167,,
628,6.2622,96.0476,,
632,6.1374,97.0357,,
636,5.9965,99.7738,,
640,5.8794,99.7381,,
644,5.715,98.0952,,
648,5.5408,101.25,,
652,5.4247,99.2857,,
656,5.2986,95.6548,,
660,5.1692,94.2619,,
664,5.0512,89.2857,,
668,4.9138,85.1667,,
672,4.7858,87.9643,,
676,4.6752,86.2857,,
680,4.5587,83.1429,,
684,4.4244,80.2381,,
688,4.367,79.6071,,
692,4.2255,77.0595,,
696,4.1073,77.6548,,
700,4.0567,76.9048,,
704,3.9482,73.9167,,
708,3.8723,72.869,,
712,3.7696,68.25,,
716,3.6796,65.0119,,
720,3.571,60.7024,,
724,3.5122,57.3095,,
728,3.4233,56.6905,,
732,3.3686,57.0357,,
736,3.2877,51.131,,
740,3.2356,48,,
744,3.1763,44.75,,
748,3.1248,42.4643,,
752,3.0873,40.2619,,
756,3.0195,38.2024,,
760,2.9702,37.119,,
764,2.934,38.7738,,
768,2.9282,37.5833,,
772,2.8367,37.119,,
776,2.8045,37.2262,,
780,2.7148,35.8929,,
784,2.6979,33.7738,,
788,2.6504,32.0476,,
792,2.6027,30.25,,
796,2.5386,30.0595,,
800,2.5018,29.3214,,
804,2.4716,27.2857,,
808,2.4462,24.9881,,
812,2.4083,24.9167,,
816,2.3973,23.4524,,
820,2.3455,20.6786,,
824,2.3368,19.8571,,
828,2.3207,19.5,,
832,2.2804,21.4643,,
836,2.2696,21.4524,,
840,2.2422,19.4286,,
844,2.2395,18.7619,,
848,2.2126,17.1667,,
852,2.2025,16.7619,,
856,2.1732,16.6667,,
860,2.1584,17.2024,,
864,2.1485,17.9405,,
868,2.142,19.369,,
872,2.1123,17.5,,
876,2.0931,15.7976,,
880,2.0701,14.5476,,
884,2.0571,14.4881,,
888,2.05,13.1905,,
892,2.0296,13.0714,,
896,1.9696,11.2976,,
900,1.9615,11.2024,,
904,1.9371,13.1667,,
908,1.9212,13.5952,,
912,1.9057,14.4881,,
916,1.8521,15.0238,,
920,1.8249,13.2262,,
924,1.8224,11.5952,,
928,1.8181,9.66667,,
932,1.8104,8.2619,,
936,1.7946,6.96429,,
940,1.7916,6.95238,,
944,1.8014,6.41667,,
948,1.784,5.21429,,
952,1.7421,5.80952,,
956,1.7836,6.60714,,
960,1.7517,6.39286,,
964,1.7714,4.35714,,
968,1.7321,5.03571,,
972,1.7164,4.4881,,
976,1.7034,4.25,,
980,1.6886,5.32143,,
984,1.69,5.54762,,
988,1.6916,4.19048,,
992,1.6638,3.52381,,
996,1.6561,4.94048,,
1000,1.655,4.35714,,