File: Non-charring/PMMA/TIFP/TIFP_TGA_N2_10K_7.csv
Time,Temperature,Mass
[s],[K],[mg]
0,300.13,5.6086
12,300.136,5.6087
24,300.205,5.6095
36,300.428,5.6099
48,300.899,5.6093
60,301.687,5.6117
72,302.842,5.6111
84,304.396,5.6113
96,306.339,5.6113
108,308.628,5.6122
120,311.207,5.6132
132,313.997,5.613
144,316.925,5.6122
156,319.912,5.6142
168,322.906,5.6123
180,325.846,5.6134
192,328.706,5.6135
204,331.452,5.6135
216,334.082,5.6135
228,336.595,5.6135
240,338.999,5.6125
252,341.296,5.6149
264,343.516,5.6149
276,345.665,5.6149
288,347.757,5.6152
300,349.812,5.6152
312,351.837,5.6162
324,353.847,5.6162
336,355.841,5.6162
348,357.831,5.6175
360,359.823,5.6175
372,361.807,5.6168
384,363.796,5.6188
396,365.787,5.6174
408,367.772,5.6184
420,369.759,5.6181
432,371.737,5.6189
444,373.721,5.6205
456,375.704,5.6205
468,377.687,5.6191
480,379.673,5.6198
492,381.654,5.6191
504,383.642,5.6198
516,385.63,5.6178
528,387.625,5.6178
540,389.622,5.6178
552,391.62,5.6191
564,393.624,5.6191
576,395.629,5.6178
588,397.64,5.6209
600,399.654,5.6165
612,401.669,5.6176
624,403.688,5.618
636,405.707,5.6177
648,407.732,5.6163
660,409.752,5.6176
672,411.775,5.617
684,413.797,5.6163
696,415.819,5.6136
708,417.843,5.6136
720,419.863,5.6136
732,421.877,5.6116
744,423.893,5.611
756,425.904,5.6086
768,427.913,5.6069
780,429.918,5.6049
792,431.923,5.6032
804,433.921,5.6026
816,435.919,5.5992
828,437.914,5.5969
840,439.907,5.5948
852,441.902,5.5912
864,443.894,5.5881
876,445.886,5.5838
888,447.883,5.5761
900,449.876,5.5724
912,451.874,5.5666
924,453.867,5.5585
936,455.862,5.5532
948,457.854,5.5465
960,459.847,5.5366
972,461.839,5.5296
984,463.829,5.5241
996,465.818,5.516
1008,467.813,5.5072
1020,469.803,5.5018
1032,471.794,5.4947
1044,473.784,5.4903
1056,475.778,5.4803
1068,477.775,5.4756
1080,479.769,5.4689
1092,481.765,5.4625
1104,483.758,5.4581
1116,485.75,5.4538
1128,487.745,5.4487
1140,489.739,5.4447
1152,491.736,5.442
1164,493.731,5.4407
1176,495.731,5.4366
1188,497.732,5.4352
1200,499.729,5.4325
1212,501.728,5.4312
1224,503.723,5.4302
1236,505.717,5.4285
1248,507.713,5.4285
1260,509.705,5.4272
1272,511.7,5.4265
1284,513.693,5.4245
1296,515.691,5.4231
1308,517.687,5.4235
1320,519.687,5.4211
1332,521.684,5.4198
1344,523.682,5.4178
1356,525.682,5.4171
1368,527.68,5.4143
1380,529.683,5.413
1392,531.68,5.4116
1404,533.681,5.4088
1416,535.679,5.4061
1428,537.677,5.402
1440,539.673,5.3987
1452,541.676,5.3966
1464,543.679,5.3913
1476,545.68,5.3848
1488,547.677,5.3818
1500,549.675,5.3771
1512,551.668,5.3716
1524,553.66,5.3648
1536,555.66,5.3553
1548,557.653,5.3497
1560,559.649,5.3397
1572,561.648,5.33
1584,563.639,5.3235
1596,565.635,5.3107
1608,567.63,5.3005
1620,569.629,5.2869
1632,571.622,5.2755
1644,573.62,5.2607
1656,575.614,5.2492
1668,577.609,5.234
1680,579.609,5.2219
1692,581.606,5.2057
1704,583.601,5.1901
1716,585.599,5.1714
1728,587.598,5.1584
1740,589.599,5.1365
1752,591.598,5.1181
1764,593.597,5.0968
1776,595.595,5.0728
1788,597.595,5.0458
1800,599.592,5.0157
1812,601.591,4.9839
1824,603.589,4.9469
1836,605.587,4.9073
1848,607.587,4.8628
1860,609.587,4.8076
1872,611.584,4.7554
1884,613.581,4.6897
1896,615.576,4.6198
1908,617.573,4.5395
1920,619.571,4.4521
1932,621.566,4.3561
1944,623.567,4.2472
1956,625.562,4.1321
1968,627.56,4.0024
1980,629.556,3.8639
1992,631.55,3.7133
2004,633.547,3.5499
2016,635.536,3.3833
2028,637.52,3.2071
2040,639.506,3.0287
2052,641.493,2.8542
2064,643.482,2.6781
2076,645.485,2.4978
2088,647.5,2.3131
2100,649.497,2.1293
2112,651.497,1.9454
2124,653.489,1.7637
2136,655.494,1.5875
2148,657.492,1.4215
2160,659.493,1.2638
2172,661.493,1.1127
2184,663.49,0.9699
2196,665.487,0.8467
2208,667.479,0.7385
2220,669.479,0.6426
2232,671.483,0.559
2244,673.482,0.4839
2256,675.487,0.4194
2268,677.487,0.3651
2280,679.489,0.3175
2292,681.487,0.2805
2304,683.481,0.2487
2316,685.478,0.2267
2328,687.472,0.2041
2340,689.47,0.1857
2352,691.466,0.1727
2364,693.459,0.1601
2376,695.449,0.1534
2388,697.445,0.1423
2400,699.443,0.1365
2412,701.441,0.1284
2424,703.436,0.1275
2436,705.431,0.1214
2448,707.427,0.1177
2460,709.419,0.1205
2472,711.42,0.1156
2484,713.415,0.1156
2496,715.405,0.1142
2508,717.393,0.1156
2520,719.382,0.1173
2532,721.377,0.1159
2544,723.369,0.1159
2556,725.363,0.1146
2568,727.363,0.1173
2580,729.366,0.1146
2592,731.368,0.1146
2604,733.374,0.1146
2616,735.381,0.1159
2628,737.387,0.1146
2640,739.391,0.1169
2652,741.398,0.1129
2664,743.401,0.1142
2676,745.403,0.1142
2688,747.404,0.1142
2700,749.406,0.1169
2712,751.403,0.1141
2724,753.401,0.1155
2736,755.396,0.1158
2748,757.397,0.1148
2760,759.394,0.1176
2772,761.394,0.1156
2784,763.398,0.1129
2796,765.402,0.1152
2808,767.404,0.1152
2820,769.407,0.1179
2832,771.408,0.1126
2844,773.412,0.1146
2856,775.416,0.1132
2868,777.42,0.1151
2880,779.422,0.1145
2892,781.423,0.1127
2904,783.425,0.1134
2916,785.425,0.1147
2928,787.428,0.114
2940,789.433,0.1145
2952,791.434,0.1138
2964,793.441,0.1135
2976,795.441,0.1146
2988,797.447,0.1122
3000,799.448,0.1122
3012,801.447,0.1126
3024,803.445,0.1129
3036,805.445,0.1129
3048,807.442,0.1142
3060,809.446,0.1116
3072,811.449,0.1152
3084,813.456,0.1126
3096,815.461,0.1129
3108,817.469,0.1129
3120,819.476,0.1129
3132,821.477,0.1131
3135,821.98,0.1145