File: Non-charring/PMMA/TIFP/TIFP_TGA_N2_10K_1.csv
Time,Temperature,Mass
[s],[K],[mg]
0,300.105,5.4338
22.8,300.111,5.43749
45.6,300.114,5.44185
68.4,300.12,5.4452
91.2,300.126,5.44755
114,300.133,5.44889
136.8,300.134,5.45191
159.6,300.14,5.45326
182.4,300.139,5.45392
205.2,300.144,5.45761
228,300.149,5.45963
250.8,300.151,5.46097
273.6,300.154,5.46264
296.4,300.156,5.46365
309.0498,300.157,5.46566
320.4498,300.198,5.46812
331.8498,300.353,5.46768
343.2498,300.702,5.46868
354.6498,301.317,5.468
366.0498,302.246,5.46856
377.4498,303.527,5.46901
388.8498,305.161,5.47136
400.2498,307.135,5.47159
411.6498,309.404,5.47293
423.0498,311.908,5.46969
434.4498,314.581,5.47203
445.8498,317.365,5.47393
457.2498,320.196,5.47404
468.6498,323.02,5.47382
480.0498,325.8,5.4755
491.4498,328.517,5.47415
502.8498,331.132,5.47281
514.2498,333.65,5.47549
525.6498,336.057,5.47784
537.0498,338.366,5.47662
548.4498,340.588,5.47673
559.8498,342.728,5.47393
571.2498,344.799,5.47795
582.6498,346.818,5.47762
594.0498,348.796,5.47796
605.4498,350.74,5.4793
616.8498,352.663,5.4793
628.2498,354.569,5.4793
639.6498,356.469,5.47929
651.0498,358.364,5.47929
662.4498,360.255,5.47829
673.8498,362.142,5.4793
685.2498,364.027,5.48064
696.6498,365.916,5.48199
708.0498,367.804,5.48198
719.4498,369.685,5.48198
730.8498,371.57,5.48198
742.2498,373.449,5.48153
753.6498,375.334,5.48221
765.0498,377.217,5.48355
776.4498,379.094,5.48153
787.8498,380.976,5.48254
799.2498,382.863,5.48287
810.6498,384.744,5.47573
822.0498,386.635,5.49886
833.4498,388.527,5.48925
844.8498,390.421,5.48556
856.2498,392.324,5.4841
867.6498,394.227,5.48545
879.0498,396.137,5.48545
890.4498,398.048,5.48511
901.8498,399.965,5.4841
913.2498,401.88,5.48511
924.6498,403.797,5.48377
936.0498,405.712,5.48377
947.4498,407.627,5.48176
958.8498,409.543,5.47371
970.2498,411.456,5.47874
981.6498,413.369,5.4774
993.0498,415.282,5.47874
1004.45,417.196,5.47717
1015.85,419.108,5.47583
1027.25,421.019,5.47684
1038.65,422.931,5.47449
1050.05,424.847,5.47382
1061.45,426.754,5.47248
1072.85,428.663,5.47114
1084.25,430.569,5.46935
1095.65,432.472,5.47069
1107.05,434.373,5.46935
1118.45,436.273,5.47069
1129.85,438.169,5.46701
1141.25,440.066,5.46835
1152.65,441.964,5.467
1164.05,443.859,5.46465
1175.45,445.757,5.467
1186.85,447.651,5.46566
1198.25,449.545,5.46432
1209.65,451.442,5.46163
1221.05,453.334,5.45895
1232.45,455.226,5.46309
1243.85,457.12,5.46063
1255.25,459.014,5.45761
1266.65,460.909,5.45627
1278.05,462.808,5.45593
1289.45,464.699,5.45459
1300.85,466.596,5.45459
1312.25,468.492,5.45325
1323.65,470.389,5.4546
1335.05,472.288,5.45158
1346.45,474.186,5.45023
1357.85,476.083,5.45057
1369.25,477.986,5.44889
1380.65,479.882,5.45023
1392.05,481.781,5.44922
1403.45,483.68,5.44889
1414.85,485.581,5.44889
1426.25,487.479,5.44621
1437.65,489.377,5.44353
1449.05,491.273,5.44856
1460.45,493.162,5.44957
1471.85,495.063,5.44945
1483.25,496.956,5.44677
1494.65,498.851,5.44297
1506.05,500.744,5.44029
1517.45,502.634,5.44028
1528.85,504.527,5.44207
1540.25,506.423,5.44073
1551.65,508.317,5.44029
1563.05,510.216,5.44029
1574.45,512.111,5.44029
1585.85,514.01,5.4376
1597.25,515.908,5.43625
1608.65,517.81,5.4376
1620.05,519.708,5.43626
1631.45,521.606,5.43491
1642.85,523.501,5.43492
1654.25,525.398,5.43089
1665.65,527.295,5.43189
1677.05,529.187,5.43167
1688.45,531.086,5.42899
1699.85,532.979,5.42531
1711.25,534.876,5.42463
1722.65,536.776,5.42228
1734.05,538.678,5.41792
1745.45,540.586,5.4149
1756.85,542.497,5.40987
1768.25,544.415,5.40507
1779.65,546.325,5.39546
1791.05,548.239,5.38684
1802.45,550.148,5.37667
1813.85,552.058,5.36326
1825.25,553.966,5.34749
1836.65,555.875,5.32759
1848.05,557.776,5.30748
1859.45,559.677,5.28064
1870.85,561.582,5.2509
1882.25,563.48,5.21759
1893.65,565.383,5.17723
1905.05,567.279,5.13185
1916.45,569.176,5.08042
1927.85,571.072,5.02218
1939.25,572.966,4.95958
1950.65,574.859,4.88758
1962.05,576.757,4.80642
1973.45,578.663,4.71654
1984.85,580.571,4.6242
1996.25,582.486,4.52269
2007.65,584.398,4.4194
2019.05,586.307,4.30839
2030.45,588.221,4.19749
2041.85,590.134,4.08693
2053.25,592.049,3.97434
2064.65,593.962,3.86199
2076.05,595.873,3.75433
2087.45,597.78,3.64668
2098.85,599.687,3.54003
2110.25,601.591,3.43617
2121.65,603.492,3.33679
2133.05,605.389,3.23987
2144.45,607.287,3.14105
2155.85,609.178,3.0516
2167.25,611.06,2.96407
2178.65,612.949,2.87609
2190.05,614.833,2.78979
2201.45,616.718,2.70192
2212.85,618.61,2.61652
2224.25,620.506,2.532
2235.65,622.409,2.44111
2247.05,624.326,2.34956
2258.45,626.253,2.25789
2269.85,628.181,2.16879
2281.25,630.131,2.07276
2292.65,632.089,1.97673
2304.05,634.051,1.88148
2315.45,636.025,1.77662
2326.85,637.983,1.67779
2338.25,639.94,1.5736
2349.65,641.886,1.47086
2361.05,643.805,1.36599
2372.45,645.697,1.26191
2383.85,647.551,1.15716
2395.25,649.375,1.0608
2406.65,651.156,0.967234
2418.05,652.937,0.879033
2429.45,654.718,0.785463
2440.85,656.471,0.704082
2452.25,658.196,0.627722
2463.65,659.94,0.558182
2475.05,661.693,0.494352
2486.45,663.462,0.436662
2497.85,665.246,0.388261
2509.25,667.057,0.344881
2520.65,668.895,0.308661
2532.05,670.759,0.277581
2543.45,672.652,0.249971
2554.85,674.568,0.227501
2566.25,676.512,0.211181
2577.65,678.475,0.193521
2589.05,680.448,0.179431
2600.45,682.434,0.166461
2611.85,684.423,0.159981
2623.25,686.41,0.151041
2634.65,688.403,0.144221
2646.05,690.389,0.13841
2657.45,692.361,0.135721
2668.85,694.324,0.13025
2680.25,696.274,0.127561
2691.65,698.21,0.124881
2703.05,700.14,0.12353
2714.45,702.057,0.122531
2725.85,703.967,0.12219
2737.25,705.869,0.12085
2748.65,707.766,0.12353
2760.05,709.66,0.122871
2771.45,711.55,0.12153
2782.85,713.44,0.11951
2794.25,715.329,0.12219
2805.65,717.214,0.12219
2817.05,719.102,0.12152
2828.45,720.992,0.11951
2839.85,722.883,0.12085
2851.25,724.772,0.12152
2862.65,726.667,0.11884
2874.05,728.562,0.121191
2885.45,730.461,0.11951
2896.85,732.357,0.12085
2908.25,734.26,0.11805
2919.65,736.16,0.119401
2931.05,738.061,0.1184
2942.45,739.964,0.11661
2953.85,741.868,0.11795
2965.25,743.772,0.117941
2976.65,745.678,0.117941
2988.05,747.582,0.119281
2999.45,749.482,0.11895
3010.85,751.386,0.116601
3022.25,753.285,0.11728
3033.65,755.181,0.11728
3045.05,757.083,0.11661
3056.45,758.98,0.11661
3067.85,760.874,0.116601
3079.25,762.77,0.117941
3090.65,764.661,0.11895
3102.05,766.554,0.118611
3113.45,768.449,0.117941
3124.85,770.344,0.11761
3136.25,772.24,0.11761
3147.65,774.142,0.11761
3159.05,776.039,0.116601
3170.45,777.937,0.116601
3181.85,779.83,0.11929
3193.25,781.727,0.11693
3204.65,783.632,0.11828
3216.05,785.546,0.11862
3227.45,787.479,0.11828
3238.85,789.423,0.11862
3250.25,791.372,0.11828
3261.65,793.321,0.11895
3273.05,795.262,0.11627
3284.45,797.2,0.11761
3295.85,799.122,0.1176
3307.25,801.031,0.11761
3318.65,802.934,0.11761
3330.05,804.819,0.11761
3341.45,806.695,0.11761
3352.85,808.567,0.11761
3364.25,810.442,0.11582
3375.65,812.306,0.11716
3387.05,814.173,0.11716
3398.45,816.043,0.118511
3409.85,817.918,0.117171
3421.25,819.8,0.117171
3432.65,821.683,0.11716
3436.85,822.381,0.11716