File: Non-charring/PMMA/TIFP/TIFP_Cone_65kW_3.csv
Time,Mass,HRR,Back Surface Temperature 1,Back Surface Temperature 2
[s],[g],[kW/m2],[K],[K]
0,69.86,2.99879,298.75,298.85
2,69.8525,3.24251,298.75,298.85
4,69.8321,3.248055,298.85,298.85
6,69.7157,2.51762,298.95,298.95
8,69.6902,0.952524,298.95,298.95
10,69.6697,-8.7913,298.95,299.05
12,69.4755,32.8796,299.05,299.15
14,69.6928,127.805,299.35,299.35
16,69.6554,265.067,299.55,299.55
18,69.4845,422.534,301.35,300.75
20,69.1373,530.15,302.05,301.75
22,68.7247,586.953,303.55,303.55
24,68.3118,637.135,304.65,304.55
26,67.8549,659.777,307.05,306.75
28,67.3803,705.91,308.35,308.05
30,66.9327,712.669,311.45,310.85
32,66.44285,758.203,314.85,312.35
34,65.90682,761.009,316.75,315.75
36,65.3869,784.88,320.45,317.45
38,65.0302,802.268,322.25,321.15
40,64.3773,798.62,326.35,323.25
42,63.8501,766.733,328.35,327.25
44,63.3361,756.797,332.55,331.45
46,62.8202,759.068,334.55,333.65
48,62.314,760.193,338.95,337.95
50,61.7807,788.76,341.25,340.15
52,61.2358,811.366,345.45,344.65
54,60.7119,759.034,347.65,346.95
56,60.1608,766.017,352.25,351.55
58,59.6197,812.736,354.65,353.75
60,59.0908,847.007,359.05,358.45
62,58.54197,828.807,361.35,360.75
64,58.0274,795.985,365.95,365.25
66,57.4745,818.976,368.25,367.65
68,56.9136,796.893,372.95,372.25
70,56.36768,792.848,375.25,374.55
72,55.82366,822.075,379.75,379.05
74,55.2556,826.821,382.15,381.15
76,54.6855,834.436,386.55,385.55
78,54.1327,804.048,390.85,387.65
80,53.5925,860.137,393.15,391.75
82,53.0297,792.209,397.65,393.95
84,52.4312,820.497,399.85,398.55
86,51.8238,840.076,404.35,400.65
88,51.2853,916.582,406.85,405.45
90,50.69738,807.126,411.55,409.95
92,50.1265,849.468,413.85,412.25
94,49.5274,853.827,418.75,416.85
96,48.9327,899.553,420.95,419.15
98,48.33491,867.943,426.05,423.35
100,47.7304,905.126,428.45,425.55
102,47.1104,866.995,433.25,429.85
104,46.5192,903.707,435.75,431.75
106,45.93601,820.198,441.25,436.45
108,45.2949,879.136,447.35,438.95
110,44.6876,940.2,450.05,443.75
112,44.0664,952.471,453.05,446.45
114,43.4515,909.745,459.55,451.65
116,42.8211,938.888,462.45,454.65
118,42.1882,925.645,468.75,460.55
120,41.5584,934.378,475.55,463.85
122,40.9314,925.558,478.75,470.65
124,40.2922,1031.99,485.35,474.15
126,39.6262,989.883,489.05,481.05
128,39.0283,982.729,495.95,488.85
130,38.3644,934.954,499.95,492.75
132,37.6284,983.833,507.45,499.85
134,36.9564,1062.65,511.35,503.75
136,36.2904,1045.92,519.05,511.85
138,35.5753,1005.04,523.55,515.95
140,34.8755,1096.59,532.05,524.65
142,34.1611,1043.11,535.95,529.35
144,33.42159,1107.33,544.95,538.65
146,32.6944,1126.72,549.65,543.45
148,31.92962,1125.32,558.35,553.65
150,31.1467,1183.57,567.15,559.25
152,30.3854,1118.5,572.35,569.95
154,29.5917,1061.09,577.05,577.05
156,28.8134,1112.3,584.35,591.65
158,27.9911,1144.79,592.25,599.75
160,27.0979,1101.03,596.85,616.05
162,26.3063,1137.37,,
164,25.5289,1235.74,,
166,24.6903,1206.07,,
168,23.8805,1262.31,,
170,23.0949,1220.67,,
172,22.1935,1244.02,,
174,21.4149,1218.01,,
176,20.576,1181.64,,
178,19.6984,1240.52,,
180,18.8196,1203.74,,
182,17.9309,1308.12,,
184,17.1561,1128.54,,
186,16.3783,1022.26,,
188,15.6235,998.235,,
190,14.9562,824.204,,
192,14.37209,690.382,,
194,13.9151,637.269,,
196,13.48658,582.292,,
198,13.0388,489.124,,
200,12.6794,442.009,,
202,12.3712,411.478,,
204,12.1137,387.403,,
206,11.81385,351.312,,
208,11.613,335.942,,
210,11.3038,310.801,,
212,11.0509,300.078,,
214,10.8197,292.261,,
216,10.5512,289.65,,
218,10.2728,283.15,,
220,10.0781,271.239,,
222,9.83696,280.659,,
224,9.651805,274.322,,
226,9.482693,277.073,,
228,9.222602,284.379,,
230,9.078368,271.281,,
232,8.819887,278.193,,
234,8.614173,273.869,,
236,8.405445,278.548,,
238,8.171884,282.065,,
240,7.953033,288.965,,
242,7.702698,282.204,,
244,7.454365,284.964,,
246,7.346754,278.026,,
248,7.20542,281.11,,
250,6.955822,277.86,,
252,6.69217,276.82,,
254,6.491134,274.849,,
256,6.213838,264.552,,
258,6.016519,260.617,,
260,5.744734,264.158,,
262,5.587159,258.644,,
264,5.293651,245.299,,
266,5.119504,242.832,,
268,5.12929,250.951,,
270,4.951086,249.725,,
272,4.66512,258.016,,
274,4.588491,250.153,,
276,4.290153,255.479,,
278,4.03082,250.789,,
280,4.137439,257.712,,
282,4.014738,251.176,,
284,3.799491,238.645,,
286,3.498005,242.984,,
288,3.19071,238.342,,
290,2.906166,232.768,,
292,2.689249,226.307,,
294,2.746103,208.35,,
296,2.586996,200.025,,
298,2.476222,191.945,,
300,2.262748,174.178,,
302,2.153884,159.001,,
304,2.057157,150.453,,
306,1.984096,146.371,,
308,1.891131,137.832,,
310,1.773382,131.897,,
312,1.66909,127.987,,
314,1.593928,128.655,,
316,1.454192,126.039,,
318,1.415521,119.997,,
320,1.249999,117.592,,
322,1.249403,115.165,,
324,1.133088,114.882,,
326,1.078564,115.266,,
328,0.952261,107.167,,
330,0.897906,86.2144,,
332,0.796232,69.4954,,
334,0.818542,58.2663,,
336,0.763002,46.7703,,
338,0.75055,37.8732,,
340,0.659161,34.5836,,
342,0.651737,32.2937,,
344,0.630034,29.0944,,
346,0.580408,27.0967,,
348,0.585588,27.5082,,
350,0.555494,27.1634,,
352,0.529733,26.2668,,
354,0.485177,24.1542,,
356,0.621328,21.963,,
358,0.651085,20.0474,,
360,0.727577,17.893,,
362,0.694951,16.1177,,
364,0.703827,13.9384,,
366,0.617797,12.0354,,
368,0.664375,10.2376,,
370,0.612042,9.72352,,
372,0.633032,8.59789,,
374,0.571708,8.56225,,
376,0.661379,8.85997,,
378,0.55044,7.6903,,
380,0.556722,7.87765,,
382,0.540564,7.38905,,
384,0.560684,7.11125,,
386,0.519749,6.70643,,
388,0.568335,6.47218,,
390,0.499436,5.45853,,
392,0.518321,5.72756,,
394,0.489734,4.9432,,
396,0.523206,3.93385,,
398,0.501729,4.17904,,
400,0.518351,3.46122,,
402,0.499967,3.07605,,
404,0.525846,2.67319,,
406,0.494619,2.4527,,
408,0.514319,2.33771,,
410,0.492623,2.76478,,
412,0.492929,2.62513,,
414,0.503043,2.41564,,
416,0.477898,3.01713,,
418,0.479359,2.72294,,
420,0.464942,2.19474,,
422,0.490417,2.29463,,
424,0.474501,1.894245,,
426,0.480019,1.865615,,
428,0.436592,1.43588,,
430,0.489358,1.03184,,
432,0.436397,0.517452,,
434,0.472657,0.585771,,
436,0.430899,1.11382,,
438,0.505645,1.27667,,
440,0.464258,1.60398,,
442,0.509141,1.17865,,
444,0.431002,1.16036,,
446,0.491057,0.518586,,
448,0.427661,-0.729702,,
450,0.473805,-0.459421,,
452,0.425025,-0.206129,,
454,0.48929,0.285568,,
456,0.413188,0.520407,,
458,0.472964,0.604937,,
460,0.430997,0.37754,,
462,0.459428,0.640205,,
464,0.412324,1.54848,,
466,0.468339,1.33341,,
468,0.483251,1.64987,,
470,0.512954,1.41437,,
472,0.465052,1.26037,,
474,0.472484,1.65878,,
476,0.451406,2.34988,,
478,0.447156,2.31316,,
480,0.442046,1.89632,,
482,0.459309,1.36387,,
484,0.491949,0.408292,,
486,0.473873,0.848166,,
488,0.460969,0.44299,,
490,0.446497,0.434826,,
492,0.455678,0.806803,,
494,0.466333,0.344841,,
496,0.466892,0.377183,,
498,0.44721,0.733878,,
500,0.45,0.283596,,