File: Non-charring/PMMA/TIFP/TIFP_TGA_N2_10K_8.csv
Time,Temperature,Mass fraction
[s],[K],[mg]
0,300.149,5.0804
12,300.149,5.0806
24,300.221,5.0817
36,300.444,5.0829
48,300.91,5.0826
60,301.695,5.0831
72,302.851,5.0834
84,304.399,5.0837
96,306.341,5.0853
108,308.627,5.0864
120,311.205,5.0893
132,313.992,5.088
144,316.921,5.0872
156,319.912,5.0893
168,322.909,5.0891
180,325.852,5.0887
192,328.709,5.089
204,331.461,5.089
216,334.091,5.0903
228,336.605,5.0903
240,339.006,5.0903
252,341.308,5.0907
264,343.523,5.0917
276,345.672,5.0927
288,347.769,5.0944
300,349.825,5.0916
312,351.856,5.0954
324,353.866,5.094
336,355.864,5.0954
348,357.856,5.0967
360,359.844,5.0954
372,361.828,5.0959
384,363.812,5.0969
396,365.798,5.0979
408,367.776,5.0983
420,369.76,5.0969
432,371.742,5.0986
444,373.718,5.0986
456,375.698,5.0997
468,377.674,5.0996
480,379.654,5.0998
492,381.636,5.0989
504,383.621,5.1005
516,385.607,5.0993
528,387.599,5.0993
540,389.595,5.099
552,391.597,5.102
564,393.604,5.101
576,395.615,5.1009
588,397.63,5.1024
600,399.649,5.0998
612,401.669,5.1008
624,403.692,5.1024
636,405.714,5.1021
648,407.74,5.1001
660,409.763,5.1027
672,411.785,5.1007
684,413.81,5.0987
696,415.832,5.1002
708,417.849,5.0988
720,419.871,5.0975
732,421.886,5.0975
744,423.9,5.0968
756,425.91,5.0958
768,427.918,5.0935
780,429.924,5.0908
792,431.928,5.0894
804,433.926,5.0904
816,435.923,5.0854
828,437.916,5.0858
840,439.91,5.0837
852,441.907,5.0787
864,443.899,5.077
876,445.891,5.0727
888,447.885,5.0676
900,449.874,5.0637
912,451.865,5.0607
924,453.859,5.0522
936,455.85,5.0446
948,457.844,5.0406
960,459.835,5.0323
972,461.828,5.0283
984,463.818,5.0227
996,465.817,5.0144
1008,467.804,5.0076
1020,469.799,5.0002
1032,471.79,4.995
1044,473.784,4.9886
1056,475.775,4.9838
1068,477.77,4.9791
1080,479.765,4.9717
1092,481.762,4.967
1104,483.758,4.9594
1116,485.755,4.9568
1128,487.748,4.9541
1140,489.743,4.95
1152,491.74,4.9453
1164,493.737,4.942
1176,495.73,4.9433
1188,497.729,4.9405
1200,499.725,4.9382
1212,501.723,4.9368
1224,503.72,4.9353
1236,505.714,4.9346
1248,507.71,4.9333
1260,509.706,4.9333
1272,511.703,4.9313
1284,513.701,4.9333
1296,515.697,4.9319
1308,517.697,4.9309
1320,519.695,4.9256
1332,521.696,4.9256
1344,523.693,4.9252
1356,525.69,4.9239
1368,527.69,4.9201
1380,529.689,4.9201
1392,531.686,4.9197
1404,533.686,4.9139
1416,535.686,4.9139
1428,537.685,4.9126
1440,539.683,4.9092
1452,541.679,4.9054
1464,543.677,4.9003
1476,545.67,4.8963
1488,547.663,4.8939
1500,549.661,4.8872
1512,551.652,4.8837
1524,553.644,4.8766
1536,555.642,4.8692
1548,557.638,4.8634
1560,559.636,4.855
1572,561.631,4.849
1584,563.626,4.8391
1596,565.623,4.8315
1608,567.617,4.8228
1620,569.614,4.8095
1632,571.611,4.7997
1644,573.609,4.788
1656,575.604,4.774
1668,577.607,4.7637
1680,579.604,4.7517
1692,581.602,4.7364
1704,583.604,4.7231
1716,585.602,4.7098
1728,587.602,4.6949
1740,589.603,4.6755
1752,591.609,4.6582
1764,593.609,4.6357
1776,595.608,4.6177
1788,597.606,4.591
1800,599.603,4.5635
1812,601.598,4.5381
1824,603.593,4.5035
1836,605.595,4.4625
1848,607.595,4.4229
1860,609.593,4.3762
1872,611.587,4.3253
1884,613.586,4.2678
1896,615.583,4.203
1908,617.576,4.1313
1920,619.566,4.0509
1932,621.558,3.9627
1944,623.555,3.8644
1956,625.548,3.7602
1968,627.542,3.6396
1980,629.54,3.5158
1992,631.535,3.3791
2004,633.533,3.2319
2016,635.528,3.0779
2028,637.517,2.9162
2040,639.498,2.7499
2052,641.486,2.5823
2064,643.491,2.4238
2076,645.49,2.2543
2088,647.497,2.0801
2100,649.493,1.9056
2112,651.489,1.7289
2124,653.481,1.5627
2136,655.479,1.4027
2148,657.476,1.2517
2160,659.479,1.1114
2172,661.482,0.9799
2184,663.482,0.8667
2196,665.479,0.764
2208,667.484,0.6719
2220,669.49,0.595
2232,671.492,0.5295
2244,673.5,0.4627
2256,675.502,0.4104
2268,677.501,0.367
2280,679.503,0.3326
2292,681.497,0.2984
2304,683.494,0.2704
2316,685.489,0.2557
2328,687.487,0.2333
2340,689.478,0.2234
2352,691.471,0.2102
2364,693.463,0.2014
2376,695.46,0.1918
2388,697.455,0.186
2400,699.449,0.1803
2412,701.445,0.1763
2424,703.44,0.1717
2436,705.439,0.167
2448,707.434,0.1652
2460,709.432,0.1619
2472,711.426,0.1636
2484,713.418,0.1629
2496,715.411,0.1604
2508,717.404,0.1577
2520,719.395,0.1618
2532,721.385,0.1604
2544,723.377,0.1618
2556,725.369,0.1618
2568,727.365,0.1608
2580,729.367,0.1591
2592,731.365,0.1597
2604,733.363,0.1597
2616,735.362,0.1603
2628,737.364,0.1563
2640,739.361,0.159
2652,741.358,0.162
2664,743.357,0.1605
2676,745.358,0.1605
2688,747.361,0.1579
2700,749.362,0.1592
2712,751.371,0.1579
2724,753.381,0.1592
2736,755.389,0.1599
2748,757.402,0.1599
2760,759.409,0.1599
2772,761.414,0.1592
2784,763.419,0.1605
2796,765.422,0.16
2808,767.418,0.1586
2820,769.42,0.1613
2832,771.414,0.159
2844,773.411,0.16
2856,775.406,0.1583
2868,777.405,0.1596
2880,779.404,0.1583
2892,781.402,0.161
2904,783.407,0.1595
2916,785.415,0.1582
2928,787.421,0.1575
2940,789.424,0.1592
2952,791.431,0.1585
2964,793.435,0.1599
2976,795.439,0.1614
2988,797.441,0.156
3000,799.446,0.1574
3012,801.451,0.1621
3024,803.452,0.1583
3036,805.456,0.1583
3048,807.458,0.1593
3060,809.463,0.158
3072,811.469,0.1583
3084,813.477,0.1556
3096,815.483,0.1601
3108,817.49,0.1572
3120,819.496,0.1605
3132,821.5,0.1566
3135,821.998,0.158