File: Non-charring/PMMA/TIFP/TIFP_TGA_N2_10K_2.csv
Time,Temperature,Mass
[s],[K],[mg]
0,300.631,5.3668
22.8,300.59,5.36479
45.6,300.535,5.36211
68.4,300.46,5.35842
91.2,300.376,5.35573
114,300.29,5.3554
136.8,300.198,5.35406
159.6,300.11,5.35407
182.4,300.045,5.35506
205.2,300.002,5.35708
228,299.981,5.35876
250.8,299.992,5.36144
273.6,300.007,5.36379
296.4,300.032,5.36424
309,300.044,5.36558
320.4,300.1,5.36423
331.8,300.27,5.36569
343.2,300.636,5.3629
354.6,301.261,5.36669
366,302.201,5.36591
377.4,303.5,5.36255
388.8,305.148,5.36524
400.2,307.13,5.36256
411.6,309.409,5.36591
423,311.924,5.36413
434.4,314.604,5.36334
445.8,317.391,5.36267
457.2,320.225,5.36289
468.6,323.06,5.36244
480,325.843,5.36267
491.4,328.55,5.36267
502.8,331.168,5.35999
514.2,333.679,5.36166
525.6,336.085,5.36155
537,338.391,5.36245
548.4,340.612,5.36156
559.8,342.751,5.36021
571.2,344.823,5.36289
582.6,346.842,5.35954
594,348.813,5.3629
605.4,350.756,5.3629
616.8,352.681,5.3629
628.2,354.59,5.3629
639.6,356.489,5.36088
651,358.379,5.36021
662.4,360.272,5.36021
673.8,362.159,5.3592
685.2,364.046,5.35988
696.6,365.93,5.36122
708,367.812,5.35987
719.4,369.695,5.36043
730.8,371.58,5.3611
742.2,373.46,5.35831
753.6,375.339,5.363
765,377.221,5.36379
776.4,379.1,5.35909
787.8,380.983,5.35775
799.2,382.865,5.35909
810.6,384.751,5.35228
822,386.643,5.37552
833.4,388.533,5.36737
844.8,390.432,5.362
856.2,392.335,5.36222
867.6,394.24,5.35954
879,396.146,5.36088
890.4,398.057,5.36054
901.8,399.963,5.35976
913.2,401.881,5.36077
924.6,403.799,5.35809
936,405.716,5.35953
947.4,407.637,5.35685
958.8,409.552,5.34847
970.2,411.467,5.35216
981.6,413.378,5.35082
993,415.292,5.35216
1004.4,417.207,5.35193
1015.8,419.113,5.34925
1027.2,421.02,5.34892
1038.6,422.929,5.34724
1050,424.835,5.34657
1061.4,426.74,5.34389
1072.8,428.648,5.3449
1084.2,430.548,5.34177
1095.6,432.452,5.34177
1107,434.351,5.3411
1118.4,436.255,5.34244
1129.8,438.154,5.33976
1141.2,440.051,5.34009
1152.6,441.949,5.33762
1164,443.848,5.33494
1175.4,445.743,5.33762
1186.8,447.637,5.33628
1198.2,449.532,5.33226
1209.6,451.43,5.3336
1221,453.32,5.33092
1232.4,455.218,5.33092
1243.8,457.112,5.33047
1255.2,459.003,5.32779
1266.6,460.9,5.32276
1278,462.793,5.32343
1289.4,464.687,5.32477
1300.8,466.584,5.32209
1312.2,468.477,5.32309
1323.6,470.374,5.32276
1335,472.274,5.32142
1346.4,474.175,5.31873
1357.8,476.076,5.31907
1369.2,477.981,5.31873
1380.6,479.883,5.31739
1392,481.784,5.31739
1403.4,483.69,5.31471
1414.8,485.597,5.31348
1426.2,487.501,5.31214
1437.6,489.399,5.31315
1449,491.295,5.31684
1460.4,493.193,5.31684
1471.8,495.086,5.31684
1483.2,496.979,5.31416
1494.6,498.876,5.30767
1506,500.765,5.30633
1517.4,502.662,5.30498
1528.8,504.552,5.30677
1540.2,506.446,5.30834
1551.6,508.342,5.30499
1563,510.233,5.30499
1574.4,512.13,5.30465
1585.8,514.031,5.30331
1597.2,515.929,5.30196
1608.6,517.827,5.30331
1620,519.728,5.30197
1631.4,521.628,5.29794
1642.8,523.531,5.29929
1654.2,525.433,5.29525
1665.6,527.333,5.29391
1677,529.23,5.29369
1688.4,531.13,5.29235
1699.8,533.028,5.28867
1711.2,534.923,5.28698
1722.6,536.818,5.2843
1734,538.72,5.28016
1745.4,540.615,5.27614
1756.8,542.515,5.27077
1768.2,544.412,5.2634
1779.6,546.308,5.25837
1791,548.206,5.24909
1802.4,550.105,5.23958
1813.8,552.005,5.22572
1825.2,553.907,5.21365
1836.6,555.809,5.19531
1848,557.712,5.17452
1859.4,559.617,5.15171
1870.8,561.52,5.12813
1882.2,563.423,5.09682
1893.6,565.326,5.06049
1905,567.229,5.02103
1916.4,569.13,4.97799
1927.8,571.033,4.92712
1939.2,572.933,4.8719
1950.6,574.835,4.81086
1962,576.735,4.73942
1973.4,578.635,4.66206
1984.8,580.532,4.58192
1996.2,582.431,4.49136
2007.6,584.332,4.39689
2019,586.234,4.29561
2030.4,588.135,4.19031
2041.8,590.042,4.08511
2053.2,591.945,3.97544
2064.6,593.857,3.86499
2076,595.776,3.75521
2087.4,597.707,3.64778
2098.8,599.651,3.53777
2110.2,601.601,3.43291
2121.6,603.555,3.32906
2133,605.518,3.22867
2144.4,607.477,3.1275
2155.8,609.43,3.03459
2167.2,611.38,2.93879
2178.6,613.319,2.84924
2190,615.242,2.75925
2201.4,617.155,2.66871
2212.8,619.06,2.58163
2224.2,620.954,2.49577
2235.6,622.842,2.40421
2247,624.735,2.31321
2258.4,626.625,2.22512
2269.8,628.506,2.13401
2281.2,630.397,2.04178
2292.6,632.285,1.94642
2304,634.169,1.85195
2315.4,636.055,1.75548
2326.8,637.938,1.65598
2338.2,639.814,1.55492
2349.6,641.709,1.45632
2361,643.592,1.35057
2372.4,645.468,1.24615
2383.8,647.32,1.14252
2395.2,649.175,1.04023
2406.6,651.003,0.937608
2418,652.789,0.844258
2429.4,654.572,0.752148
2440.8,656.354,0.664499
2452.2,658.133,0.584229
2463.6,659.919,0.507539
2475,661.684,0.434099
2486.4,663.443,0.372719
2497.8,665.209,0.31593
2509.2,666.987,0.27009
2520.6,668.788,0.2275
2532,670.62,0.194969
2543.4,672.48,0.16713
2554.8,674.372,0.14198
2566.2,676.295,0.12096
2577.6,678.251,0.10263
2589,680.224,0.0896599
2600.4,682.215,0.07847979
2611.8,684.222,0.0672997
2623.2,686.228,0.06026004
2634.6,688.241,0.0532199
2646,690.249,0.0450597
2657.4,692.25,0.0409197
2668.8,694.237,0.03824006
2680.2,696.21,0.0319797
2691.6,698.168,0.0309702
2703,700.11,0.0296301
2714.4,702.039,0.0296301
2725.8,703.949,0.0296301
2737.2,705.859,0.02829
2748.6,707.747,0.02829
2760,709.633,0.0287398
2771.4,711.508,0.02807
2782.8,713.386,0.0263902
2794.2,715.261,0.0277297
2805.6,717.148,0.0277297
2817,719.049,0.0284
2828.4,720.958,0.0277297
2839.8,722.881,0.0277297
2851.2,724.81,0.0284
2862.6,726.732,0.0263902
2874,728.655,0.02739
2885.4,730.568,0.02638
2896.8,732.476,0.0267197
2908.2,734.374,0.0253801
2919.6,736.277,0.0253801
2931,738.164,0.0260601
2942.4,740.056,0.0245998
2953.8,741.942,0.0242601
2965.2,743.828,0.0258299
2976.6,745.713,0.02303
2988,747.597,0.0270497
2999.4,749.481,0.0270497
3010.8,751.37,0.02303
3022.2,753.26,0.0257199
3033.6,755.153,0.0243798
3045,757.047,0.0230402
3056.4,758.944,0.0230402
3067.8,760.844,0.02303
3079.2,762.753,0.0270599
3090.6,764.662,0.0270497
3102,766.57,0.0257102
3113.4,768.475,0.0243701
3124.8,770.388,0.0227
3136.2,772.297,0.0260499
3147.6,774.205,0.0252701
3159,776.107,0.02829
3170.4,778.007,0.0269499
3181.8,779.913,0.0269499
3193.2,781.819,0.0245901
3204.6,783.724,0.0266102
3216,785.627,0.02728
3227.4,787.531,0.0269499
3238.8,789.436,0.02728
3250.2,791.337,0.02728
3261.6,793.236,0.0259399
3273,795.138,0.0245998
3284.4,797.04,0.0249299
3295.8,798.94,0.0257102
3307.2,800.858,0.0260601
3318.6,802.763,0.0270599
3330,804.668,0.0258299
3341.4,806.574,0.0251601
3352.8,808.475,0.0258299
3364.2,810.37,0.0221402
3375.6,812.27,0.02615993
3387,814.165,0.02750002
3398.4,816.061,0.0275102
3409.8,817.95,0.0275102
3421.2,819.838,0.0261701
3432.6,821.727,0.02615993
3436.8,822.421,0.02481984