File: Wood/Calibration_Data/UCantabria/UCantabria_Wood_TGA_N2_10K_R2.csv
Time (s),Temperature (K),Mass (mg)
0,305,4.765
15,307.5,4.746
30,310,4.732
45,312.5,4.719
60,315,4.706
75,317.5,4.691
90,320,4.675
105,322.5,4.659
120,325,4.643
135,327.5,4.628
150,330,4.614
165,332.5,4.601
180,335,4.589
195,337.5,4.579
210,340,4.569
225,342.5,4.560
240,345,4.551
255,347.5,4.544
270,350,4.538
285,352.5,4.533
300,355,4.528
315,357.5,4.525
330,360,4.522
345,362.5,4.520
360,365,4.518
375,367.5,4.517
390,370,4.516
405,372.5,4.515
420,375,4.515
435,377.5,4.515
450,380,4.515
465,382.5,4.515
480,385,4.515
495,387.5,4.515
510,390,4.515
525,392.5,4.515
540,395,4.515
555,397.5,4.515
570,400,4.516
585,402.5,4.516
600,405,4.516
615,407.5,4.515
630,410,4.515
645,412.5,4.515
660,415,4.515
675,417.5,4.514
690,420,4.514
705,422.5,4.513
720,425,4.513
735,427.5,4.512
750,430,4.511
765,432.5,4.510
780,435,4.509
795,437.5,4.507
810,440,4.506
825,442.5,4.504
840,445,4.501
855,447.5,4.499
870,450,4.496
885,452.5,4.493
900,455,4.490
915,457.5,4.486
930,460,4.481
945,462.5,4.476
960,465,4.471
975,467.5,4.465
990,470,4.458
1005,472.5,4.451
1020,475,4.443
1035,477.5,4.435
1050,480,4.426
1065,482.5,4.417
1080,485,4.407
1095,487.5,4.397
1110,490,4.386
1125,492.5,4.375
1140,495,4.363
1155,497.5,4.352
1170,500,4.339
1185,502.5,4.326
1200,505,4.312
1215,507.5,4.297
1230,510,4.282
1245,512.5,4.265
1260,515,4.248
1275,517.5,4.229
1290,520,4.209
1305,522.5,4.188
1320,525,4.166
1335,527.5,4.143
1350,530,4.119
1365,532.5,4.093
1380,535,4.067
1395,537.5,4.039
1410,540,4.011
1425,542.5,3.981
1440,545,3.950
1455,547.5,3.918
1470,550,3.886
1485,552.5,3.853
1500,555,3.819
1515,557.5,3.785
1530,560,3.750
1545,562.5,3.714
1560,565,3.678
1575,567.5,3.639
1590,570,3.600
1605,572.5,3.559
1620,575,3.517
1635,577.5,3.472
1650,580,3.425
1665,582.5,3.376
1680,585,3.324
1695,587.5,3.269
1710,590,3.212
1725,592.5,3.153
1740,595,3.091
1755,597.5,3.027
1770,600,2.960
1785,602.5,2.893
1800,605,2.824
1815,607.5,2.753
1830,610,2.681
1845,612.5,2.608
1860,615,2.533
1875,617.5,2.457
1890,620,2.377
1905,622.5,2.295
1920,625,2.209
1935,627.5,2.120
1950,630,2.028
1965,632.5,1.934
1980,635,1.837
1995,637.5,1.740
2010,640,1.645
2025,642.5,1.554
2040,645,1.471
2055,647.5,1.398
2070,650,1.338
2085,652.5,1.293
2100,655,1.262
2115,657.5,1.238
2130,660,1.217
2145,662.5,1.201
2160,665,1.189
2175,667.5,1.179
2190,670,1.169
2205,672.5,1.161
2220,675,1.152
2235,677.5,1.144
2250,680,1.136
2265,682.5,1.128
2280,685,1.120
2295,687.5,1.112
2310,690,1.105
2325,692.5,1.097
2340,695,1.090
2355,697.5,1.082
2370,700,1.075
2385,702.5,1.068
2400,705,1.061
2415,707.5,1.054
2430,710,1.047
2445,712.5,1.041
2460,715,1.035
2475,717.5,1.029
2490,720,1.023
2505,722.5,1.017
2520,725,1.012
2535,727.5,1.007
2550,730,1.002
2565,732.5,0.997
2580,735,0.992
2595,737.5,0.988
2610,740,0.984
2625,742.5,0.980
2640,745,0.976
2655,747.5,0.972
2670,750,0.969
2685,752.5,0.965
2700,755,0.962
2715,757.5,0.959
2730,760,0.956
2745,762.5,0.952
2760,765,0.949
2775,767.5,0.947
2790,770,0.944
2805,772.5,0.941
2820,775,0.938
2835,777.5,0.936
2850,780,0.933
2865,782.5,0.931
2880,785,0.928
2895,787.5,0.926
2910,790,0.923
2925,792.5,0.921
2940,795,0.919
2955,797.5,0.916
2970,800,0.914
2985,802.5,0.912
3000,805,0.910
3015,807.5,0.908
3030,810,0.905
3045,812.5,0.903
3060,815,0.901
3075,817.5,0.899
3090,820,0.897
3105,822.5,0.895
3120,825,0.893
3135,827.5,0.892
3150,830,0.890
3165,832.5,0.888
3180,835,0.886
3195,837.5,0.884
3210,840,0.882
3225,842.5,0.880
3240,845,0.879
3255,847.5,0.877
3270,850,0.875
3285,852.5,0.873
3300,855,0.872
3315,857.5,0.870
3330,860,0.868
3345,862.5,0.867
3360,865,0.865
3375,867.5,0.863
3390,870,0.862
3405,872.5,0.860
3420,875,0.858
3435,877.5,0.857
3450,880,0.855
3465,882.5,0.854
3480,885,0.852
3495,887.5,0.851
3510,890,0.850
3525,892.5,0.848
3540,895,0.847
3555,897.5,0.845
3570,900,0.844
3585,902.5,0.843
3600,905,0.842
3615,907.5,0.840
3630,910,0.839
3645,912.5,0.838
3660,915,0.837
3675,917.5,0.836
3690,920,0.835
3705,922.5,0.834
3720,925,0.833
3735,927.5,0.832
3750,930,0.831
3765,932.5,0.830
3780,935,0.829
3795,937.5,0.828
3810,940,0.827
3825,942.5,0.826
3840,945,0.825
3855,947.5,0.824
3870,950,0.823
3885,952.5,0.822
3900,955,0.822
3915,957.5,0.821
3930,960,0.820
3945,962.5,0.819
3960,965,0.818
3975,967.5,0.817
3990,970,0.817
4005,972.5,0.816
4020,975,0.815
4035,977.5,0.814
4050,980,0.813
4065,982.5,0.812
4080,985,0.811
4095,987.5,0.811
4107,989.5,0.810