File: Wood/Calibration_Data/UCantabria/UCantabria_Wood_TGA_N2_5K_R1.csv
Time (s),Temperature (K),Mass (mg)
0,300,3.426
30,302.5,3.403
60,305,3.388
90,307.5,3.372
120,310,3.353
150,312.5,3.334
180,315,3.319
210,317.5,3.305
240,320,3.293
270,322.5,3.283
300,325,3.273
330,327.5,3.265
360,330,3.257
390,332.5,3.250
420,335,3.244
450,337.5,3.239
480,340,3.235
510,342.5,3.231
540,345,3.228
570,347.5,3.225
600,350,3.223
630,352.5,3.222
660,355,3.220
690,357.5,3.220
720,360,3.219
750,362.5,3.219
780,365,3.219
810,367.5,3.219
840,370,3.219
870,372.5,3.219
900,375,3.219
930,377.5,3.219
960,380,3.220
990,382.5,3.220
1020,385,3.220
1050,387.5,3.220
1080,390,3.220
1110,392.5,3.220
1140,395,3.220
1170,397.5,3.220
1200,400,3.220
1230,402.5,3.220
1260,405,3.220
1290,407.5,3.220
1320,410,3.219
1350,412.5,3.219
1380,415,3.218
1410,417.5,3.218
1440,420,3.217
1470,422.5,3.216
1500,425,3.215
1530,427.5,3.213
1560,430,3.211
1590,432.5,3.209
1620,435,3.207
1650,437.5,3.205
1680,440,3.202
1710,442.5,3.198
1740,445,3.194
1770,447.5,3.190
1800,450,3.185
1830,452.5,3.180
1860,455,3.174
1890,457.5,3.168
1920,460,3.160
1950,462.5,3.153
1980,465,3.144
2010,467.5,3.135
2040,470,3.126
2070,472.5,3.116
2100,475,3.106
2130,477.5,3.095
2160,480,3.084
2190,482.5,3.073
2220,485,3.062
2250,487.5,3.051
2280,490,3.039
2310,492.5,3.027
2340,495,3.014
2370,497.5,3.000
2400,500,2.986
2430,502.5,2.970
2460,505,2.954
2490,507.5,2.937
2520,510,2.919
2550,512.5,2.900
2580,515,2.879
2610,517.5,2.858
2640,520,2.837
2670,522.5,2.814
2700,525,2.791
2730,527.5,2.767
2760,530,2.743
2790,532.5,2.718
2820,535,2.693
2850,537.5,2.667
2880,540,2.640
2910,542.5,2.613
2940,545,2.586
2970,547.5,2.557
3000,550,2.529
3030,552.5,2.499
3060,555,2.468
3090,557.5,2.436
3120,560,2.403
3150,562.5,2.369
3180,565,2.332
3210,567.5,2.294
3240,570,2.254
3270,572.5,2.211
3300,575,2.167
3330,577.5,2.120
3360,580,2.070
3390,582.5,2.018
3420,585,1.964
3450,587.5,1.908
3480,590,1.850
3510,592.5,1.790
3540,595,1.729
3570,597.5,1.666
3600,600,1.601
3630,602.5,1.535
3660,605,1.468
3690,607.5,1.398
3720,610,1.326
3750,612.5,1.252
3780,615,1.176
3810,617.5,1.097
3840,620,1.017
3870,622.5,0.936
3900,625,0.855
3930,627.5,0.777
3960,630,0.704
3990,632.5,0.638
4020,635,0.579
4050,637.5,0.528
4080,640,0.488
4110,642.5,0.458
4140,645,0.438
4170,647.5,0.424
4200,650,0.414
4230,652.5,0.405
4260,655,0.397
4290,657.5,0.390
4320,660,0.383
4350,662.5,0.376
4380,665,0.369
4410,667.5,0.362
4440,670,0.355
4470,672.5,0.349
4500,675,0.342
4530,677.5,0.336
4560,680,0.329
4590,682.5,0.323
4620,685,0.317
4650,687.5,0.310
4680,690,0.304
4710,692.5,0.298
4740,695,0.293
4770,697.5,0.287
4800,700,0.282
4830,702.5,0.276
4860,705,0.271
4890,707.5,0.266
4920,710,0.262
4950,712.5,0.257
4980,715,0.253
5010,717.5,0.249
5040,720,0.245
5070,722.5,0.242
5100,725,0.238
5130,727.5,0.235
5160,730,0.231
5190,732.5,0.228
5220,735,0.225
5250,737.5,0.222
5280,740,0.220
5310,742.5,0.217
5340,745,0.214
5370,747.5,0.212
5400,750,0.209
5430,752.5,0.207
5460,755,0.204
5490,757.5,0.202
5520,760,0.200
5550,762.5,0.198
5580,765,0.196
5610,767.5,0.194
5640,770,0.192
5670,772.5,0.190
5700,775,0.188
5730,777.5,0.186
5760,780,0.184
5790,782.5,0.182
5820,785,0.180
5850,787.5,0.178
5880,790,0.176
5910,792.5,0.174
5940,795,0.173
5970,797.5,0.171
6000,800,0.169
6030,802.5,0.168
6060,805,0.166
6090,807.5,0.164
6120,810,0.163
6150,812.5,0.161
6180,815,0.160
6210,817.5,0.158
6240,820,0.157
6270,822.5,0.155
6300,825,0.154
6330,827.5,0.152
6360,830,0.151
6390,832.5,0.149
6420,835,0.148
6450,837.5,0.146
6480,840,0.145
6510,842.5,0.143
6540,845,0.142
6570,847.5,0.141
6600,850,0.139
6630,852.5,0.138
6660,855,0.137
6690,857.5,0.135
6720,860,0.134
6750,862.5,0.133
6780,865,0.131
6810,867.5,0.130
6840,870,0.129
6870,872.5,0.128
6900,875,0.127
6930,877.5,0.125
6960,880,0.124
6990,882.5,0.123
7020,885,0.122
7050,887.5,0.121
7080,890,0.120
7110,892.5,0.119
7140,895,0.118
7170,897.5,0.117
7200,900,0.116
7230,902.5,0.116
7260,905,0.115
7290,907.5,0.114
7320,910,0.113
7350,912.5,0.112
7380,915,0.111
7410,917.5,0.111
7440,920,0.110
7470,922.5,0.109
7500,925,0.108
7530,927.5,0.108
7560,930,0.107
7590,932.5,0.106
7620,935,0.105
7650,937.5,0.105
7680,940,0.104
7710,942.5,0.103
7740,945,0.103
7770,947.5,0.102
7800,950,0.101
7830,952.5,0.101
7860,955,0.100
7890,957.5,0.099
7920,960,0.098
7950,962.5,0.098
7980,965,0.097
8010,967.5,0.096
8040,970,0.096
8070,972.5,0.095
8100,975,0.094
8130,977.5,0.094
8160,980,0.093
8190,982.5,0.092
8220,985,0.091
8250,987.5,0.090
8280,990,0.090
8310,992.5,0.089
8334,994.5,0.088