File: Wood/Calibration_Data/UCantabria/UCantabria_Wood_TGA_N2_10K_R1.csv
Time (s),Temperature (K),Mass (mg)
0,305,3.792
15,307.5,3.785
30,310,3.777
45,312.5,3.769
60,315,3.760
75,317.5,3.750
90,320,3.739
105,322.5,3.728
120,325,3.717
135,327.5,3.707
150,330,3.697
165,332.5,3.688
180,335,3.679
195,337.5,3.671
210,340,3.664
225,342.5,3.657
240,345,3.651
255,347.5,3.646
270,350,3.641
285,352.5,3.637
300,355,3.634
315,357.5,3.631
330,360,3.629
345,362.5,3.628
360,365,3.627
375,367.5,3.626
390,370,3.625
405,372.5,3.625
420,375,3.625
435,377.5,3.625
450,380,3.625
465,382.5,3.626
480,385,3.626
495,387.5,3.626
510,390,3.626
525,392.5,3.626
540,395,3.627
555,397.5,3.627
570,400,3.627
585,402.5,3.627
600,405,3.627
615,407.5,3.627
630,410,3.627
645,412.5,3.626
660,415,3.626
675,417.5,3.626
690,420,3.625
705,422.5,3.625
720,425,3.624
735,427.5,3.624
750,430,3.623
765,432.5,3.622
780,435,3.620
795,437.5,3.619
810,440,3.617
825,442.5,3.616
840,445,3.614
855,447.5,3.611
870,450,3.608
885,452.5,3.605
900,455,3.602
915,457.5,3.598
930,460,3.593
945,462.5,3.589
960,465,3.583
975,467.5,3.577
990,470,3.570
1005,472.5,3.563
1020,475,3.555
1035,477.5,3.546
1050,480,3.537
1065,482.5,3.527
1080,485,3.517
1095,487.5,3.506
1110,490,3.495
1125,492.5,3.483
1140,495,3.471
1155,497.5,3.459
1170,500,3.446
1185,502.5,3.432
1200,505,3.418
1215,507.5,3.404
1230,510,3.389
1245,512.5,3.372
1260,515,3.355
1275,517.5,3.337
1290,520,3.318
1305,522.5,3.298
1320,525,3.277
1335,527.5,3.256
1350,530,3.233
1365,532.5,3.210
1380,535,3.186
1395,537.5,3.161
1410,540,3.136
1425,542.5,3.109
1440,545,3.083
1455,547.5,3.055
1470,550,3.027
1485,552.5,2.999
1500,555,2.970
1515,557.5,2.940
1530,560,2.909
1545,562.5,2.878
1560,565,2.845
1575,567.5,2.811
1590,570,2.776
1605,572.5,2.738
1620,575,2.700
1635,577.5,2.659
1650,580,2.616
1665,582.5,2.571
1680,585,2.524
1695,587.5,2.475
1710,590,2.423
1725,592.5,2.369
1740,595,2.313
1755,597.5,2.256
1770,600,2.196
1785,602.5,2.135
1800,605,2.073
1815,607.5,2.010
1830,610,1.945
1845,612.5,1.880
1860,615,1.813
1875,617.5,1.744
1890,620,1.673
1905,622.5,1.600
1920,625,1.524
1935,627.5,1.446
1950,630,1.365
1965,632.5,1.282
1980,635,1.197
1995,637.5,1.112
2010,640,1.028
2025,642.5,0.948
2040,645,0.873
2055,647.5,0.807
2070,650,0.752
2085,652.5,0.710
2100,655,0.680
2115,657.5,0.656
2130,660,0.635
2145,662.5,0.620
2160,665,0.608
2175,667.5,0.599
2190,670,0.590
2205,672.5,0.582
2220,675,0.574
2235,677.5,0.567
2250,680,0.559
2265,682.5,0.552
2280,685,0.545
2295,687.5,0.538
2310,690,0.531
2325,692.5,0.524
2340,695,0.517
2355,697.5,0.510
2370,700,0.504
2385,702.5,0.497
2400,705,0.491
2415,707.5,0.484
2430,710,0.478
2445,712.5,0.472
2460,715,0.466
2475,717.5,0.461
2490,720,0.455
2505,722.5,0.450
2520,725,0.445
2535,727.5,0.441
2550,730,0.436
2565,732.5,0.432
2580,735,0.427
2595,737.5,0.423
2610,740,0.419
2625,742.5,0.416
2640,745,0.412
2655,747.5,0.409
2670,750,0.405
2685,752.5,0.402
2700,755,0.399
2715,757.5,0.396
2730,760,0.393
2745,762.5,0.390
2760,765,0.387
2775,767.5,0.385
2790,770,0.382
2805,772.5,0.380
2820,775,0.377
2835,777.5,0.375
2850,780,0.372
2865,782.5,0.370
2880,785,0.368
2895,787.5,0.365
2910,790,0.363
2925,792.5,0.361
2940,795,0.359
2955,797.5,0.357
2970,800,0.355
2985,802.5,0.353
3000,805,0.351
3015,807.5,0.349
3030,810,0.347
3045,812.5,0.345
3060,815,0.343
3075,817.5,0.341
3090,820,0.339
3105,822.5,0.337
3120,825,0.336
3135,827.5,0.334
3150,830,0.332
3165,832.5,0.330
3180,835,0.329
3195,837.5,0.327
3210,840,0.325
3225,842.5,0.323
3240,845,0.322
3255,847.5,0.320
3270,850,0.318
3285,852.5,0.317
3300,855,0.315
3315,857.5,0.314
3330,860,0.312
3345,862.5,0.310
3360,865,0.309
3375,867.5,0.307
3390,870,0.306
3405,872.5,0.304
3420,875,0.303
3435,877.5,0.301
3450,880,0.300
3465,882.5,0.298
3480,885,0.297
3495,887.5,0.295
3510,890,0.294
3525,892.5,0.293
3540,895,0.291
3555,897.5,0.290
3570,900,0.289
3585,902.5,0.288
3600,905,0.286
3615,907.5,0.285
3630,910,0.284
3645,912.5,0.283
3660,915,0.282
3675,917.5,0.281
3690,920,0.280
3705,922.5,0.278
3720,925,0.277
3735,927.5,0.276
3750,930,0.275
3765,932.5,0.274
3780,935,0.273
3795,937.5,0.272
3810,940,0.271
3825,942.5,0.270
3840,945,0.269
3855,947.5,0.268
3870,950,0.267
3885,952.5,0.266
3900,955,0.264
3915,957.5,0.263
3930,960,0.262
3945,962.5,0.261
3960,965,0.260
3975,967.5,0.259
3990,970,0.257
4005,972.5,0.256
4020,975,0.255
4035,977.5,0.253
4050,980,0.252
4065,982.5,0.250
4080,985,0.249
4095,987.5,0.248
4107,989.5,0.246