File: Wood/Calibration_Data/UCantabria/UCantabria_Wood_TGA_N2_5K_R2.csv
Time (s),Temperature (K),Mass (mg)
0,300,4.586
30,302.5,4.527
60,305,4.506
90,307.5,4.482
120,310,4.456
150,312.5,4.431
180,315,4.409
210,317.5,4.390
240,320,4.373
270,322.5,4.357
300,325,4.343
330,327.5,4.331
360,330,4.320
390,332.5,4.310
420,335,4.302
450,337.5,4.294
480,340,4.288
510,342.5,4.283
540,345,4.278
570,347.5,4.275
600,350,4.272
630,352.5,4.270
660,355,4.269
690,357.5,4.268
720,360,4.267
750,362.5,4.267
780,365,4.266
810,367.5,4.266
840,370,4.266
870,372.5,4.267
900,375,4.267
930,377.5,4.267
960,380,4.267
989.96,382.5,4.267
1019.96,385,4.267
1049.96,387.5,4.268
1079.96,390,4.268
1109.96,392.5,4.268
1139.96,395,4.268
1169.96,397.5,4.268
1199.96,400,4.267
1229.96,402.5,4.267
1259.96,405,4.267
1289.96,407.5,4.266
1319.96,410,4.266
1349.96,412.5,4.265
1379.96,415,4.264
1409.96,417.5,4.263
1439.96,420,4.262
1469.96,422.5,4.261
1499.96,425,4.260
1529.96,427.5,4.258
1559.96,430,4.256
1589.96,432.5,4.254
1619.96,435,4.251
1649.96,437.5,4.248
1679.96,440,4.245
1709.96,442.5,4.241
1739.96,445,4.236
1769.96,447.5,4.231
1799.96,450,4.226
1829.96,452.5,4.220
1859.96,455,4.213
1889.96,457.5,4.205
1919.96,460,4.198
1949.96,462.5,4.189
1979.96,465,4.180
2009.96,467.5,4.170
2039.96,470,4.160
2069.96,472.5,4.150
2099.96,475,4.139
2129.96,477.5,4.129
2159.96,480,4.118
2189.96,482.5,4.107
2219.96,485,4.096
2249.96,487.5,4.084
2279.96,490,4.071
2309.96,492.5,4.058
2339.96,495,4.044
2369.96,497.5,4.029
2399.96,500,4.013
2429.96,502.5,3.995
2459.96,505,3.977
2489.96,507.5,3.957
2519.96,510,3.936
2549.96,512.5,3.914
2579.96,515,3.890
2609.96,517.5,3.866
2639.96,520,3.840
2669.96,522.5,3.814
2699.96,525,3.786
2729.96,527.5,3.757
2759.96,530,3.728
2789.96,532.5,3.698
2819.96,535,3.667
2849.96,537.5,3.635
2879.96,540,3.603
2909.96,542.5,3.570
2939.96,545,3.537
2969.96,547.5,3.503
2999.96,550,3.468
3029.96,552.5,3.432
3059.96,555,3.395
3089.96,557.5,3.357
3119.96,560,3.317
3149.96,562.5,3.276
3179.96,565,3.232
3209.96,567.5,3.187
3239.96,570,3.139
3269.96,572.5,3.088
3299.96,575,3.035
3329.96,577.5,2.978
3359.96,580,2.919
3389.96,582.5,2.855
3419.96,585,2.789
3449.96,587.5,2.720
3479.96,590,2.649
3509.96,592.5,2.576
3539.96,595,2.502
3569.96,597.5,2.426
3599.96,600,2.349
3629.96,602.5,2.270
3659.96,605,2.190
3689.96,607.5,2.107
3719.96,610,2.021
3749.96,612.5,1.933
3779.96,615,1.842
3809.96,617.5,1.749
3839.96,620,1.653
3869.96,622.5,1.556
3899.96,625,1.459
3929.96,627.5,1.365
3959.96,630,1.276
3989.96,632.5,1.196
4019.96,635,1.129
4049.96,637.5,1.072
4079.96,640,1.024
4109.96,642.5,0.989
4139.96,645,0.964
4169.96,647.5,0.948
4199.96,650,0.935
4229.96,652.5,0.925
4259.96,655,0.916
4289.96,657.5,0.907
4319.96,660,0.898
4349.96,662.5,0.890
4379.96,665,0.881
4409.96,667.5,0.873
4439.96,670,0.865
4469.96,672.5,0.857
4499.96,675,0.849
4529.96,677.5,0.841
4559.96,680,0.833
4589.96,682.5,0.825
4619.96,685,0.818
4649.96,687.5,0.810
4679.96,690,0.803
4709.96,692.5,0.795
4739.96,695,0.788
4769.96,697.5,0.782
4799.96,700,0.775
4829.96,702.5,0.769
4859.96,705,0.762
4889.96,707.5,0.756
4919.96,710,0.751
4949.96,712.5,0.745
4979.96,715,0.740
5009.96,717.5,0.735
5039.96,720,0.731
5069.96,722.5,0.726
5099.96,725,0.722
5129.96,727.5,0.717
5159.96,730,0.713
5189.96,732.5,0.710
5219.96,735,0.706
5249.96,737.5,0.702
5279.96,740,0.699
5309.96,742.5,0.696
5339.96,745,0.692
5369.96,747.5,0.689
5399.96,750,0.686
5429.96,752.5,0.683
5459.96,755,0.681
5489.96,757.5,0.678
5519.96,760,0.675
5549.96,762.5,0.672
5579.96,765,0.670
5609.96,767.5,0.667
5639.96,770,0.665
5669.96,772.5,0.662
5699.96,775,0.660
5729.96,777.5,0.658
5759.96,780,0.655
5789.96,782.5,0.653
5819.96,785,0.651
5849.96,787.5,0.649
5879.96,790,0.647
5909.96,792.5,0.644
5939.96,795,0.642
5969.96,797.5,0.640
5999.96,800,0.638
6029.96,802.5,0.636
6059.96,805,0.634
6089.96,807.5,0.632
6119.96,810,0.630
6149.96,812.5,0.629
6179.96,815,0.627
6209.96,817.5,0.625
6239.96,820,0.623
6269.96,822.5,0.621
6299.96,825,0.619
6329.96,827.5,0.617
6359.96,830,0.616
6389.96,832.5,0.614
6419.96,835,0.612
6449.96,837.5,0.610
6479.96,840,0.609
6509.96,842.5,0.607
6539.96,845,0.605
6569.96,847.5,0.604
6599.96,850,0.602
6629.96,852.5,0.600
6659.96,855,0.599
6689.96,857.5,0.597
6719.96,860,0.595
6749.96,862.5,0.594
6779.96,865,0.592
6809.96,867.5,0.591
6839.96,870,0.589
6869.96,872.5,0.588
6899.96,875,0.587
6929.96,877.5,0.585
6959.96,880,0.584
6989.96,882.5,0.583
7019.96,885,0.582
7049.96,887.5,0.580
7079.96,890,0.579
7109.96,892.5,0.578
7139.96,895,0.577
7169.96,897.5,0.576
7199.96,900,0.575
7229.96,902.5,0.574
7259.96,905,0.572
7289.96,907.5,0.571
7319.96,910,0.571
7349.96,912.5,0.570
7379.96,915,0.569
7409.96,917.5,0.568
7439.96,920,0.567
7469.96,922.5,0.566
7499.96,925,0.565
7529.96,927.5,0.564
7559.96,930,0.563
7589.96,932.5,0.562
7619.96,935,0.562
7649.96,937.5,0.561
7679.96,940,0.560
7709.96,942.5,0.559
7739.96,945,0.558
7769.96,947.5,0.558
7799.96,950,0.557
7829.96,952.5,0.556
7859.96,955,0.555
7889.96,957.5,0.554
7919.96,960,0.554
7949.96,962.5,0.553
7979.96,965,0.552
8009.96,967.5,0.551
8039.96,970,0.550
8069.96,972.5,0.549
8099.96,975,0.549
8129.96,977.5,0.548
8159.96,980,0.547
8189.96,982.5,0.546
8219.96,985,0.545
8249.96,987.5,0.544
8279.96,990,0.543
8309.96,992.5,0.542
8333.96,994.5,0.542