File: Non-charring/PMMA/HKPolyU/HKPolyU_DSC_N2_1.csv
Time,Temperature,Heat Flow
[s],[k],[W/g]
0.24,300.03,4.53669
10.26,301.319,5.28857
20.76,302.901,5.40261
31.26,304.753,5.44945
41.76,306.785,5.47288
52.26,308.955,5.46693
62.76,311.172,5.44422
73.26,313.4,5.38518
83.76,315.613,5.28592
94.26,317.742,5.15789
104.76,319.807,4.99259
115.26,321.788,4.79062
125.76,323.698,4.55779
136.26,325.525,4.3058
146.76,327.281,4.03542
157.26,329.002,3.74896
167.76,330.689,3.46334
178.26,332.358,3.18164
188.76,334.007,2.91293
199.26,335.669,2.6536
209.76,337.333,2.40855
220.26,339.017,2.18287
230.76,340.732,1.97334
241.26,342.446,1.78397
251.76,344.179,1.61083
262.26,345.943,1.45151
272.76,347.701,1.30664
283.26,349.48,1.17508
293.76,351.254,1.0535
304.26,353.039,0.942258
314.76,354.811,0.840981
325.26,356.597,0.74689
335.76,358.373,0.659263
346.26,360.143,0.576334
356.76,361.927,0.498853
367.26,363.693,0.424952
377.76,365.46,0.356233
388.26,367.223,0.292421
398.76,368.978,0.233315
409.26,370.728,0.177059
419.76,372.483,0.126848
430.26,374.242,0.07914308
440.76,376.008,0.0371254
451.26,377.766,-0.00227249
461.76,379.529,-0.0379217
472.26,381.291,-0.0684632
482.76,383.058,-0.0975504
493.26,384.823,-0.123283
503.76,386.595,-0.146889
514.26,388.349,-0.167182
524.76,390.131,-0.185885
535.26,391.896,-0.203457
545.76,393.666,-0.219449
556.26,395.433,-0.234758
566.76,397.2,-0.247287
577.26,398.97,-0.258505
587.76,400.732,-0.267029
598.26,402.509,-0.273663
608.76,404.27,-0.278659
619.26,406.033,-0.282734
629.76,407.797,-0.284309
640.26,409.559,-0.284909
650.76,411.322,-0.285284
661.26,413.081,-0.282942
671.76,414.852,-0.280398
682.26,416.603,-0.277706
692.76,418.366,-0.272558
703.26,420.124,-0.267495
713.76,421.891,-0.260851
724.26,423.645,-0.253851
734.76,425.403,-0.24702
745.26,427.17,-0.238372
755.76,428.932,-0.229768
766.26,430.694,-0.220762
776.76,432.452,-0.210951
787.26,434.205,-0.201115
797.76,435.969,-0.190817
808.26,437.728,-0.181625
818.76,439.488,-0.170815
829.26,441.243,-0.16072
839.76,443.001,-0.149891
850.26,444.766,-0.138641
860.76,446.519,-0.126364
871.26,448.276,-0.113382
881.76,450.028,-0.100442
892.26,451.781,-0.086249
902.76,453.525,-0.07068962
913.26,455.281,-0.0542931
923.76,457.035,-0.0366834
934.26,458.794,-0.0182893
944.76,460.542,0.002141092
955.26,462.297,0.0230047
965.76,464.06,0.0461049
976.26,465.816,0.0692843
986.76,467.565,0.0941
997.26,469.322,0.118277
1007.76,471.074,0.143454
1018.26,472.826,0.168327
1028.76,474.571,0.193844
1039.26,476.326,0.218946
1049.76,478.078,0.244308
1060.26,479.832,0.270502
1070.76,481.598,0.298707
1081.26,483.348,0.327268
1091.76,485.097,0.356988
1102.26,486.848,0.387256
1112.76,488.599,0.420372
1123.26,490.357,0.452184
1133.76,492.109,0.485207
1144.26,493.861,0.51902
1154.76,495.607,0.552917
1165.26,497.362,0.586937
1175.76,499.112,0.61981
1186.26,500.866,0.65373
1196.76,502.614,0.68555
1207.26,504.364,0.717564
1217.76,506.103,0.749551
1228.26,507.852,0.780573
1238.76,509.603,0.811846
1249.26,511.347,0.841704
1259.76,513.088,0.8716423
1270.26,514.835,0.901383
1280.76,516.583,0.929642
1291.26,518.32,0.958012
1301.76,520.067,0.98673
1312.26,521.809,1.01531
1322.76,523.557,1.04258
1333.26,525.294,1.07035
1343.76,527.046,1.09739
1354.26,528.788,1.12448
1364.76,530.537,1.14995
1375.26,532.274,1.17499
1385.76,534.011,1.19975
1396.26,535.755,1.22473
1406.76,537.494,1.24854
1417.26,539.238,1.27264
1427.76,540.978,1.29593
1438.26,542.719,1.31829
1448.76,544.453,1.34027
1459.26,546.195,1.36074
1469.76,547.934,1.3829
1480.26,549.671,1.40428
1490.76,551.412,1.42494
1501.26,553.151,1.44422
1511.76,554.888,1.46418
1522.26,556.631,1.48299
1532.76,558.367,1.50232
1543.26,560.107,1.52117
1553.76,561.841,1.53998
1564.26,563.58,1.55927
1574.76,565.314,1.57861
1585.26,567.055,1.5977
1595.76,568.791,1.61706
1606.26,570.527,1.63745
1616.76,572.262,1.65756
1627.26,573.999,1.67749
1637.76,575.737,1.69651
1648.26,577.475,1.71619
1658.76,579.208,1.73324
1669.26,580.949,1.75265
1679.76,582.678,1.76747
1690.26,584.417,1.78027
1700.76,586.148,1.7909
1711.26,587.88,1.79917
1721.76,589.617,1.80593
1732.26,591.355,1.80939
1742.76,593.089,1.81002
1753.26,594.816,1.8073
1763.76,596.539,1.80025
1774.26,598.267,1.78959
1784.76,599.993,1.77423
1795.26,601.716,1.75429
1805.76,603.438,1.72893
1816.26,605.164,1.69819
1826.76,606.876,1.66093
1837.26,608.598,1.617
1847.76,610.313,1.56764
1858.26,612.032,1.51184
1868.76,613.744,1.44887
1879.26,615.456,1.38058
1889.76,617.173,1.30706
1900.26,618.882,1.22878
1910.76,620.595,1.14857
1921.26,622.304,1.06724
1931.76,624.013,0.985975
1942.26,625.719,0.906992
1952.76,627.433,0.834835
1963.26,629.149,0.775963
1973.76,630.87,0.734868
1984.26,632.6,0.709235
1994.76,634.327,0.701406
2005.26,636.056,0.705703
2015.76,637.799,0.720897
2026.26,639.539,0.743016
2036.76,641.27,0.793019
2047.26,643.011,0.862196
2057.76,644.758,0.932916
2068.26,646.506,0.994478
2078.76,648.251,1.07347
2089.26,650.004,1.16674
2099.76,651.759,1.27189
2110.26,653.513,1.38973
2120.76,655.277,1.51441
2131.26,657.033,1.65173
2141.76,658.796,1.80506
2152.26,660.559,1.96705
2162.76,662.32,2.13204
2173.26,664.089,2.29939
2183.76,665.848,2.46535
2194.26,667.612,2.63014
2204.76,669.369,2.79078
2215.26,671.129,2.9419
2225.76,672.887,3.08596
2236.26,674.644,3.22124
2246.76,676.398,3.34702
2257.26,678.15,3.46725
2267.76,679.901,3.57765
2278.26,681.651,3.67888
2288.76,683.395,3.77319
2299.26,685.143,3.85997
2309.76,686.883,3.93983
2320.26,688.63,4.0144
2330.76,690.368,4.0834
2341.26,692.112,4.14653
2351.76,693.853,4.20465
2362.26,695.597,4.26192
2372.76,697.327,4.31307
2383.26,699.065,4.36253
2393.76,700.803,4.40899
2404.26,702.536,4.45556
2414.76,704.273,4.49842
2425.26,706.009,4.54
2435.76,707.739,4.58054
2446.26,709.481,4.62107
2456.76,711.207,4.65975
2467.26,712.945,4.69834
2477.76,714.68,4.73412
2488.26,716.415,4.76937
2498.76,718.15,4.80251
2509.26,719.885,4.83577
2519.76,721.627,4.86801
2530.26,723.357,4.89961
2540.76,725.088,4.92986
2551.26,726.819,4.95912
2561.76,728.553,4.98816
2572.26,730.286,5.01827
2582.76,732.019,5.04781
2593.26,733.754,5.07751
2603.76,735.488,5.10598
2614.26,737.22,5.13437
2624.76,738.952,5.16371
2635.26,740.687,5.19124
2645.76,742.42,5.22094
2656.26,744.152,5.24951
2666.76,745.887,5.27836
2677.26,747.625,5.30667
2687.76,749.362,5.33578
2698.26,751.09,5.36483
2708.76,752.824,5.39224
2719.26,754.551,5.42028
2729.76,756.281,5.4478
2740.26,758.01,5.47389
2750.76,759.75,5.50154
2761.26,761.482,5.52831
2771.76,763.215,5.5531
2782.26,764.95,5.57683
2792.76,766.691,5.60062
2803.26,768.421,5.62339
2813.76,770.154,5.64723
2824.26,771.888,5.67018
2834.76,773.626,5.69375
2845.26,775.356,5.7164
2855.76,777.087,5.73907
2866.26,778.823,5.76257
2876.76,780.548,5.78611
2887.26,782.285,5.81023
2897.76,784.026,5.83359
2908.26,785.761,5.85691
2918.76,787.49,5.87969
2929.26,789.224,5.90124
2939.76,790.963,5.92325
2950.26,792.693,5.94302
2960.76,794.429,5.96314
2971.26,796.162,5.98425
2981.76,797.895,6.00561
2992.26,799.63,6.02606
3002.76,801.362,6.04895
3013.26,803.094,6.07026
3013.76,803.176,6.07101