File: Non-charring/PMMA/HKPolyU/HKPolyU_DSC_N2_2.csv
Time,Temperature,Heat Flow
[s],[k],[W/g]
0.15,300.048,2.91094
10.26,302.387,3.72779
20.76,304.673,3.69396
31.26,306.8776,3.60849
41.76,308.987,3.46647
52.26,311.002,3.27306
62.76,312.929,3.03081
73.26,314.772,2.75324
83.76,316.546,2.45367
94.26,318.27,2.13626
104.76,319.951,1.81711
115.26,321.616,1.50189
125.76,323.272,1.20143
136.26,324.952,0.917153
146.76,326.632,0.656235
157.26,328.344,0.420114
167.76,330.08,0.209743
178.26,331.843,0.0216553
188.76,333.6265,-0.14246
199.26,335.4346,-0.287089
209.76,337.265,-0.416603
220.26,339.0954,-0.530107
230.76,340.9394,-0.631192
241.26,342.786,-0.725132
251.76,344.618,-0.811588
262.26,346.454,-0.890526
272.76,348.283,-0.964755
283.26,350.1086,-1.03444
293.76,351.918,-1.10023
304.26,353.724,-1.15909
314.76,355.511,-1.21504
325.26,357.287,-1.26545
335.76,359.067,-1.31206
346.26,360.844,-1.35403
356.76,362.613,-1.39118
367.26,364.379,-1.4229
377.76,366.148,-1.44996
388.26,367.918,-1.47205
398.76,369.685,-1.48949
409.26,371.469,-1.50195
419.76,373.2419,-1.51042
430.26,375.0263,-1.51522
440.76,376.8034,-1.51678
451.26,378.5948,-1.51487
461.76,380.3809,-1.51287
472.26,382.1685,-1.50928
482.76,383.9473,-1.50373
493.26,385.7388,-1.49796
503.76,387.519,-1.49156
514.26,389.2897,-1.48654
524.76,391.0704,-1.47956
535.26,392.8396,-1.47337
545.76,394.6164,-1.46794
556.26,396.392,-1.46166
566.76,398.1717,-1.4545
577.26,399.9391,-1.44696
587.76,401.702,-1.43664
598.26,403.4664,-1.42657
608.76,405.2345,-1.4158
619.26,406.9983,-1.40445
629.76,408.768,-1.39188
640.26,410.5402,-1.37942
650.76,412.304,-1.36684
661.26,414.0772,-1.35417
671.76,415.837,-1.3418
682.26,417.6036,-1.32883
692.76,419.3748,-1.31579
703.26,421.1343,-1.30368
713.76,422.8988,-1.29068
724.26,424.6706,-1.27837
734.76,426.4331,-1.26552
745.26,428.2035,-1.25409
755.76,429.9579,-1.24368
766.26,431.7229,-1.23256
776.76,433.4886,-1.22295
787.26,435.2527,-1.21289
797.76,437.0016,-1.20354
808.26,438.7618,-1.1941
818.76,440.5215,-1.18509
829.26,442.2762,-1.17747
839.76,444.0322,-1.16968
850.26,445.796,-1.16174
860.76,447.5541,-1.15413
871.26,449.3068,-1.14596
881.76,451.0724,-1.13527
892.26,452.8293,-1.12563
902.76,454.5793,-1.11621
913.26,456.3371,-1.10071
923.76,458.0938,-1.08449
934.26,459.8518,-1.07003
944.76,461.6041,-1.05527
955.26,463.3601,-1.04087
965.76,465.1255,-1.02292
976.26,466.8816,-1.00515
986.76,468.634,-0.989412
997.26,470.3808,-0.972256
1007.76,472.1373,-0.954311
1018.26,473.8842,-0.937343
1028.76,475.6412,-0.919514
1039.26,477.3898,-0.900952
1049.76,479.1438,-0.883358
1060.26,480.8992,-0.863763
1070.76,482.6553,-0.843461
1081.26,484.4117,-0.82375
1091.76,486.1703,-0.800836
1102.26,487.9272,-0.777967
1112.76,489.6776,-0.752917
1123.26,491.4278,-0.727982
1133.76,493.1783,-0.700002
1144.26,494.9366,-0.671829
1154.76,496.6822,-0.644026
1165.26,498.436,-0.614586
1175.76,500.1898,-0.588012
1186.26,501.9455,-0.561559
1196.76,503.7008,-0.533609
1207.26,505.4497,-0.506215
1217.76,507.1912,-0.479845
1228.26,508.944,-0.456435
1238.76,510.6868,-0.428498
1249.26,512.4296,-0.40244
1259.76,514.171,-0.378247
1270.26,515.9207,-0.354053
1280.76,517.6664,-0.329235
1291.26,519.4083,-0.304313
1301.76,521.1491,-0.282138
1312.26,522.902,-0.256369
1322.76,524.6419,-0.230143
1333.26,526.387,-0.207712
1343.76,528.133,-0.184472
1354.26,529.8737,-0.162882
1364.76,531.6174,-0.137204
1375.26,533.3698,-0.114619
1385.76,535.11,-0.0960608
1396.26,536.8525,-0.0737256
1406.76,538.5924,-0.0503466
1417.26,540.335,-0.0296466
1427.76,542.0763,-0.009738281
1438.26,543.8164,0.0132057
1448.76,545.5582,0.0337523
1459.26,547.3004,0.0542794
1469.76,549.0379,0.0734681
1480.26,550.779,0.0904471
1490.76,552.5133,0.107445
1501.26,554.2622,0.126587
1511.76,555.996,0.143475
1522.26,557.7344,0.157965
1532.76,559.4694,0.178608
1543.26,561.2062,0.193614
1553.76,562.9448,0.206714
1564.26,564.679,0.222871
1574.76,566.4175,0.239878
1585.26,568.1564,0.255392
1595.76,569.8972,0.270681
1606.26,571.6292,0.287373
1616.76,573.3676,0.307146
1627.26,575.1104,0.322491
1637.76,576.8459,0.340179
1648.26,578.5775,0.355063
1658.76,580.318,0.362757
1669.26,582.0515,0.373977
1679.76,583.785,0.382071
1690.26,585.5236,0.388175
1700.76,587.2529,0.390299
1711.26,588.9935,0.391125
1721.76,590.7224,0.389438
1732.26,592.4555,0.381734
1742.76,594.1794,0.367768
1753.26,595.9144,0.353059
1763.76,597.6365,0.335545
1774.26,599.3609,0.31126
1784.76,601.0856,0.282055
1795.26,602.8014,0.251879
1805.76,604.52,0.211907
1816.26,606.2375,0.165708
1826.76,607.952,0.119388
1837.26,609.6806,0.06476
1847.76,611.3938,0.003437531
1858.26,613.1081,-0.0683315
1868.76,614.8202,-0.140728
1879.26,616.5332,-0.222444
1889.76,618.2428,-0.306347
1900.26,619.9483,-0.396837
1910.76,621.6598,-0.487391
1921.26,623.365,-0.573951
1931.76,625.0706,-0.659659
1942.26,626.7867,-0.741092
1952.76,628.5023,-0.809491
1963.26,630.2226,-0.864652
1973.76,631.9502,-0.895612
1984.26,633.6778,-0.910496
1994.76,635.416,-0.902084
2005.26,637.1556,-0.878127
2015.76,638.886,-0.883724
2026.26,640.6306,-0.837091
2036.76,642.364,-0.803579
2047.26,644.1097,-0.756853
2057.76,645.8536,-0.692291
2068.26,647.6033,-0.611593
2078.76,649.356,-0.524532
2089.26,651.1097,-0.421991
2099.76,652.87,-0.308413
2110.26,654.6306,-0.181281
2120.76,656.3921,-0.0394231
2131.26,658.1508,0.112868
2141.76,659.9152,0.27714
2152.26,661.6859,0.44446
2162.76,663.4552,0.613522
2173.26,665.22,0.778568
2183.76,666.9843,0.940106
2194.26,668.7489,1.0969
2204.76,670.512,1.25011
2215.26,672.2668,1.395
2225.76,674.021,1.53292
2236.26,675.7798,1.66307
2246.76,677.5317,1.78018
2257.26,679.2863,1.89044
2267.76,681.0402,1.99122
2278.26,682.7882,2.08483
2288.76,684.5313,2.16716
2299.26,686.273,2.24514
2309.76,688.0206,2.32324
2320.26,689.7649,2.38731
2330.76,691.5083,2.44917
2341.26,693.2504,2.50816
2351.76,694.9894,2.56106
2362.26,696.7219,2.61194
2372.76,698.4596,2.66014
2383.26,700.1974,2.70782
2393.76,701.9329,2.7493
2404.26,703.6712,2.79065
2414.76,705.4096,2.82906
2425.26,707.147,2.86771
2435.76,708.885,2.90289
2446.26,710.6218,2.94453
2456.76,712.3586,2.97928
2467.26,714.0876,3.00753
2477.76,715.8283,3.03892
2488.26,717.5549,3.06306
2498.76,719.2946,3.08754
2509.26,721.0262,3.11046
2519.76,722.76,3.13571
2530.26,724.4914,3.15964
2540.76,726.2301,3.18126
2551.26,727.9604,3.2098
2561.76,729.689,3.23084
2572.26,731.4294,3.2527
2582.76,733.161,3.27194
2593.26,734.8924,3.2894
2603.76,736.6216,3.31372
2614.26,738.3596,3.33615
2624.76,740.0881,3.35418
2635.26,741.8224,3.37477
2645.76,743.5556,3.39742
2656.26,745.292,3.41996
2666.76,747.026,3.44171
2677.26,748.7538,3.46011
2687.76,750.4881,3.47777
2698.26,752.2244,3.49655
2708.76,753.9559,3.51563
2719.26,755.6913,3.53708
2729.76,757.4219,3.55426
2740.26,759.1516,3.57156
2750.76,760.8861,3.59223
2761.26,762.6153,3.60869
2771.76,764.3521,3.62481
2782.26,766.087,3.64435
2792.76,767.8253,3.65813
2803.26,769.5586,3.67645
2813.76,771.287,3.68532
2824.26,773.0185,3.70095
2834.76,774.7516,3.71638
2845.26,776.4864,3.73667
2855.76,778.216,3.75355
2866.26,779.9474,3.76931
2876.76,781.6809,3.78034
2887.26,783.4148,3.79374
2897.76,785.1509,3.80497
2908.26,786.886,3.8183
2918.76,788.6217,3.8298
2929.26,790.358,3.84123
2939.76,792.0899,3.84759
2950.26,793.8232,3.86177
2960.76,795.5586,3.87466
2971.26,797.292,3.89313
2981.76,799.023,3.90409
2992.26,800.7545,3.91673
3002.76,802.4899,3.92772
3013.26,804.2186,3.93985
3013.76,804.3014,3.94069