File: Non-charring/PMMA/HKPolyU/HKPolyU_TGA_Air_1.csv
Time,Temperature,Mass
[s],[k],[mg]
0.19,302.027,3.9309
10.26,302.043,3.9304
20.76,302.141,3.9295
31.26,302.489,3.9283
41.76,303.152,3.9269
52.26,304.182,3.9252
62.76,305.563,3.9239
73.26,307.262,3.9228
83.76,309.213,3.9219
94.26,311.338,3.9214
104.76,313.581,3.9209
115.26,315.857,3.9206
125.76,318.124,3.9205
136.26,320.342,3.9205
146.76,322.498,3.9206
157.26,324.545,3.9207
167.76,326.5,3.921
178.26,328.381,3.9213
188.76,330.174,3.9215
199.26,331.917,3.9217
209.76,333.604,3.9217
220.26,335.267,3.9218
230.76,336.909,3.9218
241.26,338.56,3.9218
251.76,340.219,3.9218
262.26,341.91,3.9218
272.76,343.615,3.9218
283.26,345.348,3.9217
293.76,347.119,3.9217
304.26,348.904,3.9217
314.76,350.704,3.9218
325.26,352.526,3.9219
335.76,354.354,3.9219
346.26,356.187,3.922
356.76,358.02,3.922
367.26,359.854,3.9221
377.76,361.677,3.9222
388.26,363.496,3.9223
398.76,365.297,3.9229
409.26,367.103,3.923
419.76,368.895,3.9231
430.26,370.671,3.923
440.76,372.435,3.9231
451.26,374.213,3.9231
461.76,375.974,3.922
472.26,377.73,3.9218
482.76,379.493,3.9217
493.26,381.246,3.9216
503.76,383.011,3.9215
514.26,384.783,3.9213
524.76,386.56,3.9212
535.26,388.329,3.921
545.76,390.104,3.921
556.26,391.878,3.9209
566.76,393.651,3.9208
577.26,395.434,3.9208
587.76,397.209,3.9206
598.26,398.989,3.9204
608.76,400.769,3.9202
619.26,402.539,3.92
629.76,404.316,3.9195
640.26,406.087,3.9193
650.76,407.845,3.919
661.26,409.611,3.9185
671.76,411.384,3.9181
682.26,413.144,3.9177
692.76,414.908,3.9171
703.26,416.67,3.9167
713.76,418.436,3.9163
724.26,420.193,3.9158
734.76,421.958,3.9155
745.26,423.721,3.9149
755.76,425.484,3.9144
766.26,427.248,3.9139
776.76,429.012,3.9136
787.26,430.782,3.9133
797.76,432.538,3.9127
808.26,434.3,3.9124
818.76,436.06,3.9118
829.26,437.817,3.9114
839.76,439.585,3.9112
850.26,441.343,3.9108
860.76,443.106,3.9103
871.26,444.859,3.9099
881.76,446.622,3.9096
892.26,448.394,3.9093
902.76,450.146,3.9089
913.26,451.902,3.9084
923.76,453.658,3.9081
934.26,455.408,3.9078
944.76,457.162,3.9077
955.26,458.917,3.9071
965.76,460.676,3.907
976.26,462.428,3.9066
986.76,464.184,3.9064
997.26,465.939,3.9063
1007.76,467.692,3.9058
1018.26,469.444,3.9057
1028.76,471.2,3.9055
1039.26,472.963,3.9053
1049.76,474.711,3.9052
1060.26,476.459,3.905
1070.76,478.218,3.9049
1081.26,479.974,3.9048
1091.76,481.727,3.9046
1102.26,483.477,3.9046
1112.76,485.227,3.9044
1123.26,486.978,3.9044
1133.76,488.736,3.9044
1144.26,490.487,3.9042
1154.76,492.248,3.9041
1165.26,493.993,3.904
1175.76,495.746,3.9038
1186.26,497.496,3.9039
1196.76,499.24,3.9039
1207.26,500.99,3.9037
1217.76,502.734,3.9037
1228.26,504.481,3.9035
1238.76,506.228,3.9034
1249.26,507.978,3.9035
1259.76,509.72,3.9034
1270.26,511.469,3.9034
1280.76,513.218,3.9032
1291.26,514.963,3.9031
1301.76,516.707,3.9029
1312.26,518.451,3.9027
1322.76,520.195,3.9025
1333.26,521.947,3.9022
1343.76,523.68,3.9018
1354.26,525.43,3.9012
1364.76,527.179,3.9005
1375.26,528.922,3.8994
1385.76,530.667,3.8979
1396.26,532.412,3.8959
1406.76,534.157,3.8932
1417.26,535.89,3.8899
1427.76,537.633,3.8857
1438.26,539.382,3.8806
1448.76,541.128,3.8746
1459.26,542.87,3.8677
1469.76,544.614,3.8598
1480.26,546.358,3.8507
1490.76,548.098,3.8407
1501.26,549.841,3.8299
1511.76,551.576,3.8188
1522.26,553.308,3.8077
1532.76,555.05,3.7966
1543.26,556.789,3.7855
1553.76,558.528,3.7738
1564.26,560.265,3.7613
1574.76,562.008,3.7472
1585.26,563.746,3.7313
1595.76,565.49,3.7126
1606.26,567.23,3.6907
1616.76,568.969,3.6646
1627.26,570.699,3.6329
1637.76,572.442,3.5939
1648.26,574.173,3.5434
1658.76,575.911,3.4742
1669.26,577.637,3.3781
1679.76,579.335,3.2657
1690.26,581.027,3.157
1700.76,582.727,3.0568
1711.26,584.454,2.9622
1721.76,586.159,2.8654
1732.26,587.877,2.7823
1742.76,589.601,2.6942
1753.26,591.368,2.6088
1763.76,593.064,2.5149
1774.26,594.801,2.4277
1784.76,596.535,2.3319
1795.26,598.264,2.2211
1805.76,599.962,2.0992
1816.26,601.67,1.9722
1826.76,603.385,1.8444
1837.26,605.116,1.7126
1847.76,606.836,1.5858
1858.26,608.576,1.4779
1868.76,610.305,1.3663
1879.26,612.04,1.2648
1889.76,613.786,1.1663
1900.26,615.566,1.0746
1910.76,617.357,0.9963
1921.26,619.134,0.9244
1931.76,620.905,0.8589
1942.26,622.668,0.8002
1952.76,624.433,0.7478
1963.26,626.19,0.7012
1973.76,627.943,0.6597
1984.26,629.706,0.6227
1994.76,631.457,0.5897
2005.26,633.202,0.5602
2015.76,634.954,0.5337
2026.26,636.703,0.5099
2036.76,638.444,0.4882
2047.26,640.187,0.4687
2057.76,641.927,0.4508
2068.26,643.668,0.4346
2078.76,645.411,0.4198
2089.26,647.147,0.4062
2099.76,648.891,0.3938
2110.26,650.627,0.3824
2120.76,652.361,0.3719
2131.26,654.097,0.3623
2141.76,655.842,0.3534
2152.26,657.569,0.3453
2162.76,659.309,0.3377
2173.26,661.044,0.3308
2183.76,662.785,0.3243
2194.26,664.519,0.3184
2204.76,666.26,0.3129
2215.26,667.989,0.3077
2225.76,669.733,0.303
2236.26,671.468,0.2987
2246.76,673.201,0.2948
2257.26,674.94,0.2911
2267.76,676.676,0.2881
2278.26,678.416,0.2854
2288.76,680.153,0.283
2299.26,681.895,0.2815
2309.76,683.637,0.281
2320.26,685.371,0.2808
2330.76,687.107,0.2809
2341.26,688.844,0.2807
2351.76,690.577,0.2808
2362.26,692.313,0.2808
2372.76,694.05,0.2807
2383.26,695.779,0.2808
2393.76,697.515,0.2808
2404.26,699.25,0.2807
2414.76,700.986,0.2806
2425.26,702.722,0.2805
2435.76,704.456,0.2807
2446.26,706.192,0.2806
2456.76,707.931,0.2807
2467.26,709.662,0.2807
2477.76,711.4,0.2808
2488.26,713.138,0.2809
2498.76,714.873,0.281
2509.26,716.61,0.2811
2519.76,718.345,0.2813
2530.26,720.077,0.2813
2540.76,721.807,0.2815
2551.26,723.545,0.2817
2561.76,725.277,0.2818
2572.26,727.013,0.2819
2582.76,728.753,0.2821
2593.26,730.486,0.2822
2603.76,732.226,0.2824
2614.26,733.96,0.2825
2624.76,735.7,0.2828
2635.26,737.432,0.2828
2645.76,739.168,0.283
2656.26,740.901,0.2832
2666.76,742.635,0.2834
2677.26,744.372,0.2834
2687.76,746.113,0.2837
2698.26,747.849,0.2838
2708.76,749.585,0.2839
2719.26,751.322,0.2841
2729.76,753.057,0.2843
2740.26,754.793,0.2844
2750.76,756.521,0.2845
2761.26,758.258,0.2847
2771.76,759.993,0.285
2782.26,761.735,0.285
2792.76,763.472,0.2851
2803.26,765.217,0.2852
2813.76,766.945,0.2854
2824.26,768.678,0.2855
2834.76,770.418,0.2857
2845.26,772.151,0.2858
2855.76,773.889,0.2859
2866.26,775.62,0.286
2876.76,777.357,0.2862
2887.26,779.099,0.2863
2897.76,780.841,0.2864
2908.26,782.575,0.2866
2918.76,784.311,0.2867
2929.26,786.049,0.287
2939.76,787.782,0.287
2950.26,789.521,0.2872
2960.76,791.258,0.2873
2971.26,792.997,0.2874
2981.76,794.735,0.2875
2992.26,796.472,0.2877
3002.76,798.208,0.2877
3013.26,799.948,0.2878
3013.76,800.03,0.2878