File: Non-charring/PMMA/HKPolyU/HKPolyU_TGA_N2_1.csv
Time,Temperature,Mass
[s],[k],[mg]
0.004,300.03,4.104
0.171,301.319,4.102
0.346,302.901,4.1002
0.521,304.753,4.0987
0.696,306.785,4.0975
0.871,308.955,4.0967
1.046,311.172,4.096
1.221,313.4,4.0955
1.396,315.613,4.0954
1.571,317.742,4.0952
1.746,319.807,4.0952
1.921,321.788,4.0952
2.096,323.698,4.0953
2.271,325.525,4.0954
2.446,327.281,4.0954
2.621,329.002,4.0953
2.796,330.689,4.0953
2.971,332.358,4.0952
3.146,334.007,4.0951
3.321,335.669,4.0951
3.496,337.333,4.0951
3.671,339.017,4.0949
3.846,340.732,4.0949
4.021,342.446,4.0948
4.196,344.179,4.0947
4.371,345.943,4.0948
4.546,347.701,4.0947
4.721,349.48,4.0947
4.896,351.254,4.0946
5.071,353.039,4.0946
5.246,354.811,4.0944
5.421,356.597,4.0945
5.596,358.373,4.0945
5.771,360.143,4.0945
5.946,361.927,4.0945
6.121,363.693,4.0945
6.296,365.46,4.0946
6.471,367.223,4.0946
6.646,368.978,4.095
6.821,370.728,4.095
6.996,372.483,4.095
7.171,374.242,4.095
7.346,376.008,4.0956
7.521,377.766,4.0955
7.696,379.529,4.0958
7.871,381.291,4.0955
8.046,383.058,4.0955
8.221,384.823,4.0954
8.396,386.595,4.0953
8.571,388.349,4.0951
8.746001,390.131,4.0951
8.920999,391.896,4.0949
9.096,393.666,4.0946
9.271,395.433,4.0942
9.446,397.2,4.0938
9.621001,398.97,4.0933
9.795999,400.732,4.0928
9.971,402.509,4.0923
10.146,404.27,4.0918
10.321,406.033,4.0914
10.496,407.797,4.0909
10.671,409.559,4.0903
10.846,411.322,4.0897
11.021,413.081,4.0891
11.196,414.852,4.0884
11.371,416.603,4.0878
11.546,418.366,4.0872
11.721,420.124,4.0865
11.896,421.891,4.0859
12.071,423.645,4.0849
12.246,425.403,4.0841
12.421,427.17,4.0832
12.596,428.932,4.0822
12.771,430.694,4.0813
12.946,432.452,4.0802
13.121,434.205,4.0788
13.296,435.969,4.0775
13.471,437.728,4.0757
13.646,439.488,4.0741
13.821,441.243,4.0722
13.996,443.001,4.07
14.171,444.766,4.0677
14.346,446.519,4.0651
14.521,448.276,4.0623
14.696,450.028,4.0593
14.871,451.781,4.0561
15.046,453.525,4.0526
15.221,455.281,4.0491
15.396,457.035,4.0455
15.571,458.794,4.0418
15.746,460.542,4.0382
15.921,462.297,4.0346
16.096,464.06,4.0311
16.271,465.816,4.0277
16.446,467.565,4.0243
16.621,469.322,4.021
16.796,471.074,4.0175
16.971,472.826,4.0142
17.146,474.571,4.0109
17.321,476.326,4.0074
17.496,478.078,4.004
17.671,479.832,4.0005
17.846,481.598,3.9972
18.021,483.348,3.9942
18.196,485.097,3.9914
18.371,486.848,3.9889
18.546,488.599,3.9867
18.721,490.357,3.9847
18.896,492.109,3.9832
19.071,493.861,3.9818
19.246,495.607,3.9805
19.421,497.362,3.9795
19.596,499.112,3.9788
19.771,500.866,3.9779
19.946,502.614,3.9775
20.121,504.364,3.9768
20.296,506.103,3.9759
20.471,507.852,3.9752
20.646,509.603,3.9745
20.821,511.347,3.9737
20.996,513.088,3.9729
21.171,514.835,3.9719
21.346,516.583,3.9709
21.521,518.32,3.9699
21.696,520.067,3.9687
21.871,521.809,3.9675
22.046,523.557,3.9661
22.221,525.294,3.9646
22.396,527.046,3.963
22.571,528.788,3.9611
22.746,530.537,3.9592
22.921,532.274,3.957
23.096,534.011,3.9548
23.271,535.755,3.9524
23.446,537.494,3.9499
23.621,539.238,3.947
23.796,540.978,3.9439
23.971,542.719,3.9406
24.146,544.453,3.937
24.321,546.195,3.933
24.496,547.934,3.9287
24.671,549.671,3.9242
24.846,551.412,3.9191
25.021,553.151,3.9139
25.196,554.888,3.9083
25.371,556.631,3.9021
25.546,558.367,3.8957
25.721,560.107,3.8888
25.896,561.841,3.8818
26.071,563.58,3.8744
26.246,565.314,3.8667
26.421,567.055,3.8588
26.596,568.791,3.8506
26.771,570.527,3.8421
26.946,572.262,3.8333
27.121,573.999,3.8244
27.296,575.737,3.8149
27.471,577.475,3.8052
27.646,579.208,3.7948
27.821,580.949,3.783
27.996,582.678,3.7711
28.171,584.417,3.7583
28.346,586.148,3.7444
28.521,587.88,3.7292
28.696,589.617,3.7125
28.871,591.355,3.6942
29.046,593.089,3.6737
29.221,594.816,3.6514
29.396,596.539,3.6265
29.571,598.267,3.5989
29.746,599.993,3.568
29.921,601.716,3.5338
30.096,603.438,3.4958
30.271,605.164,3.4535
30.446,606.876,3.4066
30.621,608.598,3.3547
30.796,610.313,3.2976
30.971,612.032,3.2349
31.146,613.744,3.1665
31.321,615.456,3.0919
31.496,617.173,3.0111
31.671,618.882,2.9247
31.846,620.595,2.832
32.021,622.304,2.7339
32.196,624.013,2.6305
32.371,625.719,2.5218
32.546,627.433,2.4087
32.721,629.149,2.2919
32.896,630.87,2.1734
33.071,632.6,2.052
33.246,634.327,1.9308
33.421,636.056,1.8081
33.596,637.799,1.6861
33.771,639.539,1.566
33.946,641.27,1.4489
34.121,643.011,1.3347
34.296,644.758,1.2254
34.471,646.506,1.1075
34.646,648.251,0.999
34.821,650.004,0.8941
34.996,651.759,0.7949
35.171,653.513,0.7019
35.346,655.277,0.6146
35.521,657.033,0.5341
35.696,658.796,0.4616
35.871,660.559,0.3966
36.046,662.32,0.3382
36.221,664.089,0.2863
36.396,665.848,0.2406
36.571,667.612,0.2002
36.746,669.369,0.1651
36.921,671.129,0.1348
37.096,672.887,0.1089
37.271,674.644,0.0866
37.446,676.398,0.0679
37.621,678.15,0.0519
37.796,679.901,0.0383
37.971,681.651,0.027
38.146,683.395,0.0174
38.321,685.143,0.0095
38.496,686.883,0.0028
38.671,688.63,-0.0025
38.846,690.368,-0.007
39.021,692.112,-0.0107
39.196,693.853,-0.0136
39.371,695.597,-0.016
39.546,697.327,-0.0181
39.721,699.065,-0.0198
39.896,700.803,-0.0209
40.071,702.536,-0.0219
40.246,704.273,-0.0224
40.421,706.009,-0.0228
40.596,707.739,-0.023
40.771,709.481,-0.023
40.946,711.207,-0.0231
41.121,712.945,-0.023
41.296,714.68,-0.023
41.471,716.415,-0.0228
41.646,718.15,-0.0227
41.821,719.885,-0.0226
41.996,721.627,-0.0226
42.171,723.357,-0.0225
42.346,725.088,-0.0224
42.521,726.819,-0.0223
42.696,728.553,-0.0221
42.871,730.286,-0.0219
43.046,732.019,-0.0218
43.221,733.754,-0.0216
43.396,735.488,-0.0216
43.571,737.22,-0.0214
43.746,738.952,-0.0213
43.921,740.687,-0.0211
44.096,742.42,-0.021
44.271,744.152,-0.0208
44.446,745.887,-0.0207
44.621,747.625,-0.0206
44.796,749.362,-0.0204
44.971,751.09,-0.0204
45.146,752.824,-0.0201
45.321,754.551,-0.0199
45.496,756.281,-0.0198
45.671,758.01,-0.0197
45.846,759.75,-0.0195
46.021,761.482,-0.0195
46.196,763.215,-0.0194
46.371,764.95,-0.0191
46.546,766.691,-0.0189
46.721,768.421,-0.0188
46.896,770.154,-0.0187
47.071,771.888,-0.0186
47.246,773.626,-0.0185
47.421,775.356,-0.0183
47.596,777.087,-0.0182
47.771,778.823,-0.0181
47.946,780.548,-0.018
48.121,782.285,-0.0179
48.296,784.026,-0.0177
48.471,785.761,-0.0177
48.646,787.49,-0.0177
48.821,789.224,-0.0175
48.996,790.963,-0.0174
49.171,792.693,-0.0173
49.346,794.429,-0.017
49.521,796.162,-0.017
49.696,797.895,-0.0169
49.871,799.63,-0.0168
50.046,801.362,-0.0167
50.221,803.094,-0.0167
50.22934,803.176,-0.0166