File: Non-charring/PMMA/HKPolyU/HKPolyU_TGA_Air_2.csv
Time,Temperature,Mass
[s],[k],[mg]
0.05,300.021,3.8808
10.26,302.317,3.88
20.76,304.594,3.8793
31.26,306.795,3.8787
41.76,308.922,3.8782
52.26,310.954,3.8779
62.76,312.896,3.8778
73.26,314.755,3.8775
83.76,316.536,3.8773
94.26,318.273,3.8771
104.76,319.976,3.8768
115.26,321.645,3.8766
125.76,323.307,3.8764
136.26,324.983,3.8762
146.76,326.668,3.8759
157.26,328.377,3.8757
167.76,330.109,3.8755
178.26,331.857,3.8753
188.76,333.644,3.8751
199.26,335.436,3.8749
209.76,337.248,3.8747
220.26,339.086,3.8746
230.76,340.929,3.8744
241.26,342.778,3.8744
251.76,344.615,3.8745
262.26,346.454,3.8744
272.76,348.277,3.8742
283.26,350.109,3.8742
293.76,351.913,3.8743
304.26,353.717,3.8742
314.76,355.51,3.8742
325.26,357.283,3.8742
335.76,359.065,3.8741
346.26,360.839,3.8742
356.76,362.61,3.8745
367.26,364.384,3.8745
377.76,366.163,3.8745
388.26,367.933,3.8745
398.76,369.698,3.8745
409.26,371.474,3.8745
419.76,373.247,3.8744
430.26,375.029,3.8744
440.76,376.818,3.8744
451.26,378.597,3.8743
461.76,380.38,3.8743
472.26,382.17,3.8741
482.76,383.958,3.874
493.26,385.742,3.8738
503.76,387.521,3.8739
514.26,389.298,3.8735
524.76,391.074,3.8734
535.26,392.856,3.873
545.76,394.626,3.8729
556.26,396.408,3.8726
566.76,398.178,3.8722
577.26,399.95,3.872
587.76,401.726,3.8716
598.26,403.483,3.8712
608.76,405.259,3.8708
619.26,407.028,3.8705
629.76,408.793,3.8701
640.26,410.555,3.8696
650.76,412.325,3.8691
661.26,414.085,3.8686
671.76,415.853,3.8684
682.26,417.615,3.8679
692.76,419.383,3.8675
703.26,421.154,3.8671
713.76,422.917,3.8666
724.26,424.682,3.8661
734.76,426.442,3.8656
745.26,428.207,3.8653
755.76,429.975,3.8648
766.26,431.741,3.8643
776.76,433.504,3.8639
787.26,435.268,3.8634
797.76,437.034,3.863
808.26,438.791,3.8626
818.76,440.551,3.8622
829.26,442.318,3.8618
839.76,444.077,3.8613
850.26,445.832,3.8611
860.76,447.588,3.8607
871.26,449.347,3.8603
881.76,451.101,3.8599
892.26,452.859,3.8595
902.76,454.621,3.8592
913.26,456.375,3.859
923.76,458.128,3.8587
934.26,459.888,3.8583
944.76,461.641,3.8581
955.26,463.396,3.8579
965.76,465.149,3.8577
976.26,466.908,3.8575
986.76,468.663,3.8572
997.26,470.412,3.8571
1007.76,472.178,3.8569
1018.26,473.924,3.8568
1028.76,475.679,3.8567
1039.26,477.429,3.8565
1049.76,479.181,3.8565
1060.26,480.934,3.8564
1070.76,482.682,3.8562
1081.26,484.444,3.8563
1091.76,486.19,3.856
1102.26,487.951,3.856
1112.76,489.703,3.8559
1123.26,491.451,3.8559
1133.76,493.205,3.8558
1144.26,494.957,3.8557
1154.76,496.702,3.8557
1165.26,498.453,3.8558
1175.76,500.206,3.8557
1186.26,501.947,3.8556
1196.76,503.7,3.8555
1207.26,505.455,3.8555
1217.76,507.204,3.8554
1228.26,508.948,3.8553
1238.76,510.689,3.8552
1249.26,512.442,3.855
1259.76,514.179,3.8547
1270.26,515.924,3.8545
1280.76,517.674,3.8542
1291.26,519.418,3.8539
1301.76,521.158,3.8535
1312.26,522.914,3.8531
1322.76,524.657,3.8525
1333.26,526.397,3.8515
1343.76,528.135,3.8505
1354.26,529.885,3.8489
1364.76,531.628,3.847
1375.26,533.371,3.8444
1385.76,535.122,3.8412
1396.26,536.867,3.837
1406.76,538.615,3.8321
1417.26,540.362,3.8263
1427.76,542.102,3.8194
1438.26,543.85,3.8116
1448.76,545.588,3.8027
1459.26,547.333,3.793
1469.76,549.071,3.7825
1480.26,550.815,3.7719
1490.76,552.55,3.7611
1501.26,554.299,3.7503
1511.76,556.035,3.7395
1522.26,557.773,3.728
1532.76,559.518,3.7154
1543.26,561.263,3.7014
1553.76,563,3.6855
1564.26,564.744,3.6669
1574.76,566.487,3.6451
1585.26,568.238,3.6187
1595.76,569.99,3.5865
1606.26,571.738,3.5461
1616.76,573.49,3.4932
1627.26,575.236,3.421
1637.76,576.983,3.3264
1648.26,578.704,3.2217
1658.76,580.425,3.1222
1669.26,582.149,3.0297
1679.76,583.878,2.9427
1690.26,585.622,2.8536
1700.76,587.32,2.7685
1711.26,589.037,2.6883
1721.76,590.771,2.6032
1732.26,592.514,2.5113
1742.76,594.221,2.4172
1753.26,595.961,2.3123
1763.76,597.684,2.2
1774.26,599.401,2.0822
1784.76,601.125,1.9584
1795.26,602.875,1.8302
1805.76,604.639,1.7007
1816.26,606.41,1.5706
1826.76,608.201,1.4391
1837.26,610.007,1.3065
1847.76,611.782,1.1819
1858.26,613.529,1.0739
1868.76,615.26,0.981
1879.26,616.984,0.9066
1889.76,618.706,0.8502
1900.26,620.42,0.8034
1910.76,622.144,0.7616
1921.26,623.865,0.7245
1931.76,625.599,0.6917
1942.26,627.326,0.6626
1952.76,629.063,0.6366
1963.26,630.803,0.6136
1973.76,632.536,0.5931
1984.26,634.275,0.5746
1994.76,636.013,0.5578
2005.26,637.741,0.5425
2015.76,639.474,0.5287
2026.26,641.203,0.5158
2036.76,642.935,0.5041
2047.26,644.661,0.4937
2057.76,646.394,0.4838
2068.26,648.12,0.4749
2078.76,649.854,0.4665
2089.26,651.579,0.4587
2099.76,653.313,0.4517
2110.26,655.046,0.4452
2120.76,656.784,0.4391
2131.26,658.514,0.4334
2141.76,660.249,0.4281
2152.26,661.978,0.4233
2162.76,663.716,0.4188
2173.26,665.444,0.4146
2183.76,667.181,0.4108
2194.26,668.913,0.4073
2204.76,670.647,0.4041
2215.26,672.378,0.4012
2225.76,674.113,0.3985
2236.26,675.848,0.3961
2246.76,677.582,0.394
2257.26,679.321,0.3925
2267.76,681.057,0.3914
2278.26,682.791,0.391
2288.76,684.525,0.391
2299.26,686.258,0.3909
2309.76,687.989,0.3908
2320.26,689.718,0.3907
2330.76,691.455,0.3903
2341.26,693.189,0.3903
2351.76,694.921,0.3902
2362.26,696.655,0.3902
2372.76,698.389,0.3903
2383.26,700.126,0.3904
2393.76,701.86,0.3903
2404.26,703.589,0.3903
2414.76,705.32,0.3903
2425.26,707.055,0.3903
2435.76,708.79,0.3903
2446.26,710.521,0.3903
2456.76,712.258,0.3903
2467.26,713.991,0.3904
2477.76,715.725,0.3904
2488.26,717.462,0.3904
2498.76,719.196,0.3905
2509.26,720.929,0.3907
2519.76,722.662,0.3907
2530.26,724.393,0.3907
2540.76,726.132,0.3908
2551.26,727.865,0.3909
2561.76,729.59,0.391
2572.26,731.333,0.3911
2582.76,733.068,0.3912
2593.26,734.797,0.3913
2603.76,736.532,0.3913
2614.26,738.265,0.3914
2624.76,740.001,0.3915
2635.26,741.728,0.3916
2645.76,743.46,0.3918
2656.26,745.194,0.3918
2666.76,746.925,0.3919
2677.26,748.662,0.392
2687.76,750.403,0.3922
2698.26,752.135,0.3922
2708.76,753.863,0.3923
2719.26,755.597,0.3924
2729.76,757.335,0.3924
2740.26,759.07,0.3926
2750.76,760.798,0.3926
2761.26,762.53,0.3927
2771.76,764.265,0.3928
2782.26,765.996,0.3929
2792.76,767.728,0.3929
2803.26,769.467,0.393
2813.76,771.197,0.3931
2824.26,772.934,0.3933
2834.76,774.663,0.3933
2845.26,776.403,0.3935
2855.76,778.132,0.3934
2866.26,779.865,0.3935
2876.76,781.602,0.3935
2887.26,783.338,0.3936
2897.76,785.07,0.3937
2908.26,786.803,0.3937
2918.76,788.54,0.3938
2929.26,790.272,0.3939
2939.76,792.006,0.3939
2950.26,793.738,0.394
2960.76,795.471,0.394
2971.26,797.208,0.3941
2981.76,798.939,0.3942
2992.26,800.667,0.3941
3002.76,802.399,0.3942
3013.26,804.136,0.3944
3013.76,804.214,0.3944