File: Non-charring/PMMA/HKPolyU/HKPolyU_DSC_Air_1.csv
Time,Temperature,Heat Flow
[s],[k],[W/g]
0.19,302.027,4.02801
10.26,302.043,4.03621
20.76,302.141,4.03958
31.26,302.489,4.05231
41.76,303.152,4.10064
52.26,304.182,4.18288
62.76,305.563,4.28362
73.26,307.262,4.38249
83.76,309.213,4.47566
94.26,311.338,4.55543
104.76,313.581,4.60659
115.26,315.857,4.63147
125.76,318.124,4.61519
136.26,320.342,4.56075
146.76,322.498,4.45688
157.26,324.545,4.31214
167.76,326.5,4.12712
178.26,328.381,3.90812
188.76,330.174,3.66537
199.26,331.917,3.40491
209.76,333.604,3.13646
220.26,335.267,2.86859
230.76,336.909,2.60659
241.26,338.56,2.35587
251.76,340.219,2.12116
262.26,341.91,1.90361
272.76,343.615,1.70518
283.26,345.348,1.52754
293.76,347.119,1.36853
304.26,348.904,1.22562
314.76,350.704,1.09987
325.26,352.526,0.987418
335.76,354.354,0.88446
346.26,356.187,0.791763
356.76,358.02,0.705836
367.26,359.854,0.625103
377.76,361.677,0.549067
388.26,363.496,0.4762431
398.76,365.297,0.406273
409.26,367.103,0.339188
419.76,368.895,0.275195
430.26,370.671,0.214104
440.76,372.435,0.158272
451.26,374.213,0.105122
461.76,375.974,0.0541182
472.26,377.73,0.0101965
482.76,379.493,-0.0295694
493.26,381.246,-0.0659081
503.76,383.011,-0.09732939
514.26,384.783,-0.125538
524.76,386.56,-0.149173
535.26,388.329,-0.170716
545.76,390.104,-0.189776
556.26,391.878,-0.20622
566.76,393.651,-0.220294
577.26,395.434,-0.233766
587.76,397.209,-0.246208
598.26,398.989,-0.255551
608.76,400.769,-0.262952
619.26,402.539,-0.268597
629.76,404.316,-0.272739
640.26,406.087,-0.2749
650.76,407.845,-0.276069
661.26,409.611,-0.276379
671.76,411.384,-0.27407
682.26,413.144,-0.272065
692.76,414.908,-0.268465
703.26,416.67,-0.263579
713.76,418.436,-0.257859
724.26,420.193,-0.251042
734.76,421.958,-0.243001
745.26,423.721,-0.234764
755.76,425.484,-0.225376
766.26,427.248,-0.214872
776.76,429.012,-0.203909
787.26,430.782,-0.191578
797.76,432.538,-0.178453
808.26,434.3,-0.16555
818.76,436.06,-0.150991
829.26,437.817,-0.136766
839.76,439.585,-0.121411
850.26,441.343,-0.105451
860.76,443.106,-0.0886186
871.26,444.859,-0.0715007
881.76,446.622,-0.0530741
892.26,448.394,-0.03365125
902.76,450.146,-0.0138315
913.26,451.902,0.006935926
923.76,453.658,0.0274911
934.26,455.408,0.0493641
944.76,457.162,0.07139912
955.26,458.917,0.0945401
965.76,460.676,0.119328
976.26,462.428,0.14386
986.76,464.184,0.168947
997.26,465.939,0.195404
1007.76,467.692,0.221994
1018.26,469.444,0.249478
1028.76,471.2,0.277759
1039.26,472.963,0.307587
1049.76,474.711,0.336147
1060.26,476.459,0.366788
1070.76,478.218,0.3969
1081.26,479.974,0.428121
1091.76,481.727,0.459685
1102.26,483.477,0.491746
1112.76,485.227,0.524488
1123.26,486.978,0.558329
1133.76,488.736,0.591807
1144.26,490.487,0.626016
1154.76,492.248,0.660284
1165.26,493.993,0.695495
1175.76,495.746,0.729955
1186.26,497.496,0.764185
1196.76,499.24,0.797778
1207.26,500.99,0.831945
1217.76,502.734,0.864336
1228.26,504.481,0.897682
1238.76,506.228,0.931197
1249.26,507.978,0.964233
1259.76,509.72,0.99794
1270.26,511.469,1.03175
1280.76,513.218,1.0648
1291.26,514.963,1.09852
1301.76,516.707,1.13221
1312.26,518.451,1.1659
1322.76,520.195,1.1989
1333.26,521.947,1.23236
1343.76,523.68,1.26492
1354.26,525.43,1.29815
1364.76,527.179,1.33203
1375.26,528.922,1.36623
1385.76,530.667,1.4006
1396.26,532.412,1.43491
1406.76,534.157,1.46947
1417.26,535.89,1.50321
1427.76,537.633,1.536657
1438.26,539.382,1.57068
1448.76,541.128,1.60383
1459.26,542.87,1.63503
1469.76,544.614,1.66663
1480.26,546.358,1.69684
1490.76,548.098,1.72743
1501.26,549.841,1.75659
1511.76,551.576,1.78502
1522.26,553.308,1.81276
1532.76,555.05,1.84147
1543.26,556.789,1.87017
1553.76,558.528,1.8999
1564.26,560.265,1.92763
1574.76,562.008,1.9548
1585.26,563.746,1.98009
1595.76,565.49,2.00283
1606.26,567.23,2.02202
1616.76,568.969,2.03559
1627.26,570.699,2.04308
1637.76,572.442,2.04105
1648.26,574.173,2.02579
1658.76,575.911,1.99275
1669.26,577.637,1.92653
1679.76,579.335,1.81047
1690.26,581.027,1.69023
1700.76,582.727,1.59981
1711.26,584.454,1.57467
1721.76,586.159,1.58972
1732.26,587.877,1.59077
1742.76,589.601,1.61982
1753.26,591.368,1.70233
1763.76,593.064,1.65639
1774.26,594.801,1.6616
1784.76,596.535,1.62035
1795.26,598.264,1.55656
1805.76,599.962,1.43399
1816.26,601.67,1.30655
1826.76,603.385,1.22863
1837.26,605.116,1.23009
1847.76,606.836,1.2088
1858.26,608.576,1.22559
1868.76,610.305,1.26061
1879.26,612.04,1.30165
1889.76,613.786,1.37301
1900.26,615.566,1.55678
1910.76,617.357,1.81614
1921.26,619.134,2.03866
1931.76,620.905,2.23167
1942.26,622.668,2.39573
1952.76,624.433,2.54073
1963.26,626.19,2.67001
1973.76,627.943,2.7873
1984.26,629.706,2.89456
1994.76,631.457,2.99372
2005.26,633.202,3.08424
2015.76,634.954,3.1686
2026.26,636.703,3.24787
2036.76,638.444,3.32022
2047.26,640.187,3.38958
2057.76,641.927,3.45372
2068.26,643.668,3.51474
2078.76,645.411,3.57431
2089.26,647.147,3.63147
2099.76,648.891,3.68619
2110.26,650.627,3.73932
2120.76,652.361,3.79127
2131.26,654.097,3.84093
2141.76,655.842,3.89134
2152.26,657.569,3.94114
2162.76,659.309,3.99101
2173.26,661.044,4.03945
2183.76,662.785,4.08858
2194.26,664.519,4.1375
2204.76,666.26,4.18722
2215.26,667.989,4.2366
2225.76,669.733,4.28758
2236.26,671.468,4.33822
2246.76,673.201,4.3892
2257.26,674.94,4.44157
2267.76,676.676,4.49545
2278.26,678.416,4.55055
2288.76,680.153,4.60734
2299.26,681.895,4.66544
2309.76,683.637,4.72284
2320.26,685.371,4.76898
2330.76,687.107,4.80866
2341.26,688.844,4.84659
2351.76,690.577,4.88602
2362.26,692.313,4.92554
2372.76,694.05,4.96769
2383.26,695.779,5.0101
2393.76,697.515,5.05464
2404.26,699.25,5.09984
2414.76,700.986,5.14445
2425.26,702.722,5.18907
2435.76,704.456,5.23533
2446.26,706.192,5.2825
2456.76,707.931,5.32812
2467.26,709.662,5.37457
2477.76,711.4,5.42222
2488.26,713.138,5.46764
2498.76,714.873,5.51351
2509.26,716.61,5.55897
2519.76,718.345,5.60385
2530.26,720.077,5.64895
2540.76,721.807,5.69209
2551.26,723.545,5.73617
2561.76,725.277,5.78158
2572.26,727.013,5.82604
2582.76,728.753,5.87191
2593.26,730.486,5.91678
2603.76,732.226,5.96296
2614.26,733.96,6.00755
2624.76,735.7,6.05408
2635.26,737.432,6.10021
2645.76,739.168,6.14607
2656.26,740.901,6.19302
2666.76,742.635,6.23785
2677.26,744.372,6.28494
2687.76,746.113,6.33151
2698.26,747.849,6.37898
2708.76,749.585,6.4252
2719.26,751.322,6.47372
2729.76,753.057,6.52165
2740.26,754.793,6.57036
2750.76,756.521,6.61797
2761.26,758.258,6.66538
2771.76,759.993,6.71096
2782.26,761.735,6.75854
2792.76,763.472,6.80517
2803.26,765.217,6.85285
2813.76,766.945,6.89758
2824.26,768.678,6.94439
2834.76,770.418,6.98942
2845.26,772.151,7.03617
2855.76,773.889,7.08316
2866.26,775.62,7.13115
2876.76,777.357,7.17805
2887.26,779.099,7.22428
2897.76,780.841,7.27052
2908.26,782.575,7.31669
2918.76,784.311,7.36464
2929.26,786.049,7.41289
2939.76,787.782,7.4617
2950.26,789.521,7.50943
2960.76,791.258,7.55995
2971.26,792.997,7.6081
2981.76,794.735,7.65557
2992.26,796.472,7.70503
3002.76,798.208,7.7529
3013.26,799.948,7.8026
3013.76,800.03,7.80475