File: Non-charring/PMMA/HKPolyU/HKPolyU_Cone_25kW_2.CSV
Time,Mass,Heat release,Back surface temperature
[s],[g],[kW],[K]
1,77.53,0.02,305
3,77.52,0.02,305
5,77.51,0.01,305.1
7,77.49,0.04,305.1
9,77.49,0.06,305.1
11,77.5,0.04,305.1
13,77.5,0.02,305.1
15,77.52,0.01,304.9
17,77.51,0.02,304.9
19,77.5,0,304.9
21,77.5,0.01,305
23,77.49,0.01,305.3
25,77.47,0.01,305.6
27,77.47,0.03,305.6
29,77.47,0.03,305.8
31,77.45,0.03,306.4
33,77.45,0,306.9
35,77.47,0.03,307.4
37,77.45,0,308
39,77.46,0.03,308.7
41,77.42,0,309.5
43,77.41,0.01,310.4
45,77.41,0.04,311.3
47,77.4,0.04,312.1
49,77.39,0.03,312.9
51,77.38,0.03,313.9
53,77.35,0.02,314.8
55,77.35,0.03,315.9
57,77.36,0.03,317.1
59,77.35,0.03,318.1
61,77.34,0.03,319.2
63,77.35,0.05,320.3
65,77.35,0.11,321.5
67,77.31,0.19,322.4
69,77.23,0.25,323.4
71,77.09,0.22,324.5
73,76.93,0.22,325.6
75,76.8,0.23,326.8
77,76.63,0.3,328.2
79,76.41,0.44,329.5
81,76.19,0.71,331
83,75.93,1.21,333
85,75.67,1.72,335.9
87,75.43,2.17,338.7
89,75.07,2.72,341
91,74.76,3.37,343.2
93,74.43,3.9,345.3
95,74.07,4.36,347.3
97,73.79,4.8,349
99,73.44,5.17,350.7
101,73.06,5.6,352.4
103,72.74,6.08,353.9
105,72.37,6.47,355.3
107,72.01,6.76,356.5
109,71.62,7.01,357.6
111,71.24,7.22,358.7
113,70.81,7.39,359.5
115,70.49,7.56,360.3
117,70.11,7.77,361
119,69.73,7.93,361.7
121,69.35,8.12,361.7
123,68.96,8.35,361.3
125,68.54,8.49,361.1
127,68.19,8.64,360.7
129,67.82,8.74,359.9
131,67.41,8.79,358.7
133,67.01,8.83,357.9
135,66.6,8.83,356.9
137,66.25,8.83,356.5
139,65.81,8.8,356.3
141,65.41,8.77,356.2
143,64.99,8.82,356.5
145,64.62,8.87,357.4
147,64.21,8.86,358.3
149,63.86,8.83,360
151,63.42,8.82,362
153,63,8.86,363.4
155,62.64,9.11,365.2
157,62.27,9.35,365.6
159,61.83,9.44,366.3
161,61.46,9.47,366.9
163,61.05,9.46,367.2
165,60.63,9.41,368
167,60.2,9.37,368.8
169,59.8,9.29,369.4
171,59.43,9.21,371.4
173,59.02,9.18,373.3
175,58.6,9.18,374.7
177,58.2,9.23,376.3
179,57.78,9.29,377.6
181,57.42,9.43,378.9
183,57,9.56,379.8
185,56.61,9.64,381.2
187,56.17,9.55,382.2
189,55.77,9.41,383.4
191,55.37,9.34,384.5
193,54.96,9.36,385.6
195,54.53,9.41,386.4
197,54.13,9.47,387.7
199,53.73,9.55,388.3
201,53.31,9.63,389.4
203,52.9,9.65,390.4
205,52.55,9.65,391.1
207,52.09,9.65,392.2
209,51.69,9.64,393.1
211,51.24,9.57,394.2
213,50.81,9.53,395.2
215,50.46,9.54,396.2
217,50.08,9.62,397.1
219,49.62,9.68,398.2
221,49.19,9.72,398.9
223,48.8,9.74,399.8
225,48.4,9.76,400.9
227,47.95,9.76,401.9
229,47.56,9.69,402.8
231,47.12,9.64,403.7
233,46.7,9.62,404.6
235,46.29,9.66,405.4
237,45.85,9.71,406.2
239,45.42,9.8,406.9
241,45.03,9.87,407.6
243,44.61,9.92,408.7
245,44.15,9.96,409.4
247,43.75,9.98,409.9
249,43.3,10,410.7
251,42.83,10.02,411.2
253,42.49,10.03,411.9
255,42.02,10.03,412.7
257,41.64,10.01,413.7
259,41.15,9.98,414.3
261,40.77,9.99,414.7
263,40.33,9.99,415.4
265,39.93,10,416.1
267,39.51,10.04,416.8
269,39.1,10.09,417.6
271,38.61,10.16,418.3
273,38.15,10.23,419
275,37.74,10.24,419.6
277,37.33,10.12,420.2
279,36.88,10.02,420.4
281,36.45,10.05,420.7
283,36.04,10.2,421.4
285,35.6,10.31,421.8
287,35.16,10.35,422
289,34.74,10.35,421.5
291,34.26,10.32,421.1
293,33.85,10.24,420.7
295,33.38,10.19,420.4
297,32.95,10.26,419.3
299,32.52,10.33,417.9
301,32.09,10.38,417
303,31.65,10.48,417.1
305,31.24,10.53,417.5
307,30.83,10.56,417.8
309,30.35,10.54,417.8
311,29.91,10.47,417.1
313,29.45,10.4,416.9
315,28.99,10.36,416.5
317,28.53,10.42,416
319,28.1,10.55,416.2
321,27.66,10.64,417.5
323,27.16,10.71,418.2
325,26.77,10.76,418.9
327,26.34,10.77,420.4
329,25.87,10.77,422.8
331,25.44,10.76,426.5
333,25.03,10.75,437.2
335,24.6,10.72,446.3
337,24.17,10.73,452.5
339,23.73,10.73,458.7
341,23.31,10.72,465.6
343,22.89,10.67,471.3
345,22.51,10.53,478.6
347,22.1,10.39,483.1
349,21.65,10.3,486.3
351,21.28,10.16,490
353,20.87,10.03,496
355,20.46,9.93,500.9
357,20.08,9.86,505.3
359,19.72,9.83,509.7
361,19.34,9.74,514.4
363,18.95,9.53,519.4
365,18.51,9.43,524.3
367,18.16,9.38,528.2
369,17.77,9.23,532.4
371,17.37,9.02,536.1
373,17.03,8.87,540.5
375,16.69,8.79,544.8
377,16.3,8.67,548.7
379,15.91,8.52,552.7
381,15.58,8.37,556.4
383,15.21,8.21,559.9
385,14.86,8.11,562.8
387,14.51,7.93,566
389,14.18,7.71,568.9
391,13.87,7.59,571.2
393,13.52,7.4,574.2
395,13.14,7.23,576.8
397,12.78,7.12,580.9
399,12.44,6.99,583.9
401,12.1,6.85,586.2
403,11.73,6.63,586.8
405,11.38,6.46,591.9
407,11.02,6.39,592.5
409,10.62,6.38,595.8
411,10.3,6.37,597.9
413,9.98,6.33,598.8
415,9.68,6.27,600.2
417,9.36,6.23,601.3
419,8.99,6.19,602.6
421,8.61,6.09,604
423,8.33,5.93,606.1
425,8.01,5.75,609.1
427,7.69,5.53,612.4
429,7.45,5.27,616.7
431,7.16,5.08,620.4
433,6.92,4.9,624.2
435,6.62,4.72,629.3
437,6.36,4.58,636.7
439,6.12,4.42,645.7
441,5.89,4.3,654.2
443,5.66,4.1,664.4
445,5.41,3.86,677.2
447,5.15,3.62,686.5
449,4.94,3.42,695.2
451,4.74,3.24,705.6
453,4.53,3.05,714.6
455,4.34,2.81,731.1
457,4.12,2.59,741
459,3.95,2.42,753.8
461,3.75,2.24,767.9
463,3.62,2.11,774.6
465,3.47,2.01,774
467,3.28,1.9,751.1
469,3.14,1.68,721.5
471,3.05,1.47,698.6
473,2.89,1.27,680.7
475,2.79,1.08,666.7
477,2.68,0.89,655.8
479,2.57,0.73,647
481,2.43,0.56,640.2
483,2.36,0.4,634.3
485,2.25,0.29,631
487,2.12,0.22,628.2
489,2.04,0.18,623.6
491,1.9,0.15,622.4
493,1.75,0.14,621.5
495,1.69,0.13,620.4
497,1.55,0.12,619.6
499,1.44,0.12,619.4
501,1.34,0.12,617.9
503,1.22,0.11,618.3
505,1.1,0.1,617.2
507,0.99,0.1,615.7
509,0.89,0.09,615