File: Non-charring/PMMA/HKPolyU/HKPolyU_Cone_25kW_1.CSV
Time,Mass,Heat release,Back surface temperature
[s],[g],[kW],[K]
1,75.47,0.01,304.8
3,75.43,0.01,304.9
5,75.39,0.02,304.9
7,75.37,0.01,304.9
9,75.4,0.01,304.9
11,75.37,0.01,304.8
13,75.33,0.01,304.7
15,75.31,0.01,304.8
17,75.31,0.01,304.9
19,75.34,0.02,304.9
21,75.34,0.01,305.3
23,75.37,0.01,305.6
25,75.35,0.01,306
27,75.31,0.01,306.6
29,75.28,0.01,307.1
31,75.25,0.02,308
33,75.25,0.02,308.7
35,75.25,0.02,309.8
37,75.27,0.01,310.5
39,75.29,0.01,311.6
41,75.26,0.01,312.9
43,75.24,0.02,314.1
45,75.2,0.02,315.3
47,75.18,0.01,316.5
49,75.2,0.01,317.6
51,75.17,0.01,319.1
53,75.16,0.02,320.7
55,75.15,0.02,321.9
57,75.2,0.02,323.3
59,75.19,0.03,324.5
61,75.13,0.04,325.7
63,75.11,0.03,327.1
65,75.09,0.03,328.1
67,75.05,0.03,330.5
69,74.96,0.03,333.8
71,74.81,0.02,336.2
73,74.63,0.02,338.7
75,74.44,0.02,341.1
77,74.25,0.03,343.4
79,73.98,0.04,345.7
81,73.69,0.06,347.9
83,73.44,0.17,349.6
85,73.2,0.51,352
87,72.89,1.04,353.9
89,72.62,1.59,356.3
91,72.28,2.12,358
93,71.92,2.75,360.1
95,71.58,3.46,361.7
97,71.24,3.99,363.5
99,70.9,4.48,365.3
101,70.55,4.9,367.1
103,70.17,5.24,368.8
105,69.82,5.64,370.3
107,69.45,6.03,371.7
109,69.05,6.43,373.1
111,68.71,6.7,374.3
113,68.31,6.91,375.5
115,67.89,7.13,376.6
117,67.52,7.33,378
119,67.18,7.5,379.3
121,66.8,7.58,380.9
123,66.33,7.63,382.3
125,65.99,7.75,384.1
127,65.54,8.03,386.3
129,65.14,8.31,388.3
131,64.75,8.47,390.2
133,64.36,8.52,391.9
135,63.94,8.57,394
137,63.55,8.65,396.7
139,63.14,8.7,399.7
141,62.74,8.72,402.6
143,62.34,8.74,404.6
145,61.98,8.81,407.6
147,61.56,8.89,409.4
149,61.17,8.92,411.1
151,60.78,8.94,413.3
153,60.35,8.96,415.7
155,59.96,8.98,417.9
157,59.55,8.99,420.3
159,59.16,9.05,422.7
161,58.72,9.11,424.8
163,58.35,9.05,426.6
165,58.01,9.04,429.3
167,57.56,9.09,431.4
169,57.15,9.19,433.1
171,56.72,9.3,435.6
173,56.31,9.36,437.5
175,55.86,9.37,439.5
177,55.5,9.31,441.6
179,55.02,9.25,443.6
181,54.57,9.22,445.6
183,54.18,9.2,447.5
185,53.76,9.18,449.6
187,53.36,9.23,451.8
189,52.99,9.38,454.1
191,52.58,9.56,456.2
193,52.13,9.67,458
195,51.74,9.78,460
197,51.31,9.87,462
199,50.86,9.84,464
201,50.49,9.8,465.6
203,50.02,9.82,467.6
205,49.59,9.83,469.8
207,49.17,9.83,471.5
209,48.74,9.79,473.2
211,48.27,9.74,475.2
213,47.84,9.72,477.1
215,47.45,9.69,479.1
217,46.97,9.68,480.7
219,46.55,9.82,482.8
221,46.1,9.97,484.6
223,45.64,10.1,486.6
225,45.23,10.18,488
227,44.79,10.25,489.7
229,44.32,10.32,491.1
231,43.85,10.31,492.4
233,43.43,10.3,493.6
235,43,10.3,494.7
237,42.53,10.31,496.5
239,42.04,10.35,497.7
241,41.58,10.49,499.2
243,41.12,10.59,500.6
245,40.69,10.56,502.1
247,40.23,10.5,503.3
249,39.75,10.47,504.6
251,39.32,10.46,505.6
253,38.85,10.63,506.8
255,38.36,10.75,508
257,37.9,10.83,509.1
259,37.46,10.89,510
261,36.98,10.99,511.1
263,36.49,11.06,511.2
265,36.01,11.06,512.2
267,35.53,10.99,513.3
269,35.05,11,514.4
271,34.57,11.08,515.1
273,34.13,11.16,517.2
275,33.69,11.22,518.3
277,33.24,11.26,520.3
279,32.78,11.25,522.1
281,32.29,11.23,523.8
283,31.78,11.22,526.2
285,31.35,11.27,527.3
287,30.89,11.37,529.9
289,30.4,11.39,532.5
291,29.97,11.3,534.5
293,29.53,11.26,538.3
295,29.11,11.25,540.9
297,28.62,11.25,542.6
299,28.18,11.27,545
301,27.72,11.28,543.3
303,27.27,11.25,545.1
305,26.85,11.12,545.7
307,26.4,10.96,545.8
309,25.94,10.83,546.6
311,25.5,10.78,547.4
313,25.06,10.78,548.4
315,24.63,10.95,550.1
317,24.16,11.11,551
319,23.76,11.11,551.5
321,23.33,11.08,553
323,22.92,11.06,553.5
325,22.49,11.01,554.1
327,22.08,10.85,555
329,21.68,10.63,556.1
331,21.28,10.28,557.5
333,20.88,10.08,559
335,20.48,10.05,561.3
337,20.05,10.04,562.8
339,19.68,10.04,564.8
341,19.28,10.03,567
343,18.84,9.92,569.6
345,18.5,9.72,571.8
347,18.11,9.47,574.3
349,17.67,9.22,577.1
351,17.32,9.11,579.3
353,16.96,9.03,581.8
355,16.55,8.92,584.2
357,16.15,8.84,586.6
359,15.77,8.75,589.2
361,15.44,8.67,591.3
363,15.04,8.61,593.6
365,14.67,8.53,595.7
367,14.3,8.38,597.4
369,13.95,8.25,599.5
371,13.59,8.13,601.2
373,13.23,8.02,602.8
375,12.91,7.97,603.9
377,12.58,7.91,605
379,12.21,7.65,606.6
381,11.9,7.48,608.6
383,11.53,7.38,610.3
385,11.18,7.21,612.2
387,10.86,7.04,614.1
389,10.58,6.84,615.9
391,10.23,6.54,617.7
393,9.88,6.28,620.2
395,9.54,6.05,623
397,9.23,5.89,625.9
399,8.96,5.81,630.6
401,8.66,5.76,636.4
403,8.39,5.74,654.7
405,8.09,5.69,672.9
407,7.82,5.58,687.4
409,7.53,5.44,702.7
411,7.26,5.3,718.5
413,7,5.08,730.6
415,6.78,4.93,741.8
417,6.55,4.78,757.8
419,6.36,4.58,778.9
421,6.1,4.35,791.1
423,5.89,4.12,800.4
425,5.68,3.89,821.6
427,5.48,3.7,825.2
429,5.3,3.5,823.9
431,5.08,3.28,833.7
433,4.87,3.05,846.8
435,4.73,2.84,861.6
437,4.55,2.64,867.7
439,4.38,2.48,867.2
441,4.17,2.35,859.8
443,4.03,2.21,845.1
445,3.88,2.08,819.3
447,3.77,1.98,784
449,3.65,1.9,759.9
451,3.53,1.77,751.6
453,3.39,1.63,743.5
455,3.26,1.53,737.8
457,3.15,1.44,732.3
459,3.04,1.34,721.7
461,2.86,1.22,717.6
463,2.73,1.09,716.9
465,2.63,0.95,713.9
467,2.51,0.86,710.8
469,2.37,0.81,725.2
471,2.26,0.77,719.2
473,2.14,0.73,713.8
475,2,0.69,710.3
477,1.85,0.67,702.2
479,1.75,0.67,700.5
481,1.66,0.67,706.2
483,1.54,0.66,702.9
485,1.47,0.65,708.7
487,1.33,0.62,703.2
489,1.24,0.58,697.9
491,1.14,0.55,695.2
493,1.04,0.52,693.1
495,0.92,0.52,691.6
497,0.8,0.52,690.1
499,0.72,0.52,691
501,0.58,0.51,692.7
503,0.51,0.49,693
505,0.42,0.44,691.4
506,0.38,0.42,691.1