File: Non-charring/PMMA/HKPolyU/HKPolyU_TGA_N2_2.csv
Time,Temperature,Mass
[s],[k],[mg]
0.15,300.048,4.189604
10.26,302.387,4.188328
20.76,304.673,4.187013
31.26,306.8776,4.18617
41.76,308.987,4.185528
52.26,311.002,4.184952
62.76,312.929,4.18425
73.26,314.772,4.18404
83.76,316.546,4.183632
94.26,318.27,4.183013
104.76,319.951,4.182574
115.26,321.616,4.182403
125.76,323.272,4.1818
136.26,324.952,4.18143
146.76,326.632,4.181277
157.26,328.344,4.180717
167.76,330.08,4.180428
178.26,331.843,4.180119
188.76,333.6265,4.179918
199.26,335.4346,4.179627
209.76,337.265,4.179254
220.26,339.0954,4.17924
230.76,340.9394,4.178744
241.26,342.786,4.178906
251.76,344.618,4.178704
262.26,346.454,4.178445
272.76,348.283,4.17835
283.26,350.1086,4.178424
293.76,351.918,4.178087
304.26,353.724,4.178204
314.76,355.511,4.1782
325.26,357.287,4.177894
335.76,359.067,4.177918
346.26,360.844,4.178035
356.76,362.613,4.177765
367.26,364.379,4.177567
377.76,366.148,4.177605
388.26,367.918,4.177619
398.76,369.685,4.17739
409.26,371.469,4.177322
419.76,373.2419,4.17729
430.26,375.0263,4.177071
440.76,376.8034,4.177137
451.26,378.5948,4.177038
461.76,380.3809,4.176808
472.26,382.1685,4.17651
482.76,383.9473,4.176572
493.26,385.7388,4.176697
503.76,387.519,4.176306
514.26,389.2897,4.17608
524.76,391.0704,4.175985
535.26,392.8396,4.175594
545.76,394.6164,4.175217
556.26,396.392,4.175056
566.76,398.1717,4.17468
577.26,399.9391,4.173955
587.76,401.702,4.173547
598.26,403.4664,4.173104
608.76,405.2345,4.172387
619.26,406.9983,4.171686
629.76,408.768,4.17093
640.26,410.5402,4.1704
650.76,412.304,4.1696
661.26,414.0772,4.168808
671.76,415.837,4.16797
682.26,417.6036,4.167133
692.76,419.3748,4.166391
703.26,421.1343,4.165494
713.76,422.8988,4.16457
724.26,424.6706,4.16347
734.76,426.4331,4.162507
745.26,428.2035,4.161453
755.76,429.9579,4.160022
766.26,431.7229,4.158693
776.76,433.4886,4.157178
787.26,435.2527,4.155646
797.76,437.0016,4.153778
808.26,438.7618,4.15173
818.76,440.5215,4.149444
829.26,442.2762,4.147153
839.76,444.0322,4.144398
850.26,445.796,4.141544
860.76,447.5541,4.138223
871.26,449.3068,4.13473
881.76,451.0724,4.131183
892.26,452.8293,4.127359
902.76,454.5793,4.123476
913.26,456.3371,4.119422
923.76,458.0938,4.115395
934.26,459.8518,4.111278
944.76,461.6041,4.107459
955.26,463.3601,4.103601
965.76,465.1255,4.099774
976.26,466.8816,4.095996
986.76,468.634,4.092197
997.26,470.3808,4.08855
1007.76,472.1373,4.084659
1018.26,473.8842,4.080584
1028.76,475.6412,4.076468
1039.26,477.3898,4.0722
1049.76,479.1438,4.068146
1060.26,480.8992,4.064031
1070.76,482.6553,4.060074
1081.26,484.4117,4.05642
1091.76,486.1703,4.053159
1102.26,487.9272,4.050278
1112.76,489.6776,4.047633
1123.26,491.4278,4.045435
1133.76,493.1783,4.043801
1144.26,494.9366,4.04222
1154.76,496.6822,4.040938
1165.26,498.436,4.039906
1175.76,500.1898,4.038742
1186.26,501.9455,4.03794
1196.76,503.7008,4.036958
1207.26,505.4497,4.036325
1217.76,507.1912,4.035414
1228.26,508.944,4.034534
1238.76,510.6868,4.033468
1249.26,512.4296,4.032638
1259.76,514.171,4.03154
1270.26,515.9207,4.03036
1280.76,517.6664,4.029122
1291.26,519.4083,4.027643
1301.76,521.1491,4.026252
1312.26,522.902,4.024594
1322.76,524.6419,4.022768
1333.26,526.387,4.0207
1343.76,528.133,4.0187
1354.26,529.8737,4.016445
1364.76,531.6174,4.013855
1375.26,533.3698,4.011157
1385.76,535.11,4.008271
1396.26,536.8525,4.005164
1406.76,538.5924,4.001868
1417.26,540.335,3.998106
1427.76,542.0763,3.994184
1438.26,543.8164,3.989728
1448.76,545.5582,3.985122
1459.26,547.3004,3.979956
1469.76,549.0379,3.97448
1480.26,550.779,3.968425
1490.76,552.5133,3.961907
1501.26,554.2622,3.954798
1511.76,555.996,3.947416
1522.26,557.7344,3.939485
1532.76,559.4694,3.93123
1543.26,561.2062,3.922405
1553.76,562.9448,3.913419
1564.26,564.679,3.903847
1574.76,566.4175,3.893828
1585.26,568.1564,3.883637
1595.76,569.8972,3.873015
1606.26,571.6292,3.861881
1616.76,573.3676,3.850514
1627.26,575.1104,3.838648
1637.76,576.8459,3.82616
1648.26,578.5775,3.813045
1658.76,580.318,3.79904
1669.26,582.0515,3.784006
1679.76,583.785,3.767748
1690.26,585.5236,3.750177
1700.76,587.2529,3.730934
1711.26,588.9935,3.710122
1721.76,590.7224,3.687274
1732.26,592.4555,3.662208
1742.76,594.1794,3.634766
1753.26,595.9144,3.604613
1763.76,597.6365,3.571488
1774.26,599.3609,3.535092
1784.76,601.0856,3.495056
1795.26,602.8014,3.45111
1805.76,604.52,3.402664
1816.26,606.2375,3.349475
1826.76,607.952,3.291449
1837.26,609.6806,3.227728
1847.76,611.3938,3.158205
1858.26,613.1081,3.082742
1868.76,614.8202,3.001044
1879.26,616.5332,2.913094
1889.76,618.2428,2.818735
1900.26,619.9483,2.718388
1910.76,621.6598,2.61205
1921.26,623.365,2.499867
1931.76,625.0706,2.382402
1942.26,626.7867,2.259944
1952.76,628.5023,2.133717
1963.26,630.2226,2.004796
1973.76,631.9502,1.87353
1984.26,633.6778,1.741304
1994.76,635.416,1.609592
2005.26,637.1556,1.480388
2015.76,638.886,1.345704
2026.26,640.6306,1.217924
2036.76,642.364,1.090606
2047.26,644.1097,0.9647501
2057.76,645.8536,0.8410132
2068.26,647.6033,0.7240485
2078.76,649.356,0.60851
2089.26,651.1097,0.4997082
2099.76,652.87,0.3969956
2110.26,654.6306,0.2998692
2120.76,656.3921,0.210312
2131.26,658.1508,0.1290463
2141.76,659.9152,0.0558987
2152.26,661.6859,-0.01002835
2162.76,663.4552,-0.06869929
2173.26,665.22,-0.1207391
2183.76,666.9843,-0.1663293
2194.26,668.7489,-0.2058274
2204.76,670.512,-0.2400786
2215.26,672.2668,-0.269477
2225.76,674.021,-0.2946666
2236.26,675.7798,-0.3159917
2246.76,677.5317,-3.34E-01
2257.26,679.2863,-3.50E-01
2267.76,681.0402,-3.63E-01
2278.26,682.7882,-0.3732795
2288.76,684.5313,-0.3822994
2299.26,686.273,-0.3896316
2309.76,688.0206,-0.3958725
2320.26,689.7649,-0.400897
2330.76,691.5083,-0.4050969
2341.26,693.2504,-0.408407
2351.76,694.9894,-0.4111564
2362.26,696.7219,-0.4134358
2372.76,698.4596,-0.4151735
2383.26,700.1974,-0.416676
2393.76,701.9329,-0.4177021
2404.26,703.6712,-0.4183113
2414.76,705.4096,-0.4187559
2425.26,707.147,-0.4189654
2435.76,708.885,-0.419084
2446.26,710.6218,-0.4189595
2456.76,712.3586,-0.419032
2467.26,714.0876,-0.4189772
2477.76,715.8283,-0.4189462
2488.26,717.5549,-0.4188813
2498.76,719.2946,-0.4188378
2509.26,721.0262,-0.4188008
2519.76,722.76,-0.4186731
2530.26,724.4914,-0.418712
2540.76,726.2301,-0.418582
2551.26,727.9604,-0.41856
2561.76,729.689,-0.4185541
2572.26,731.4294,-0.4184086
2582.76,733.161,-0.4184006
2593.26,734.8924,-0.4183614
2603.76,736.6216,-0.4182826
2614.26,738.3596,-0.4182086
2624.76,740.0881,-0.4181362
2635.26,741.8224,-0.4179346
2645.76,743.5556,-0.4179322
2656.26,745.292,-0.4178027
2666.76,747.026,-0.4177353
2677.26,748.7538,-0.4176848
2687.76,750.4881,-0.4176444
2698.26,752.2244,-0.4175574
2708.76,753.9559,-0.4175362
2719.26,755.6913,-0.4174296
2729.76,757.4219,-0.4172549
2740.26,759.1516,-0.41725
2750.76,760.8861,-0.4172441
2761.26,762.6153,-0.4171817
2771.76,764.3521,-0.4170394
2782.26,766.087,-0.4168537
2792.76,767.8253,-0.416875
2803.26,769.5586,-0.4167586
2813.76,771.287,-0.4166226
2824.26,773.0185,-0.4166212
2834.76,774.7516,-0.4164653
2845.26,776.4864,-0.4164461
2855.76,778.216,-0.4164588
2866.26,779.9474,-0.416408
2876.76,781.6809,-0.416448
2887.26,783.4148,-0.4163164
2897.76,785.1509,-0.4162594
2908.26,786.886,-0.4162992
2918.76,788.6217,-0.4162744
2929.26,790.358,-0.4161654
2939.76,792.0899,-0.4161037
2950.26,793.8232,-0.4160758
2960.76,795.5586,-0.4160438
2971.26,797.292,-0.4160274
2981.76,799.023,-0.415676
2992.26,800.7545,-0.4155873
3002.76,802.4899,-0.4156787
3013.26,804.2186,-0.4155359
3013.76,804.3014,-0.415531