File: Non-charring/PMMA/HKPolyU/HKPolyU_Cone_65kW_1.CSV
Time,Mass,Heat release,Back surface temperature
[s],[g],[kW],[K]
1,81.94,0,297.2
2,81.93,0.01,297.2
3,81.92,0.01,297.2
4,81.9,0.01,297.2
5,81.91,0,297.3
6,81.9,0,297.3
7,81.91,0,297.3
8,81.9,0.01,297.3
9,81.88,0.01,297.3
10,81.86,0.01,297.3
11,81.86,0,297.3
12,81.87,0,297.3
13,81.89,0,297.3
14,81.88,0.01,297.3
15,81.82,0.01,297.4
16,81.74,0.01,297.4
17,81.6,0,297.5
18,81.42,0,297.6
19,81.22,0.01,297.6
20,80.99,0,297.7
21,80.72,0,297.9
22,80.47,0,298
23,80.18,0,298.3
24,79.89,0.01,298.4
25,79.56,0.02,298.7
26,79.21,0.03,299.1
27,78.91,0.04,299.4
28,78.58,0.09,299.8
29,78.23,0.21,300.2
30,77.88,0.5,300.7
31,77.55,0.97,301.2
32,77.2,1.69,301.7
33,76.81,2.7,302.3
34,76.47,4.12,303
35,76.1,5.35,303.7
36,75.72,6.65,304.5
37,75.32,7.87,305.3
38,74.95,9.05,306.2
39,74.6,10.22,307.2
40,74.21,11.32,308
41,73.86,12.41,309
42,73.55,13.08,310
43,72.98,13.61,311.1
44,72.63,15.11,312.2
45,72.24,15.84,313.3
46,71.85,16.44,314.3
47,71.5,17.04,315.6
48,71.13,17.67,316.8
49,70.73,18.21,317.9
50,70.35,18.61,319.1
51,69.96,18.92,320.4
52,69.57,19.22,321.6
53,69.17,19.55,322.9
54,68.79,19.94,324.1
55,68.42,20.29,325.5
56,67.99,20.55,326.8
57,67.6,20.71,328.1
58,67.23,20.84,329.5
59,66.85,20.99,330.8
60,66.46,21.17,332.2
61,66.03,21.33,333.6
62,65.66,21.44,334.9
63,65.28,21.5,336.4
64,64.91,21.47,337.7
65,64.51,21.43,339.1
66,64.12,21.4,340.6
67,63.72,21.38,342
68,63.35,21.42,343.4
69,63,21.57,344.8
70,62.62,21.74,346.4
71,62.22,21.88,347.9
72,61.81,21.98,349.5
73,61.4,22.08,351.1
74,60.99,22.17,352.7
75,60.62,22.22,354
76,60.22,22.29,355.6
77,59.81,22.4,357
78,59.43,22.5,358.5
79,59.06,22.57,359.7
80,58.68,22.61,361.1
81,58.3,22.62,362.4
82,57.88,22.6,363.6
83,57.48,22.54,364.9
84,57.08,22.5,365.9
85,56.7,22.46,366.8
86,56.31,22.42,367.8
87,55.9,22.4,368.3
88,55.52,22.44,368.8
89,55.15,22.55,369.3
90,54.77,22.71,369.6
91,54.38,22.87,370
92,53.97,23,370.5
93,53.57,23.09,371
94,53.19,23.19,371.6
95,52.78,23.28,372.3
96,52.41,23.35,373.3
97,52.02,23.36,374.2
98,51.62,23.35,375.3
99,51.21,23.33,376.6
100,50.82,23.26,378
101,50.46,23.19,379.9
102,50.06,23.14,381.9
103,49.67,23.1,383.9
104,49.28,23.07,386
105,48.9,23.06,388.2
106,48.51,23.09,390.3
107,48.12,23.13,392.5
108,47.77,23.16,394.6
109,47.37,23.13,396.7
110,46.98,23.05,398.8
111,46.57,23,400.9
112,46.2,22.97,402.9
113,45.82,22.96,404.9
114,45.43,23,406.9
115,45.02,23.03,408.9
116,44.64,23.06,410.8
117,44.27,23.13,412.8
118,43.86,23.19,414.8
119,43.44,23.24,416.7
120,43.04,23.27,418.6
121,42.72,23.13,420.6
122,42.35,22.91,422.5
123,41.99,22.74,424.4
124,41.63,22.63,426.6
125,41.23,22.57,428.6
126,40.83,22.56,430.8
127,40.42,22.67,432.8
128,40.01,22.82,435
129,39.57,22.96,437.3
130,39.17,23.08,439.6
131,38.78,23.18,441.8
132,38.39,23.31,444
133,37.98,23.47,446.2
134,37.54,23.65,448.5
135,37.13,23.83,450.7
136,36.71,23.97,453
137,36.3,24.06,455.3
138,35.89,24.06,457.6
139,35.47,23.95,460
140,35.09,23.82,462.1
141,34.66,23.73,464.4
142,34.24,23.86,466.7
143,33.83,24.15,469
144,33.4,24.43,471.2
145,32.97,24.64,473.2
146,32.56,24.78,475
147,32.16,24.87,476.4
148,31.73,24.82,477.6
149,31.32,24.7,478.6
150,30.87,24.61,479.7
151,30.4,24.64,480.8
152,29.95,24.84,482
153,29.5,25.1,483.3
154,29.06,25.31,484.8
155,28.6,25.46,486.6
156,28.15,25.63,488.3
157,27.69,25.79,490.3
158,27.23,26.02,492.4
159,26.79,26.3,494.9
160,26.35,26.56,496.9
161,25.91,26.75,499.1
162,25.46,26.9,501.2
163,24.99,27.06,503.2
164,24.52,27.2,506.1
165,24.07,27.32,509.3
166,23.62,27.44,511.9
167,23.19,27.53,514.2
168,22.73,27.59,516
169,22.28,27.68,517.9
170,21.84,27.84,520.2
171,21.42,28.04,523
172,21.02,28.26,526.4
173,20.63,28.41,529.4
174,20.22,28.53,533
175,19.8,28.61,536.4
176,19.41,28.69,539.8
177,19.01,28.77,543.2
178,18.6,28.89,546.9
179,18.21,28.99,550.3
180,17.82,29.05,553.5
181,17.45,29.09,556.5
182,17.08,29.06,558.9
183,16.7,28.92,560.8
184,16.3,28.71,562.6
185,15.87,28.41,564.7
186,15.48,28.06,565.4
187,15.08,27.6,563.4
188,14.71,27.06,556.3
189,14.35,26.48,542.6
190,13.96,25.96,541.8
191,13.6,25.49,548.6
192,13.26,25.09,563.3
193,12.91,24.77,594.5
194,12.58,24.55,615.5
195,12.28,24.32,644.5
196,11.98,24.08,679.9
197,11.68,23.82,656.8
198,11.37,23.57,680.7
199,11.06,23.36,706.7
200,10.78,23.18,730.1
201,10.48,22.94,752.6
202,10.18,22.58,774.3
203,9.89,22.08,792.7
204,9.58,21.58,809.2
205,9.26,21.03,827.7
206,8.99,20.41,842.6
207,8.74,19.59,851.9
208,8.49,18.7,910.8
209,8.26,17.69,954.6
210,8.04,16.85,942.1
211,7.79,15.99,949.5
212,7.54,15.13,954.5
213,7.32,14.34,965.3
214,7.11,13.6,979.2
215,6.91,12.71,987
216,6.73,11.85,990.9
217,6.55,11.09,1003.9
218,6.35,10.33,1006.8
219,6.16,9.66,1002.5
220,5.95,9.02,1000
221,5.8,8.36,998.7
222,5.62,7.68,986.5
223,5.42,7.01,989.1
224,5.24,6.41,982.3
225,5.06,5.82,966.8
226,4.89,5.29,945.4
227,4.69,4.77,937.5
228,4.53,4.32,929.2
229,4.39,3.89,924.9
230,4.2,3.54,919.2
231,4.05,3.19,911.6
232,3.9,2.87,905.7
233,3.75,2.54,901.7
234,3.61,2.21,900
235,3.43,1.93,897.8
236,3.25,1.68,896.5
237,3.12,1.49,895.5
238,2.98,1.32,893.7
239,2.82,1.18,892.5
240,2.66,1.03,892.6
241,2.49,0.88,891.5
242,2.34,0.74,892.2
243,2.18,0.61,891
244,2.03,0.51,891.1
245,1.87,0.43,888.9
246,1.72,0.36,889.7
247,1.58,0.31,887.9
248,1.41,0.26,887.7
249,1.26,0.21,887.6
250,1.11,0.18,887.1
251,0.92,0.15,888
252,0.75,0.13,885.8
253,0.6,0.12,886.5
254,0.47,0.1,886.1
255,0.33,0.1,885.6