File: Non-charring/PMMA/HKPoly/HKPolyU_TGA_O2-21_10K_1.csv
Time,Temperature,Mass
[s],[K],[mg]
0.19,302.027,3.9309
11.76,302.052,3.9304
23.76,302.215,3.9293
35.76,302.73,3.9277
47.76,303.701,3.9259
59.76,305.136,3.9243
71.76,307.005,3.9229
83.76,309.213,3.9219
95.76,311.66,3.9213
107.76,314.227,3.9209
119.76,316.83,3.9205
131.76,319.401,3.9206
143.76,321.884,3.9206
155.76,324.254,3.9207
167.76,326.5,3.921
179.76,328.635,3.9213
191.76,330.685,3.9215
203.76,332.643,3.9217
215.76,334.551,3.9217
227.76,336.441,3.9218
239.76,338.317,3.9219
251.76,340.219,3.9218
263.76,342.152,3.9218
275.76,344.107,3.9218
287.76,346.105,3.9218
299.76,348.133,3.9218
311.76,350.195,3.9217
323.76,352.263,3.9219
335.76,354.354,3.9219
347.76,356.451,3.922
359.76,358.546,3.9221
371.76,360.638,3.9222
383.76,362.721,3.9223
395.76,364.783,3.9228
407.76,366.845,3.923
419.76,368.895,3.9231
431.76,370.926,3.923
443.76,372.944,3.9231
455.76,374.964,3.923
467.76,376.973,3.9218
479.76,378.987,3.9218
491.76,380.998,3.9216
503.76,383.011,3.9215
515.76,385.033,3.9214
527.76,387.061,3.9213
539.76,389.084,3.921
551.76,391.108,3.921
563.76,393.144,3.9208
575.76,395.176,3.9208
587.76,397.209,3.9206
599.76,399.237,3.9204
611.76,401.269,3.9202
623.76,403.301,3.9197
635.76,405.331,3.9195
647.76,407.349,3.9191
659.76,409.363,3.9186
671.76,411.384,3.9181
683.76,413.399,3.9176
695.76,415.415,3.9171
707.76,417.426,3.9166
719.76,419.442,3.916
731.76,421.459,3.9156
743.76,423.469,3.915
755.76,425.484,3.9144
767.76,427.504,3.9139
779.76,429.513,3.9135
791.76,431.532,3.9131
803.76,433.545,3.9125
815.76,435.558,3.912
827.76,437.572,3.9115
839.76,439.585,3.9112
851.76,441.6,3.9107
863.76,443.609,3.9103
875.76,445.613,3.9098
887.76,447.628,3.9094
899.76,449.641,3.909
911.76,451.653,3.9085
923.76,453.658,3.9081
935.76,455.659,3.9078
947.76,457.665,3.9075
959.76,459.677,3.9071
971.76,461.679,3.9067
983.76,463.685,3.9065
995.76,465.686,3.9062
1007.76,467.692,3.9058
1019.76,469.694,3.9057
1031.76,471.698,3.9055
1043.76,473.706,3.9054
1055.76,475.709,3.9051
1067.76,477.714,3.9049
1079.76,479.717,3.9048
1091.76,481.727,3.9046
1103.76,483.726,3.9045
1115.76,485.729,3.9044
1127.76,487.731,3.9044
1139.76,489.736,3.9043
1151.76,491.741,3.9042
1163.76,493.744,3.904
1175.76,495.746,3.9038
1187.76,497.747,3.9038
1199.76,499.74,3.9038
1211.76,501.733,3.9037
1223.76,503.735,3.9037
1235.76,505.732,3.9035
1247.76,507.724,3.9035
1259.76,509.72,3.9034
1271.76,511.723,3.9033
1283.76,513.72,3.9032
1295.76,515.719,3.9031
1307.76,517.708,3.9029
1319.76,519.696,3.9025
1331.76,521.694,3.9022
1343.76,523.68,3.9018
1355.76,525.673,3.9011
1367.76,527.675,3.9002
1379.76,529.669,3.8988
1391.76,531.67,3.8968
1403.76,533.655,3.894
1415.76,535.642,3.8904
1427.76,537.633,3.8857
1439.76,539.635,3.8798
1451.76,541.626,3.8727
1463.76,543.621,3.8644
1475.76,545.606,3.8547
1487.76,547.604,3.8436
1499.76,549.593,3.8314
1511.76,551.576,3.8188
1523.76,553.561,3.8061
1535.76,555.55,3.7935
1547.76,557.536,3.7806
1559.76,559.521,3.7668
1571.76,561.508,3.7515
1583.76,563.496,3.7337
1595.76,565.49,3.7126
1607.76,567.476,3.6873
1619.76,569.465,3.6562
1631.76,571.446,3.6172
1643.76,573.43,3.5667
1655.76,575.412,3.4964
1667.76,577.391,3.3934
1679.76,579.335,3.2657
1691.76,581.269,3.1421
1703.76,583.216,3.0292
1715.76,585.198,2.9193
1727.76,587.135,2.8171
1739.76,589.112,2.7186
1751.76,591.134,2.6237
1763.76,593.064,2.5149
1775.76,595.046,2.4141
1787.76,597.025,2.3022
1799.76,598.993,2.1698
1811.76,600.933,2.0271
1823.76,602.89,1.8812
1835.76,604.874,1.7319
1847.76,606.836,1.5858
1859.76,608.822,1.4616
1871.76,610.8,1.3365
1883.76,612.79,1.222
1895.76,614.801,1.1117
1907.76,616.843,1.018
1919.76,618.881,0.9343
1931.76,620.905,0.8589
1943.76,622.922,0.7924
1955.76,624.934,0.7339
1967.76,626.94,0.6829
1979.76,628.95,0.638
1991.76,630.954,0.5987
2003.76,632.959,0.5642
2015.76,634.954,0.5337
2027.76,636.948,0.5066
2039.76,638.942,0.4825
2051.76,640.934,0.4609
2063.76,642.925,0.4414
2075.76,644.915,0.4239
2087.76,646.901,0.4081
2099.76,648.891,0.3938
2111.76,650.875,0.3808
2123.76,652.857,0.3692
2135.76,654.845,0.3583
2147.76,656.829,0.3486
2159.76,658.812,0.3398
2171.76,660.796,0.3318
2183.76,662.785,0.3243
2195.76,664.77,0.3176
2207.76,666.756,0.3113
2219.76,668.738,0.3056
2231.76,670.725,0.3005
2243.76,672.709,0.2959
2255.76,674.693,0.2917
2267.76,676.676,0.2881
2279.76,678.662,0.2851
2291.76,680.651,0.2825
2303.76,682.644,0.2811
2315.76,684.63,0.2809
2327.76,686.607,0.2809
2339.76,688.599,0.2807
2351.76,690.577,0.2808
2363.76,692.561,0.2808
2375.76,694.545,0.2807
2387.76,696.525,0.2807
2399.76,698.514,0.2807
2411.76,700.491,0.2806
2423.76,702.474,0.2805
2435.76,704.456,0.2807
2447.76,706.439,0.2806
2459.76,708.425,0.2807
2471.76,710.405,0.2807
2483.76,712.393,0.2809
2495.76,714.38,0.2809
2507.76,716.364,0.2811
2519.76,718.345,0.2813
2531.76,720.326,0.2813
2543.76,722.308,0.2815
2555.76,724.294,0.2816
2567.76,726.27,0.2818
2579.76,728.249,0.2821
2591.76,730.239,0.2822
2603.76,732.226,0.2824
2615.76,734.205,0.2825
2627.76,736.193,0.2827
2639.76,738.178,0.2829
2651.76,740.159,0.2831
2663.76,742.143,0.2833
2675.76,744.123,0.2834
2687.76,746.113,0.2837
2699.76,748.097,0.2839
2711.76,750.08,0.284
2723.76,752.068,0.2842
2735.76,754.05,0.2843
2747.76,756.026,0.2844
2759.76,758.012,0.2847
2771.76,759.993,0.285
2783.76,761.981,0.285
2795.76,763.966,0.2851
2807.76,765.955,0.2853
2819.76,767.937,0.2855
2831.76,769.92,0.2856
2843.76,771.902,0.2857
2855.76,773.889,0.2859
2867.76,775.869,0.2861
2879.76,777.853,0.2863
2891.76,779.846,0.2864
2903.76,781.83,0.2865
2915.76,783.817,0.2867
2927.76,785.802,0.2869
2939.76,787.782,0.287
2951.76,789.766,0.2872
2963.76,791.754,0.2873
2975.76,793.74,0.2874
2987.76,795.727,0.2875
2999.76,797.714,0.2877
3011.76,799.703,0.2878