File: Non-charring/PMMA/HKPoly/HKPoly_DSC_N2_10K_2.csv
Time,Temperature,Heat Flow
[s],[k],[W/g]
0.15,300.048,2.91094
11.76,302.715,3.7253
23.76,305.319,3.67382
35.76,307.793,3.55594
47.76,310.154,3.35934
59.76,312.392,3.10417
71.76,314.5129,2.79524
83.76,316.546,2.45367
95.76,318.508,2.09013
107.76,320.425,1.72508
119.76,322.325,1.37268
131.76,324.23,1.03692
143.76,326.147,0.729136
155.76,328.1031,0.452277
167.76,330.08,0.209743
179.76,332.087,-0.002809547
191.76,334.137,-0.186145
203.76,336.217,-0.344046
215.76,338.311,-0.482521
227.76,340.41,-0.603501
239.76,342.517,-0.711924
251.76,344.618,-0.811588
263.76,346.715,-0.900668
275.76,348.806,-0.984707
287.76,350.887,-1.06311
299.76,352.95,-1.13389
311.76,355.0005,-1.19926
323.76,357.034,-1.25881
335.76,359.067,-1.31206
347.76,361.1032,-1.35974
359.76,363.114,-1.40079
371.76,365.135,-1.43514
383.76,367.161,-1.46319
395.76,369.187,-1.48462
407.76,371.212,-1.50052
419.76,373.2419,-1.51042
431.76,375.2787,-1.51579
443.76,377.3172,-1.51681
455.76,379.36,-1.51441
467.76,381.3964,-1.51125
479.76,383.4395,-1.50544
491.76,385.4815,-1.49851
503.76,387.519,-1.49156
515.76,389.5415,-1.48559
527.76,391.5727,-1.47805
539.76,393.6015,-1.47133
551.76,395.628,-1.46423
563.76,397.6613,-1.45715
575.76,399.685,-1.44824
587.76,401.702,-1.43664
599.76,403.7146,-1.42527
611.76,405.7418,-1.41288
623.76,407.7503,-1.39927
635.76,409.7791,-1.38482
647.76,411.7978,-1.37058
659.76,413.8241,-1.35611
671.76,415.837,-1.3418
683.76,417.8552,-1.32684
695.76,419.8726,-1.31242
707.76,421.8894,-1.29786
719.76,423.908,-1.28388
731.76,425.9244,-1.26872
743.76,427.9482,-1.25571
755.76,429.9579,-1.24368
767.76,431.9728,-1.23137
779.76,433.9863,-1.22004
791.76,436.0006,-1.20891
803.76,438.0063,-1.19808
815.76,440.0234,-1.18758
827.76,442.0264,-1.1787
839.76,444.0322,-1.16968
851.76,446.0492,-1.16102
863.76,448.0506,-1.15175
875.76,450.061,-1.14205
887.76,452.0749,-1.12948
899.76,454.0808,-1.11924
911.76,456.0829,-1.103
923.76,458.0938,-1.08449
935.76,460.0955,-1.06802
947.76,462.1064,-1.05121
959.76,464.1198,-1.03276
971.76,466.1262,-1.01346
983.76,468.1285,-0.994044
995.76,470.1343,-0.974919
1007.76,472.1373,-0.954311
1019.76,474.1336,-0.9351
1031.76,476.141,-0.913997
1043.76,478.1408,-0.893803
1055.76,480.1446,-0.872404
1067.76,482.1544,-0.84932
1079.76,484.1592,-0.827087
1091.76,486.1703,-0.800836
1103.76,488.1778,-0.774499
1115.76,490.1831,-0.746091
1127.76,492.1762,-0.716576
1139.76,494.1814,-0.68438
1151.76,496.1849,-0.652553
1163.76,498.1889,-0.6184
1175.76,500.1898,-0.588012
1187.76,502.1961,-0.557654
1199.76,504.1938,-0.524906
1211.76,506.1943,-0.495431
1223.76,508.187,-0.466988
1235.76,510.1879,-0.436086
1247.76,512.1803,-0.406316
1259.76,514.171,-0.378247
1271.76,516.1698,-0.350543
1283.76,518.1619,-0.322681
1295.76,520.1523,-0.293778
1307.76,522.1462,-0.26659
1319.76,524.1455,-0.236802
1331.76,526.138,-0.21057
1343.76,528.133,-0.184472
1355.76,530.1255,-0.158899
1367.76,532.1183,-0.131027
1379.76,534.111,-0.107733
1391.76,536.1015,-0.0828801
1403.76,538.097,-0.05636636
1415.76,540.0849,-0.0322756
1427.76,542.0763,-0.009738281
1439.76,544.0646,0.0162657
1451.76,546.0513,0.0390537
1463.76,548.0402,0.0629561
1475.76,550.0336,0.0835337
1487.76,552.018,0.102091
1499.76,554.0078,0.123532
1511.76,555.996,0.143475
1523.76,557.9832,0.159457
1535.76,559.9712,0.18372
1547.76,561.953,0.20024
1559.76,563.9389,0.214783
1571.76,565.9256,0.234607
1583.76,567.9117,0.253042
1595.76,569.8972,0.270681
1607.76,571.8826,0.290034
1619.76,573.8688,0.311486
1631.76,575.8516,0.330596
1643.76,577.837,0.349464
1655.76,579.819,0.360969
1667.76,581.8024,0.371988
1679.76,583.785,0.382071
1691.76,585.7648,0.389082
1703.76,587.749,0.390478
1715.76,589.7334,0.391159
1727.76,591.7127,0.384981
1739.76,593.6914,0.371745
1751.76,595.6661,0.355525
1763.76,597.6365,0.335545
1775.76,599.606,0.307814
1787.76,601.5758,0.273316
1799.76,603.5358,0.234174
1811.76,605.5035,0.186938
1823.76,607.4665,0.133446
1835.76,609.4334,0.0731939
1847.76,611.3938,0.003437531
1859.76,613.3512,-0.078127
1871.76,615.3103,-0.164118
1883.76,617.2656,-0.25772
1895.76,619.219,-0.358808
1907.76,621.1681,-0.460777
1919.76,623.1232,-0.561538
1931.76,625.0706,-0.659659
1943.76,627.03,-0.751593
1955.76,628.994,-0.82574
1967.76,630.9652,-0.876346
1979.76,632.9396,-0.908016
1991.76,634.9176,-0.906336
2003.76,636.9029,-0.883776
2015.76,638.886,-0.883724
2027.76,640.8816,-0.825746
2039.76,642.8605,-0.793195
2051.76,644.8574,-0.730401
2063.76,646.8581,-0.643913
2075.76,648.852,-0.552161
2087.76,650.8631,-0.438693
2099.76,652.87,-0.308413
2111.76,654.8818,-0.161374
2123.76,656.8942,0.002271123
2135.76,658.9054,0.182887
2147.76,660.9296,0.372536
2159.76,662.9536,0.565434
2171.76,664.9668,0.755294
2183.76,666.9843,0.940106
2195.76,668.9985,1.1188
2207.76,671.0128,1.29366
2219.76,673.0195,1.45699
2231.76,675.0274,1.60752
2243.76,677.0303,1.74847
2255.76,679.0314,1.87525
2267.76,681.0402,1.99122
2279.76,683.036,2.09752
2291.76,685.0272,2.18904
2303.76,687.0256,2.27822
2315.76,689.0172,2.36092
2327.76,691.0107,2.43262
2339.76,692.996,2.49983
2351.76,694.9894,2.56106
2363.76,696.9748,2.61882
2375.76,698.9574,2.67354
2387.76,700.9394,2.72679
2399.76,702.928,2.77412
2411.76,704.9114,2.81786
2423.76,706.9015,2.8617
2435.76,708.885,2.90289
2447.76,710.8656,2.94927
2459.76,712.8517,2.98707
2471.76,714.8344,3.02164
2483.76,716.8135,3.05185
2495.76,718.7946,3.08017
2507.76,720.7761,3.1073
2519.76,722.76,3.13571
2531.76,724.7398,3.16391
2543.76,726.7184,3.18896
2555.76,728.6988,3.22003
2567.76,730.6835,3.24465
2579.76,732.6656,3.2663
2591.76,734.643,3.28647
2603.76,736.6216,3.31372
2615.76,738.6054,3.33925
2627.76,740.5872,3.36054
2639.76,742.5633,3.38523
2651.76,744.5454,3.41028
2663.76,746.5308,3.43513
2675.76,748.5072,3.45692
2687.76,750.4881,3.47777
2699.76,752.4728,3.49961
2711.76,754.4489,3.52154
2723.76,756.4299,3.54653
2735.76,758.4088,3.5637
2747.76,760.3918,3.58724
2759.76,762.368,3.60694
2771.76,764.3521,3.62481
2783.76,766.3383,3.6465
2795.76,768.3194,3.66314
2807.76,770.303,3.6817
2819.76,772.281,3.69501
2831.76,774.2594,3.71305
2843.76,776.2424,3.73348
2855.76,778.216,3.75355
2867.76,780.1965,3.7724
2879.76,782.1744,3.78403
2891.76,784.1602,3.79964
2903.76,786.1382,3.81436
2915.76,788.125,3.82652
2927.76,790.111,3.83989
2939.76,792.0899,3.84759
2951.76,794.0712,3.86356
2963.76,796.0508,3.8802
2975.76,798.034,3.89784
2987.76,800.0118,3.91101
2999.76,801.9956,3.92187
3011.76,803.9716,3.93794