File: Non-charring/PMMA/HKPoly/HKPolyU_DSC_O2-21_10K_1.csv
Time,Temperature,Heat Flow
[s],[K],[W/g]
0.19,302.027,4.02801
11.76,302.052,4.03559
23.76,302.215,4.04161
35.76,302.73,4.07278
47.76,303.701,4.14448
59.76,305.136,4.25531
71.76,307.005,4.36769
83.76,309.213,4.47566
95.76,311.66,4.56464
107.76,314.227,4.61582
119.76,316.83,4.62991
131.76,319.401,4.58912
143.76,321.884,4.4935
155.76,324.254,4.33482
167.76,326.5,4.12712
179.76,328.635,3.87503
191.76,330.685,3.591
203.76,332.643,3.29017
215.76,334.551,2.98314
227.76,336.441,2.68019
239.76,338.317,2.39146
251.76,340.219,2.12116
263.76,342.152,1.8739
275.76,344.107,1.65241
287.76,346.105,1.45648
299.76,348.133,1.28604
311.76,350.195,1.1339
323.76,352.263,1.00242
335.76,354.354,0.88446
347.76,356.451,0.779249
359.76,358.546,0.681966
371.76,360.638,0.591674
383.76,362.721,0.507193
395.76,364.783,0.425103
407.76,366.845,0.348695
419.76,368.895,0.275195
431.76,370.926,0.205858
443.76,372.944,0.142578
455.76,374.964,0.0832577
467.76,376.973,0.0276815
479.76,378.987,-0.0191263
491.76,380.998,-0.0612044
503.76,383.011,-0.09732939
515.76,385.033,-0.129032
527.76,387.061,-0.155702
539.76,389.084,-0.179597
551.76,391.108,-0.198762
563.76,393.144,-0.216491
575.76,395.176,-0.232338
587.76,397.209,-0.246208
599.76,399.237,-0.25689
611.76,401.269,-0.264949
623.76,403.301,-0.2707
635.76,405.331,-0.273902
647.76,407.349,-0.275642
659.76,409.363,-0.276473
671.76,411.384,-0.27407
683.76,413.399,-0.271512
695.76,415.415,-0.267161
707.76,417.426,-0.261759
719.76,419.442,-0.254188
731.76,421.459,-0.245527
743.76,423.469,-0.235947
755.76,425.484,-0.225376
767.76,427.504,-0.213299
779.76,429.513,-0.200252
791.76,431.532,-0.186552
803.76,433.545,-0.170964
815.76,435.558,-0.155112
827.76,437.572,-0.138562
839.76,439.585,-0.121411
851.76,441.6,-0.103117
863.76,443.609,-0.083992
875.76,445.613,-0.0637804
887.76,447.628,-0.0422872
899.76,449.641,-0.0194491
911.76,451.653,0.003824244
923.76,453.658,0.0274911
935.76,455.659,0.052429
947.76,457.665,0.07763965
959.76,459.677,0.105267
971.76,461.679,0.132985
983.76,463.685,0.161525
995.76,465.686,0.191754
1007.76,467.692,0.221994
1019.76,469.694,0.253322
1031.76,471.698,0.286003
1043.76,473.706,0.319742
1055.76,475.709,0.353318
1067.76,477.714,0.388231
1079.76,479.717,0.42369
1091.76,481.727,0.459685
1103.76,483.726,0.496275
1115.76,485.729,0.534143
1127.76,487.731,0.572734
1139.76,489.736,0.611643
1151.76,491.741,0.650565
1163.76,493.744,0.690157
1175.76,495.746,0.729955
1187.76,497.747,0.769106
1199.76,499.74,0.807339
1211.76,501.733,0.845729
1223.76,503.735,0.883455
1235.76,505.732,0.921566
1247.76,507.724,0.959678
1259.76,509.72,0.99794
1271.76,511.723,1.03645
1283.76,513.72,1.07487
1295.76,515.719,1.11375
1307.76,517.708,1.15115
1319.76,519.696,1.18997
1331.76,521.694,1.22776
1343.76,523.68,1.26492
1355.76,525.673,1.3029
1367.76,527.675,1.34186
1379.76,529.669,1.38088
1391.76,531.67,1.42055
1403.76,533.655,1.45943
1415.76,535.642,1.49816
1427.76,537.633,1.536657
1439.76,539.635,1.57524
1451.76,541.626,1.6129
1463.76,543.621,1.64842
1475.76,545.606,1.68346
1487.76,547.604,1.71912
1499.76,549.593,1.75256
1511.76,551.576,1.78502
1523.76,553.561,1.81661
1535.76,555.55,1.85011
1547.76,557.536,1.88286
1559.76,559.521,1.9159
1571.76,561.508,1.94684
1583.76,563.496,1.97669
1595.76,565.49,2.00283
1607.76,567.476,2.02438
1619.76,569.465,2.03819
1631.76,571.446,2.04393
1643.76,573.43,2.03419
1655.76,575.412,2.0052
1667.76,577.391,1.93914
1679.76,579.335,1.81047
1691.76,581.269,1.67168
1703.76,583.216,1.58426
1715.76,585.198,1.62592
1727.76,587.135,1.58068
1739.76,589.112,1.61988
1751.76,591.134,1.65893
1763.76,593.064,1.65639
1775.76,595.046,1.65146
1787.76,597.025,1.60817
1799.76,598.993,1.50891
1811.76,600.933,1.34803
1823.76,602.89,1.27694
1835.76,604.874,1.23172
1847.76,606.836,1.2088
1859.76,608.822,1.22895
1871.76,610.8,1.26097
1883.76,612.79,1.32909
1895.76,614.801,1.46618
1907.76,616.843,1.74526
1919.76,618.881,2.00904
1931.76,620.905,2.23167
1943.76,622.922,2.41754
1955.76,624.934,2.57941
1967.76,626.94,2.72159
1979.76,628.95,2.85008
1991.76,630.954,2.96609
2003.76,632.959,3.07183
2015.76,634.954,3.1686
2027.76,636.948,3.25835
2039.76,638.942,3.34022
2051.76,640.934,3.41787
2063.76,642.925,3.48886
2075.76,644.915,3.5571
2087.76,646.901,3.62318
2099.76,648.891,3.68619
2111.76,650.875,3.74658
2123.76,652.857,3.8057
2135.76,654.845,3.86298
2147.76,656.829,3.92009
2159.76,658.812,3.97762
2171.76,660.796,4.03257
2183.76,662.785,4.08858
2195.76,664.77,4.14471
2207.76,666.756,4.2011
2219.76,668.738,4.25787
2231.76,670.725,4.31632
2243.76,672.709,4.37469
2255.76,674.693,4.43382
2267.76,676.676,4.49545
2279.76,678.662,4.55888
2291.76,680.651,4.62426
2303.76,682.644,4.691
2315.76,684.63,4.75045
2327.76,686.607,4.79751
2339.76,688.599,4.84102
2351.76,690.577,4.88602
2363.76,692.561,4.93104
2375.76,694.545,4.9801
2387.76,696.525,5.02887
2399.76,698.514,5.07976
2411.76,700.491,5.13205
2423.76,702.474,5.18275
2435.76,704.456,5.23533
2447.76,706.439,5.28905
2459.76,708.425,5.3418
2471.76,710.405,5.39439
2483.76,712.393,5.44886
2495.76,714.38,5.50047
2507.76,716.364,5.5522
2519.76,718.345,5.60385
2531.76,720.326,5.65511
2543.76,722.308,5.70514
2555.76,724.294,5.75679
2567.76,726.27,5.80709
2579.76,728.249,5.85861
2591.76,730.239,5.90995
2603.76,732.226,5.96296
2615.76,734.205,6.01405
2627.76,736.193,6.06739
2639.76,738.178,6.12043
2651.76,740.159,6.17252
2663.76,742.143,6.22485
2675.76,744.123,6.27835
2687.76,746.113,6.33151
2699.76,748.097,6.3857
2711.76,750.08,6.43882
2723.76,752.068,6.49361
2735.76,754.05,6.54932
2747.76,756.026,6.60441
2759.76,758.012,6.65887
2771.76,759.993,6.71096
2783.76,761.981,6.7652
2795.76,763.966,6.81863
2807.76,765.955,6.87253
2819.76,767.937,6.9248
2831.76,769.92,6.97707
2843.76,771.902,7.02963
2855.76,773.889,7.08316
2867.76,775.869,7.13796
2879.76,777.853,7.19108
2891.76,779.846,7.24395
2903.76,781.83,7.2979
2915.76,783.817,7.35042
2927.76,785.802,7.40606
2939.76,787.782,7.4617
2951.76,789.766,7.51632
2963.76,791.754,7.57287
2975.76,793.74,7.62861
2987.76,795.727,7.68437
2999.76,797.714,7.73921
3011.76,799.703,7.79576