File: Non-charring/PMMA/HKPoly/HKPoly_Cone_25kW_1.csv
Time,Mass,Heat release,Back surface temperature
[s],[g],[kW/m2],[K]
1,75.47,0.59,304.8
3,75.43,1.04,304.9
5,75.39,1.82,304.9
7,75.37,0.59,304.9
9,75.4,0.71,304.9
11,75.37,1.06,304.8
13,75.33,0.88,304.7
15,75.31,0.59,304.8
17,75.31,1.04,304.9
19,75.34,1.82,304.9
21,75.34,0.59,305.3
23,75.37,0.64,305.6
25,75.35,0.71,306
27,75.31,1.06,306.6
29,75.28,0.88,307.1
31,75.25,1.56,308
33,75.25,2.35,308.7
35,75.25,1.86,309.8
37,75.27,0.83,310.5
39,75.29,0.98,311.6
41,75.26,0.55,312.9
43,75.24,1.65,314.1
45,75.2,1.74,315.3
47,75.18,0.58,316.5
49,75.2,0.97,317.6
51,75.17,0.87,319.1
53,75.16,1.82,320.7
55,75.15,2.3,321.9
57,75.2,2.1,323.3
59,75.19,3.13,324.5
61,75.13,3.66,325.7
63,75.11,3.32,327.1
65,75.09,3.08,328.1
67,75.05,3.18,330.5
69,74.96,2.95,333.8
71,74.81,1.88,336.2
73,74.63,2.44,338.7
75,74.44,1.97,341.1
77,74.25,3.16,343.4
79,73.98,3.69,345.7
81,73.69,5.57,347.9
83,73.44,17.09,349.6
85,73.2,51.08,352
87,72.89,103.74,353.9
89,72.62,158.98,356.3
91,72.28,211.66,358
93,71.92,274.92,360.1
95,71.58,345.78,361.7
97,71.24,399.16,363.5
99,70.9,448.27,365.3
101,70.55,490.39,367.1
103,70.17,523.59,368.8
105,69.82,564.03,370.3
107,69.45,603.02,371.7
109,69.05,643.42,373.1
111,68.71,669.92,374.3
113,68.31,691.18,375.5
115,67.89,713.5,376.6
117,67.52,733.25,378
119,67.18,750.11,379.3
121,66.8,757.64,380.9
123,66.33,763.16,382.3
125,65.99,775.04,384.1
127,65.54,803.15,386.3
129,65.14,831.12,388.3
131,64.75,846.85,390.2
133,64.36,852.13,391.9
135,63.94,857.36,394
137,63.55,865.12,396.7
139,63.14,869.72,399.7
141,62.74,871.53,402.6
143,62.34,874.31,404.6
145,61.98,881.26,407.6
147,61.56,888.63,409.4
149,61.17,892.47,411.1
151,60.78,894.29,413.3
153,60.35,896.48,415.7
155,59.96,898.48,417.9
157,59.55,899.41,420.3
159,59.16,904.52,422.7
161,58.72,910.75,424.8
163,58.35,905.49,426.6
165,58.01,903.68,429.3
167,57.56,908.96,431.4
169,57.15,918.74,433.1
171,56.72,930.23,435.6
173,56.31,936.25,437.5
175,55.86,937.24,439.5
177,55.5,931.42,441.6
179,55.02,925.22,443.6
181,54.57,921.63,445.6
183,54.18,919.53,447.5
185,53.76,917.81,449.6
187,53.36,922.64,451.8
189,52.99,937.81,454.1
191,52.58,956.28,456.2
193,52.13,967.31,458
195,51.74,977.7,460
197,51.31,987.14,462
199,50.86,984.47,464
201,50.49,980.03,465.6
203,50.02,981.86,467.6
205,49.59,983.24,469.8
207,49.17,983.25,471.5
209,48.74,978.68,473.2
211,48.27,974.49,475.2
213,47.84,972.03,477.1
215,47.45,968.79,479.1
217,46.97,967.84,480.7
219,46.55,981.81,482.8
221,46.1,997.15,484.6
223,45.64,1009.76,486.6
225,45.23,1017.97,488
227,44.79,1025.23,489.7
229,44.32,1031.58,491.1
231,43.85,1030.72,492.4
233,43.43,1029.65,493.6
235,43,1029.98,494.7
237,42.53,1031.32,496.5
239,42.04,1034.71,497.7
241,41.58,1048.82,499.2
243,41.12,1058.6,500.6
245,40.69,1056.44,502.1
247,40.23,1050.25,503.3
249,39.75,1046.89,504.6
251,39.32,1046.22,505.6
253,38.85,1062.8,506.8
255,38.36,1074.55,508
257,37.9,1082.51,509.1
259,37.46,1089.4,510
261,36.98,1099.14,511.1
263,36.49,1105.75,511.2
265,36.01,1106.14,512.2
267,35.53,1099.49,513.3
269,35.05,1100.43,514.4
271,34.57,1108.48,515.1
273,34.13,1116.06,517.2
275,33.69,1122.13,518.3
277,33.24,1125.94,520.3
279,32.78,1124.54,522.1
281,32.29,1123.15,523.8
283,31.78,1122.17,526.2
285,31.35,1127.18,527.3
287,30.89,1137.38,529.9
289,30.4,1138.58,532.5
291,29.97,1129.91,534.5
293,29.53,1125.77,538.3
295,29.11,1124.61,540.9
297,28.62,1124.94,542.6
299,28.18,1126.58,545
301,27.72,1128.36,543.3
303,27.27,1125.36,545.1
305,26.85,1112.16,545.7
307,26.4,1095.77,545.8
309,25.94,1082.84,546.6
311,25.5,1077.89,547.4
313,25.06,1077.85,548.4
315,24.63,1095.18,550.1
317,24.16,1111.37,551
319,23.76,1110.55,551.5
321,23.33,1107.68,553
323,22.92,1105.88,553.5
325,22.49,1101.32,554.1
327,22.08,1085.25,555
329,21.68,1063.33,556.1
331,21.28,1028.23,557.5
333,20.88,1008.16,559
335,20.48,1004.94,561.3
337,20.05,1004.26,562.8
339,19.68,1004.26,564.8
341,19.28,1002.54,567
343,18.84,991.87,569.6
345,18.5,971.84,571.8
347,18.11,947.36,574.3
349,17.67,921.79,577.1
351,17.32,911.25,579.3
353,16.96,903.05,581.8
355,16.55,891.97,584.2
357,16.15,883.84,586.6
359,15.77,874.59,589.2
361,15.44,867.09,591.3
363,15.04,860.99,593.6
365,14.67,853.43,595.7
367,14.3,837.54,597.4
369,13.95,825.34,599.5
371,13.59,812.6,601.2
373,13.23,801.84,602.8
375,12.91,796.61,603.9
377,12.58,790.6,605
379,12.21,765.49,606.6
381,11.9,748.08,608.6
383,11.53,738.15,610.3
385,11.18,721.18,612.2
387,10.86,704.5,614.1
389,10.58,684.48,615.9
391,10.23,654.17,617.7
393,9.88,627.76,620.2
395,9.54,604.89,623
397,9.23,588.98,625.9
399,8.96,581.13,630.6
401,8.66,576.13,636.4
403,8.39,573.57,654.7
405,8.09,569.14,672.9
407,7.82,557.8,687.4
409,7.53,544.34,702.7
411,7.26,529.92,718.5
413,7,508.18,730.6
415,6.78,492.78,741.8
417,6.55,478.25,757.8
419,6.36,457.5,778.9
421,6.1,434.82,791.1
423,5.89,412.12,800.4
425,5.68,388.95,821.6
427,5.48,369.62,825.2
429,5.3,349.66,823.9
431,5.08,328.05,833.7
433,4.87,304.94,846.8
435,4.73,283.62,861.6
437,4.55,263.94,867.7
439,4.38,248.24,867.2
441,4.17,234.87,859.8
443,4.03,220.93,845.1
445,3.88,207.67,819.3
447,3.77,197.51,784
449,3.65,189.96,759.9
451,3.53,176.69,751.6
453,3.39,162.6,743.5
455,3.26,153.17,737.8
457,3.15,144.23,732.3
459,3.04,133.7,721.7
461,2.86,121.75,717.6
463,2.73,109.17,716.9
465,2.63,94.8,713.9
467,2.51,85.59,710.8
469,2.37,80.8,725.2
471,2.26,77.38,719.2
473,2.14,73.18,713.8
475,2,69.02,710.3
477,1.85,66.92,702.2
479,1.75,67.01,700.5
481,1.66,66.77,706.2
483,1.54,65.54,702.9
485,1.47,64.9,708.7
487,1.33,62.35,703.2
489,1.24,58.24,697.9
491,1.14,54.71,695.2
493,1.04,52.3,693.1
495,0.92,51.51,691.6
497,0.8,51.88,690.1
499,0.72,51.81,691
501,0.58,50.58,692.7
503,0.51,48.74,693
505,0.42,44.44,691.4
506,0.38,42.04,691.1