File: Non-charring/PMMA/HKPoly/HKPolyU_TGA_N2_10K_2.csv
Time,Temperature,Mass
[s],[K],[mg]
0.15,300.048,4.189604
11.76,302.715,4.188122
23.76,305.319,4.186716
35.76,307.793,4.18588
47.76,310.154,4.185248
59.76,312.392,4.184512
71.76,314.5129,4.184044
83.76,316.546,4.183632
95.76,318.508,4.182884
107.76,320.425,4.182437
119.76,322.325,4.182182
131.76,324.23,4.181627
143.76,326.147,4.18122
155.76,328.1031,4.180766
167.76,330.08,4.180428
179.76,332.087,4.180193
191.76,334.137,4.179694
203.76,336.217,4.179348
215.76,338.311,4.179239
227.76,340.41,4.178875
239.76,342.517,4.178874
251.76,344.618,4.178704
263.76,346.715,4.178428
275.76,348.806,4.178336
287.76,350.887,4.178422
299.76,352.95,4.178113
311.76,355.0005,4.17811
323.76,357.034,4.17791
335.76,359.067,4.177918
347.76,361.1032,4.17795
359.76,363.114,4.177637
371.76,365.135,4.177641
383.76,367.161,4.177636
395.76,369.187,4.177443
407.76,371.212,4.177295
419.76,373.2419,4.17729
431.76,375.2787,4.177085
443.76,377.3172,4.177163
455.76,379.36,4.176976
467.76,381.3964,4.176605
479.76,383.4395,4.176408
491.76,385.4815,4.176715
503.76,387.519,4.176306
515.76,389.5415,4.176062
527.76,391.5727,4.175986
539.76,393.6015,4.175484
551.76,395.628,4.175056
563.76,397.6613,4.174805
575.76,399.685,4.174036
587.76,401.702,4.173547
599.76,403.7146,4.173039
611.76,405.7418,4.172194
623.76,407.7503,4.1713
635.76,409.7791,4.170698
647.76,411.7978,4.169748
659.76,413.8241,4.168898
671.76,415.837,4.16797
683.76,417.8552,4.167041
695.76,419.8726,4.166119
707.76,421.8894,4.165138
719.76,423.908,4.16396
731.76,425.9244,4.16276
743.76,427.9482,4.161574
755.76,429.9579,4.160022
767.76,431.9728,4.158477
779.76,433.9863,4.156745
791.76,436.0006,4.154766
803.76,438.0063,4.152617
815.76,440.0234,4.15016
827.76,442.0264,4.147474
839.76,444.0322,4.144398
851.76,446.0492,4.141128
863.76,448.0506,4.137265
875.76,450.061,4.133215
887.76,452.0749,4.128979
899.76,454.0808,4.124594
911.76,456.0829,4.119969
923.76,458.0938,4.115395
935.76,460.0955,4.110742
947.76,462.1064,4.106347
959.76,464.1198,4.101992
971.76,466.1262,4.097638
983.76,468.1285,4.093335
995.76,470.1343,4.089088
1007.76,472.1373,4.084659
1019.76,474.1336,4.080019
1031.76,476.141,4.075253
1043.76,478.1408,4.070571
1055.76,480.1446,4.065723
1067.76,482.1544,4.06119
1079.76,484.1592,4.056908
1091.76,486.1703,4.053159
1103.76,488.1778,4.049828
1115.76,490.1831,4.046898
1127.76,492.1762,4.044756
1139.76,494.1814,4.042878
1151.76,496.1849,4.041275
1163.76,498.1889,4.04004
1175.76,500.1898,4.038742
1187.76,502.1961,4.037758
1199.76,504.1938,4.03677
1211.76,506.1943,4.035964
1223.76,508.187,4.034918
1235.76,510.1879,4.033746
1247.76,512.1803,4.032774
1259.76,514.171,4.03154
1271.76,516.1698,4.030176
1283.76,518.1619,4.028679
1295.76,520.1523,4.027
1307.76,522.1462,4.025241
1319.76,524.1455,4.023242
1331.76,526.138,4.020947
1343.76,528.133,4.0187
1355.76,530.1255,4.016087
1367.76,532.1183,4.013074
1379.76,534.111,4.009933
1391.76,536.1015,4.006474
1403.76,538.097,4.002844
1415.76,540.0849,3.998651
1427.76,542.0763,3.994184
1439.76,544.0646,3.98907
1451.76,546.0513,3.983625
1463.76,548.0402,3.977646
1475.76,550.0336,3.97105
1487.76,552.018,3.96375
1499.76,554.0078,3.955862
1511.76,555.996,3.947416
1523.76,557.9832,3.938374
1535.76,559.9712,3.92866
1547.76,561.953,3.918624
1559.76,563.9389,3.907952
1571.76,565.9256,3.896706
1583.76,567.9117,3.885097
1595.76,569.8972,3.873015
1607.76,571.8826,3.860361
1619.76,573.8688,3.847264
1631.76,575.8516,3.833339
1643.76,577.837,3.818804
1655.76,579.819,3.803089
1667.76,581.8024,3.786264
1679.76,583.785,3.767748
1691.76,585.7648,3.747539
1703.76,587.749,3.72517
1715.76,589.7334,3.700615
1727.76,591.7127,3.673209
1739.76,593.6914,3.642822
1751.76,595.6661,3.609134
1763.76,597.6365,3.571488
1775.76,599.606,3.529603
1787.76,601.5758,3.4829
1799.76,603.5358,3.43084
1811.76,605.5035,3.372937
1823.76,607.4665,3.308575
1835.76,609.4334,3.237205
1847.76,611.3938,3.158205
1859.76,613.3512,3.071453
1871.76,615.3103,2.976532
1883.76,617.2656,2.873354
1895.76,619.219,2.762194
1907.76,621.1681,2.643012
1919.76,623.1232,2.516233
1931.76,625.0706,2.382402
1943.76,627.03,2.242098
1955.76,628.994,2.09708
1967.76,630.9652,1.948977
1979.76,632.9396,1.797978
1991.76,634.9176,1.646874
2003.76,636.9029,1.498771
2015.76,638.886,1.345704
2027.76,640.8816,1.20081
2039.76,642.8605,1.05344
2051.76,644.8574,0.9105811
2063.76,646.8581,0.7736634
2075.76,648.852,0.6403884
2087.76,650.8631,0.5146976
2099.76,652.87,0.3969956
2111.76,654.8818,0.2865722
2123.76,656.8942,0.1861692
2135.76,658.9054,0.09676055
2147.76,660.9296,0.01740458
2159.76,662.9536,-0.05267364
2171.76,664.9668,-0.1136777
2183.76,666.9843,-0.1663293
2195.76,668.9985,-0.2110969
2207.76,671.0128,-0.248933
2219.76,673.0195,-0.2808186
2231.76,675.0274,-0.3074467
2243.76,677.0303,-0.3294006
2255.76,679.0314,-0.348
2267.76,681.0402,-0.363
2279.76,683.036,-0.374648
2291.76,685.0272,-0.3845566
2303.76,687.0256,-0.3924119
2315.76,689.0172,-0.398768
2327.76,691.0107,-0.4039719
2339.76,692.996,-0.4080475
2351.76,694.9894,-0.4111564
2363.76,696.9748,-0.4137535
2375.76,698.9574,-0.415618
2387.76,700.9394,-0.4172533
2399.76,702.928,-0.418154
2411.76,704.9114,-0.4186431
2423.76,706.9015,-0.4189384
2435.76,708.885,-0.419084
2447.76,710.8656,-0.4189714
2459.76,712.8517,-0.4190105
2471.76,714.8344,-0.4189534
2483.76,716.8135,-0.4189535
2495.76,718.7946,-0.4188564
2507.76,720.7761,-0.4187894
2519.76,722.76,-0.4186731
2531.76,724.7398,-0.4186848
2543.76,726.7184,-0.4185785
2555.76,728.6988,-0.4185942
2567.76,730.6835,-0.4184959
2579.76,732.6656,-0.4184389
2591.76,734.643,-0.4184378
2603.76,736.6216,-0.4182826
2615.76,738.6054,-0.4182019
2627.76,740.5872,-0.4180847
2639.76,742.5633,-0.4179195
2651.76,744.5454,-0.4178635
2663.76,746.5308,-0.4176898
2675.76,748.5072,-0.4176498
2687.76,750.4881,-0.4176444
2699.76,752.4728,-0.4175266
2711.76,754.4489,-0.4174869
2723.76,756.4299,-0.417259
2735.76,758.4088,-0.4172731
2747.76,760.3918,-0.4172904
2759.76,762.368,-0.4172055
2771.76,764.3521,-0.4170394
2783.76,766.3383,-0.4168067
2795.76,768.3194,-0.4167744
2807.76,770.303,-0.416743
2819.76,772.281,-0.4166632
2831.76,774.2594,-0.4165191
2843.76,776.2424,-0.4164131
2855.76,778.216,-0.4164588
2867.76,780.1965,-0.4163953
2879.76,782.1744,-0.4163159
2891.76,784.1602,-0.4162998
2903.76,786.1382,-0.4163363
2915.76,788.125,-0.4162788
2927.76,790.111,-0.416173
2939.76,792.0899,-0.4161037
2951.76,794.0712,-0.4160277
2963.76,796.0508,-0.4160536
2975.76,798.034,-0.4157637
2987.76,800.0118,-0.4157384
2999.76,801.9956,-0.4156063
3011.76,803.9716,-0.4154716