File: Wood/Calibration_Data/IMT/IMT-Mines-Ales_MCC_O2-20_60K_R2.csv
Time (s),Temperature (K),HRR (W/g)
0,400.88,0
2,402.3,-0.93
4,403.72,-0.571
6,405.16,-0.631
8,406.59,-0.837
10,408.14,-0.892
12,409.57,-1.162
14,411.14,-1.302
16,412.62,-0.953
18,414.19,-1.591
20,415.82,-0.967
22,417.42,-1.474
24,419.01,-0.856
26,420.66,-1.577
28,422.29,-1.538
30,424.01,-0.757
32,425.66,-0.106
34,427.4,-0.074
36,429.13,-0.785
38,430.9,-0.431
40,432.63,-0.485
42,434.38,0.95
44,436.21,0.152
46,437.98,0.884
48,439.84,0.816
50,441.7,1.002
52,443.59,1.686
54,445.48,1.453
56,447.37,2.735
58,449.22,1.969
60,451.22,3.049
62,453.14,3.735
64,455.09,4.336
66,457.05,5.157
68,458.98,5.715
70,460.97,6.658
72,463.04,7.606
74,465.09,8.088
76,467.04,8.89
78,469.17,10.677
80,471.17,11.552
82,473.2,13.028
84,475.28,14.309
86,477.32,15.512
88,479.4,15.987
90,481.49,17.126
92,483.57,17.779
94,485.62,19.384
96,487.77,19.137
98,489.83,20.611
100,491.95,20.379
102,494.06,22.102
104,496.14,22.41
106,498.22,23.972
108,500.32,24.061
110,502.39,24.131
112,504.54,23.579
114,506.62,25.22
116,508.75,25.708
118,510.85,27.037
120,512.96,27.612
122,515.02,28.371
124,517.11,28.855
126,519.2,28.752
128,521.25,30.046
130,523.35,30.882
132,525.4,33.316
134,527.5,35.752
136,529.56,37.817
138,531.7,37.939
140,533.76,39.551
142,535.82,39.295
144,537.91,47.523
146,539.91,50.812
148,541.96,47.918
150,544.05,35.875
152,546.09,41.893
154,548.17,49.285
156,550.16,54.221
158,552.22,60.757
160,554.24,72.497
162,556.31,70.6
164,558.34,59.07
166,560.3,50.657
168,562.32,50.721
170,564.35,53.675
172,566.38,58.853
174,568.41,61.609
176,570.44,64.59
178,572.48,65.825
180,574.51,67.391
182,576.5,68.652
184,578.51,70.249
186,580.53,71.483
188,582.54,74.65
190,584.5,76.516
192,586.51,79.384
194,588.51,81.687
196,590.54,85.028
198,592.53,87.879
200,594.63,91.157
202,596.59,94.412
204,598.55,98.056
206,600.64,100.962
208,602.6,106.292
210,604.62,111.476
212,606.64,118.07
214,608.67,124.914
216,610.69,133.59
218,612.72,141.894
220,614.82,150.586
222,616.79,156.955
224,618.87,163.378
226,620.92,166.128
228,622.92,167.546
230,624.99,165.939
232,627.04,161.751
234,629.06,155.798
236,631.13,147.244
238,633.26,138.436
240,635.3,129.12
242,637.37,119.273
244,639.44,109.1
246,641.5,98.71
248,643.53,89.273
250,645.62,81.616
252,647.65,74.624
254,649.68,68.601
256,651.71,64.4
258,653.65,60.177
260,655.68,57.786
262,657.7,54.218
264,659.63,53.016
266,661.66,50.256
268,663.65,49.36
270,665.6,47.292
272,667.54,45.938
274,669.56,45.415
276,671.45,44.352
278,673.41,44.348
280,675.45,42.745
282,677.39,42.408
284,679.34,42.134
286,681.31,41.865
288,683.26,41.104
290,685.23,42.009
292,687.15,41.636
294,689.18,41.465
296,691.13,41.258
298,693.1,41.063
300,695.12,41.11
302,697.11,41.307
304,699.11,41.854
306,701.06,41.802
308,703.11,42.594
310,705.07,43.4
312,707.05,43.855
314,709.09,43.953
316,711.11,45.829
318,713.18,46.252
320,715.26,46.742
322,717.27,48.264
324,719.3,38.598
326,721.35,35.59
328,723.45,43.682
330,725.47,53.803
332,727.55,62.061
334,729.63,70.658
336,731.74,112.226
338,734.67,173.76
340,737.51,220.163
342,740.14,236.938
344,742.99,215.04
346,745.18,164.334
348,747.26,115.696
350,749.25,80.441
352,751.1,58.097
354,752.86,43.775
356,754.62,35.173
358,756.44,29.783
360,758.16,25.662
362,759.92,23.168
364,761.68,21.086
366,763.52,20.004
368,765.28,18.676
370,767.13,18.144
372,769.05,16.696
374,770.91,16.294
376,772.81,15.129
378,774.73,14.917
380,776.7,13.886
382,778.62,13.898
384,780.59,13.547
386,782.57,13.222
388,784.54,12.871
390,786.55,12.991
392,788.54,12.524
394,790.57,12.691
396,792.6,11.689
398,794.68,11.251
400,796.77,10.462
402,798.85,10.498
404,800.99,9.234
406,803.05,9.279
408,805.12,9.011
410,807.25,8.633
412,809.32,8.37
414,811.46,7.249
416,813.53,6.262
418,815.61,6.186
420,817.82,5.888
422,819.87,4.819
424,821.99,4.953
426,824.14,4.546
428,826.23,4.233
430,828.34,3.621
432,830.45,4.067
434,832.52,3.487
436,834.67,3.867
438,836.83,3.495
440,838.96,3.483
442,841.06,2.494
444,843.15,2.978
446,845.24,2.544
448,847.32,2.658
450,849.48,2.79
452,851.6,2.299
454,853.67,2.264
456,855.81,1.357
458,857.88,1.556
460,859.97,1.013
462,862.08,1.07
464,864.18,0.943
466,866.26,0.464
468,868.33,0.503
470,870.47,0.258
472,872.53,0.006
474,874.65,-0.02
476,876.79,-0.696
478,878.83,0.116
480,880.89,-0.785
482,883,-0.904
484,885.11,-0.89
486,887.16,-1.038
488,889.21,-1.222
490,891.3,-1.511
492,893.39,-0.899
494,895.45,-1.303
496,897.6,-1.244
498,899.72,-1.703
500,901.76,-1.615
502,903.82,-2.044
504,905.93,-2.644
506,907.98,-2.473
508,910.06,-2.268
510,912.1,-2.816
512,914.12,-2.951
514,916.23,-3.473
516,918.38,-3.03
518,920.42,-3.569
520,922.47,-1.94
522,924.56,-2.031
524,926.65,-1.522
526,928.73,-2.722
528,930.78,-2.561
530,932.84,-3.3
532,934.93,-2.799
534,937.07,-1.612
536,939.15,-0.801
538,941.22,1.234
540,943.29,0.573
542,945.39,1.018
544,947.46,0.961
546,949.51,0.45
548,951.66,0.149
550,953.76,0.697
552,955.84,-0.082
554,957.98,-0.467
556,960.03,-1.999
558,962.17,-2.166
560,964.24,-2.621
562,966.36,-1.075
564,968.41,-0.156
566,970.49,1.644
568,972.61,1.085
570,974.72,2.11
572,976.77,1.644
574,978.86,1.087
576,980.93,0.322
578,983.07,-1.093
580,985.14,-1.505
582,987.24,-1.492
584,989.28,-0.51
585,990.36,0