File: Wood/Calibration_Data/IMT/IMT-Mines-Ales_TGA_O2-20_20K_R1.csv
Time (s),Sample Temperature (K),Weight (mg)
0,383.15,4.299
8,383.15,4.299
16,384.66,4.300
24,386.84,4.301
32,389.15,4.302
40,391.53,4.302
48,394.01,4.302
56,396.55,4.302
64,399.12,4.301
72,401.74,4.301
80,404.37,4.301
88,407.03,4.301
96,409.69,4.300
104,412.37,4.300
112,415.06,4.300
120,417.76,4.299
128,420.46,4.299
136,423.15,4.298
144,425.85,4.298
152,428.54,4.297
160,431.23,4.296
168,433.92,4.295
176,436.60,4.294
184,439.29,4.293
192,441.98,4.292
200,444.67,4.290
208,447.35,4.289
216,450.04,4.287
224,452.73,4.285
232,455.42,4.282
240,458.11,4.280
248,460.79,4.277
256,463.49,4.275
264,466.17,4.271
272,468.86,4.268
280,471.56,4.264
288,474.24,4.260
296,476.93,4.256
304,479.62,4.251
312,482.31,4.246
320,484.99,4.241
328,487.68,4.235
336,490.37,4.229
344,493.05,4.222
352,495.75,4.215
360,498.44,4.207
368,501.11,4.199
376,503.81,4.190
384,506.49,4.181
392,509.18,4.172
400,511.87,4.162
408,514.56,4.151
416,517.25,4.140
424,519.94,4.128
432,522.63,4.116
440,525.31,4.102
448,528.00,4.087
456,530.69,4.071
464,533.37,4.054
472,536.06,4.036
480,538.74,4.016
488,541.44,3.995
496,544.13,3.972
504,546.81,3.948
512,549.50,3.923
520,552.19,3.896
528,554.87,3.868
536,557.56,3.839
544,560.25,3.809
552,562.94,3.777
560,565.63,3.744
568,568.31,3.709
576,571.01,3.673
584,573.68,3.636
592,576.37,3.597
600,579.06,3.557
608,581.75,3.514
616,584.44,3.470
624,587.12,3.423
632,589.81,3.375
640,592.50,3.323
648,595.19,3.268
656,597.87,3.209
664,600.56,3.147
672,603.24,3.081
680,605.94,3.010
688,608.62,2.934
696,611.31,2.853
704,614.00,2.766
712,616.68,2.671
720,619.37,2.567
728,622.06,2.452
736,624.75,2.321
744,627.44,2.174
752,630.12,2.011
760,632.81,1.841
768,635.50,1.681
776,638.18,1.551
784,640.87,1.463
792,643.56,1.405
800,646.24,1.361
808,648.93,1.325
816,651.62,1.294
824,654.31,1.266
832,656.99,1.241
840,659.68,1.217
848,662.37,1.195
856,665.05,1.174
864,667.74,1.154
872,670.43,1.135
880,673.12,1.115
888,675.81,1.097
896,678.49,1.078
904,681.18,1.060
912,683.88,1.043
920,686.55,1.025
928,689.25,1.007
936,691.94,0.990
944,694.62,0.972
952,697.31,0.953
960,700.00,0.935
968,702.66,0.917
976,705.32,0.899
984,708.00,0.880
992,710.66,0.861
1000,713.33,0.842
1008,716.00,0.823
1016,718.66,0.803
1024,721.33,0.783
1032,723.99,0.762
1040,726.66,0.741
1048,729.33,0.718
1056,731.99,0.696
1064,734.66,0.672
1072,737.33,0.647
1080,740.00,0.622
1088,742.67,0.596
1096,745.33,0.570
1104,748.00,0.543
1112,750.66,0.515
1120,753.33,0.488
1128,756.00,0.460
1136,758.66,0.432
1144,761.33,0.404
1152,764.00,0.375
1160,766.67,0.345
1168,769.33,0.314
1176,772.01,0.281
1184,774.67,0.244
1192,777.34,0.207
1200,780.22,0.018
1208,782.67,0.019
1216,785.32,0.016
1224,787.99,0.014
1232,790.66,0.014
1240,793.33,0.013
1248,796.00,0.013
1256,798.66,0.012
1264,801.33,0.012
1272,804.00,0.012
1280,806.67,0.012
1288,809.33,0.012
1296,812.01,0.012
1304,814.67,0.012
1312,817.34,0.011
1320,820.00,0.011
1328,822.67,0.011
1336,825.34,0.011
1344,828.00,0.011
1352,830.67,0.011
1360,833.34,0.011
1368,836.00,0.010
1376,838.67,0.010
1384,841.35,0.010
1392,844.01,0.010
1400,846.68,0.010
1408,849.34,0.010
1416,852.01,0.010
1424,854.68,0.009
1432,857.34,0.009
1440,860.01,0.009
1448,862.68,0.009
1456,865.35,0.009
1464,868.01,0.009
1472,870.68,0.009
1480,873.34,0.008
1488,876.02,0.008
1496,878.68,0.008
1504,881.35,0.008
1512,884.01,0.008
1520,886.69,0.008
1528,889.35,0.008
1536,892.02,0.008
1544,894.68,0.007
1552,897.35,0.007
1560,900.02,0.007
1568,902.68,0.007
1576,905.35,0.007
1584,908.02,0.007
1592,910.69,0.007
1600,913.35,0.006
1608,916.02,0.006
1616,918.69,0.006
1624,921.35,0.006
1632,924.02,0.006
1640,926.69,0.006
1648,929.36,0.006
1656,932.02,0.006
1664,934.69,0.006
1672,937.35,0.006
1680,940.02,0.005
1688,942.70,0.005
1696,945.35,0.005
1704,948.03,0.005
1712,950.68,0.005
1720,953.36,0.005
1728,956.03,0.005
1736,958.69,0.005
1744,961.36,0.005
1752,964.02,0.005
1760,966.69,0.004
1768,969.36,0.004
1776,972.03,0.004
1784,974.69,0.004
1792,977.36,0.004
1800,980.03,0.004
1808,982.69,0.004
1816,985.36,0.003
1824,988.03,0.003
1832,990.69,0.003
1840,993.36,0.003
1848,996.02,0.003
1856,998.69,0.003
1864,1001.36,0.003
1872,1004.02,0.003
1880,1006.69,0.003
1888,1009.36,0.003
1896,1012.03,0.003
1904,1014.70,0.003
1912,1017.36,0.002
1920,1020.02,0.002
1928,1022.70,0.002
1936,1025.36,0.002
1944,1028.02,0.002
1952,1030.69,0.002
1960,1033.36,0.002
1968,1036.03,0.002
1976,1038.70,0.002
1984,1041.35,0.002
1992,1044.03,0.002
2000,1046.68,0.002
2008,1049.35,0.001
2016,1052.03,0.001
2024,1054.69,0.001
2032,1057.36,0.001
2040,1060.02,0.001
2048,1062.68,0.001
2056,1065.36,0.001
2064,1068.02,0.001
2072,1070.69,0.001
2080,1073.35,0.001
2088,1076.02,0.000
2096,1078.69,0.000
2104,1081.35,0.000
2112,1084.03,0.000
2120,1086.68,0.000
2128,1089.36,-0.001
2136,1092.02,-0.001
2144,1094.69,-0.001
2152,1097.35,-0.001
2160,1100.02,-0.001
2168,1102.68,-0.001
2176,1105.35,-0.002
2184,1108.02,-0.002
2192,1110.68,-0.002
2200,1113.36,-0.002
2208,1116.02,-0.002
2216,1118.68,-0.002
2224,1121.36,-0.002
2232,1124.02,-0.003
2240,1126.69,-0.003
2248,1129.35,-0.003
2256,1132.01,-0.003
2264,1134.68,-0.003
2272,1137.34,-0.003
2280,1140.02,-0.003
2288,1142.69,-0.004
2296,1145.35,-0.004
2304,1148.02,-0.004
2312,1150.68,-0.004
2320,1153.35,-0.004
2328,1156.02,-0.005
2336,1158.68,-0.005
2344,1161.34,-0.005
2352,1164.01,-0.005
2360,1166.68,-0.005
2368,1169.34,-0.006
2369,1169.67,-0.006