File: Wood/Calibration_Data/IMT/IMT-Mines-Ales_TGA_N2_2K_R1.csv
Time (s),Sample Temperature (K),Weight (mg)
0,383.15,4.975
79,385.21,4.975
158,387.82,4.974
237,390.46,4.974
316,393.10,4.973
395,395.74,4.972
474,398.37,4.971
553,400.99,4.970
632,403.64,4.968
711,406.28,4.967
790,408.91,4.966
869,411.55,4.964
948,414.19,4.962
1027,416.82,4.961
1106,419.46,4.959
1185,422.09,4.956
1264,424.74,4.954
1343,427.37,4.951
1422,430.01,4.948
1501,432.63,4.945
1580,435.28,4.941
1659,437.92,4.937
1738,440.55,4.933
1817,443.18,4.928
1896,445.82,4.922
1975,448.46,4.917
2054,451.09,4.911
2133,453.73,4.904
2212,456.36,4.897
2291,459.00,4.890
2370,461.63,4.882
2449,464.26,4.874
2528,466.90,4.866
2607,469.54,4.857
2686,472.18,4.848
2765,474.80,4.839
2844,477.44,4.829
2923,480.08,4.819
3002,482.71,4.809
3081,485.35,4.797
3160,487.98,4.785
3239,490.62,4.773
3318,493.26,4.759
3397,495.90,4.744
3476,498.52,4.728
3555,501.17,4.711
3634,503.80,4.693
3713,506.44,4.673
3792,509.07,4.651
3871,511.71,4.629
3950,514.34,4.605
4029,516.98,4.580
4108,519.61,4.554
4187,522.24,4.527
4266,524.88,4.499
4345,527.51,4.470
4424,530.15,4.439
4503,532.78,4.410
4582,535.42,4.378
4661,538.06,4.345
4740,540.69,4.312
4819,543.33,4.277
4898,545.96,4.240
4977,548.60,4.204
5056,551.24,4.164
5135,553.87,4.124
5214,556.51,4.081
5293,559.15,4.039
5372,561.77,3.992
5451,564.41,3.944
5530,567.05,3.897
5609,569.69,3.845
5688,572.32,3.789
5767,574.96,3.732
5846,577.59,3.671
5925,580.22,3.608
6004,582.85,3.542
6083,585.50,3.472
6162,588.13,3.399
6241,590.76,3.324
6320,593.40,3.245
6399,596.03,3.161
6478,598.67,3.076
6557,601.31,2.988
6636,603.94,2.898
6715,606.58,2.807
6794,609.21,2.712
6873,611.85,2.614
6952,614.48,2.515
7031,617.11,2.414
7110,619.75,2.309
7189,622.39,2.200
7268,625.03,2.089
7347,627.66,1.977
7426,630.29,1.865
7505,632.94,1.753
7584,635.56,1.647
7663,638.20,1.549
7742,640.84,1.464
7821,643.47,1.393
7900,646.11,1.338
7979,648.74,1.297
8058,651.37,1.267
8137,654.01,1.247
8216,656.65,1.232
8295,659.29,1.220
8374,661.92,1.210
8453,664.55,1.200
8532,667.19,1.191
8611,669.82,1.183
8690,672.46,1.174
8769,675.10,1.166
8848,677.73,1.158
8927,680.37,1.151
9006,683.00,1.143
9085,685.64,1.136
9164,688.27,1.129
9243,690.91,1.121
9322,693.54,1.114
9401,696.17,1.107
9480,698.82,1.101
9559,701.45,1.094
9638,704.08,1.087
9717,706.71,1.081
9796,709.35,1.075
9875,711.98,1.069
9954,714.61,1.063
10033,717.25,1.057
10112,719.88,1.051
10191,722.52,1.046
10270,725.15,1.041
10349,727.78,1.036
10428,730.41,1.031
10507,733.04,1.026
10586,735.68,1.022
10665,738.31,1.017
10744,740.94,1.013
10823,743.58,1.009
10902,746.21,1.005
10981,748.85,1.001
11060,751.49,0.997
11139,754.12,0.994
11218,756.75,0.990
11297,759.38,0.987
11376,762.02,0.983
11455,764.65,0.980
11534,767.28,0.976
11613,769.92,0.973
11692,772.55,0.970
11771,775.18,0.966
11850,777.81,0.963
11929,780.45,0.960
12008,783.08,0.957
12087,785.71,0.954
12166,788.35,0.951
12245,790.98,0.948
12324,793.62,0.945
12403,796.25,0.942
12482,798.88,0.939
12561,801.51,0.936
12640,804.15,0.933
12719,806.78,0.930
12798,809.42,0.927
12877,812.05,0.924
12956,814.68,0.921
13035,817.32,0.918
13114,819.95,0.915
13193,822.58,0.913
13272,825.22,0.910
13351,827.85,0.907
13430,830.49,0.905
13509,833.12,0.902
13588,835.75,0.899
13667,838.38,0.896
13746,841.02,0.894
13825,843.65,0.891
13904,846.28,0.889
13983,848.91,0.886
14062,851.55,0.883
14141,854.18,0.881
14220,856.82,0.879
14299,859.45,0.876
14378,862.08,0.874
14457,864.72,0.871
14536,867.35,0.869
14615,869.99,0.866
14694,872.62,0.864
14773,875.25,0.862
14852,877.88,0.859
14931,880.51,0.857
15010,883.15,0.855
15089,885.79,0.852
15168,888.41,0.850
15247,891.05,0.848
15326,893.68,0.846
15405,896.32,0.844
15484,898.95,0.842
15563,901.58,0.840
15642,904.22,0.838
15721,906.85,0.835
15800,909.48,0.833
15879,912.13,0.831
15958,914.75,0.829
16037,917.38,0.828
16116,920.02,0.826
16195,922.65,0.824
16274,925.28,0.822
16353,927.92,0.820
16432,930.55,0.818
16511,933.18,0.816
16590,935.81,0.815
16669,938.45,0.813
16748,941.08,0.811
16827,943.71,0.810
16906,946.35,0.808
16985,948.98,0.807
17064,951.62,0.805
17143,954.25,0.804
17222,956.89,0.802
17301,959.52,0.801
17380,962.16,0.799
17459,964.78,0.798
17538,967.42,0.796
17617,970.05,0.795
17696,972.69,0.793
17775,975.32,0.792
17854,977.96,0.791
17933,980.58,0.790
18012,983.22,0.788
18091,985.85,0.787
18170,988.49,0.786
18249,991.12,0.785
18328,993.75,0.783
18407,996.39,0.782
18486,999.01,0.781
18565,1001.66,0.779
18644,1004.29,0.778
18723,1006.92,0.777
18802,1009.55,0.776
18881,1012.19,0.774
18960,1014.82,0.773
19039,1017.45,0.772
19118,1020.08,0.771
19197,1022.72,0.769
19276,1025.35,0.768
19355,1027.99,0.767
19434,1030.62,0.766
19513,1033.25,0.765
19592,1035.89,0.764
19671,1038.52,0.762
19750,1041.15,0.761
19829,1043.79,0.760
19908,1046.42,0.759
19987,1049.05,0.758
20066,1051.68,0.757
20145,1054.31,0.755
20224,1056.95,0.754
20303,1059.59,0.753
20382,1062.21,0.752
20461,1064.85,0.751
20540,1067.49,0.750
20619,1070.12,0.748
20698,1072.75,0.747
20777,1075.39,0.746
20856,1078.01,0.744
20935,1080.65,0.743
21014,1083.28,0.742
21093,1085.91,0.740
21172,1088.55,0.739
21251,1091.18,0.738
21330,1093.81,0.737
21409,1096.46,0.735
21488,1099.08,0.733
21567,1101.72,0.732
21646,1104.36,0.731
21725,1106.98,0.729
21804,1109.62,0.727
21883,1112.25,0.726
21962,1114.88,0.724
22041,1117.52,0.722
22120,1120.16,0.720
22199,1122.78,0.719
22278,1125.42,0.717
22357,1128.05,0.715
22436,1130.68,0.713
22515,1133.32,0.711
22594,1135.95,0.709
22673,1138.59,0.707
22752,1141.22,0.705
22831,1143.86,0.703
22910,1146.48,0.700
22989,1149.12,0.698
23068,1151.74,0.695
23147,1154.39,0.693
23226,1157.01,0.691
23305,1159.64,0.687
23384,1162.28,0.685
23463,1164.92,0.682
23542,1167.55,0.679
23621,1170.18,0.676
23699,1172.79,0.673