File: Wood/Calibration_Data/IMT/IMT-Mines-Ales_MCC_O2-10_60K_R1.csv
Time (s),Temperature (K),HRR (W/g)
0,418.91,0
2,420.61,0.561
4,422.33,0.77
6,424.06,1.425
8,425.9,1.707
10,427.66,1.752
12,429.5,1.729
14,431.32,1.891
16,433.14,2.177
18,434.96,2.492
20,436.89,2.955
22,438.76,2.77
24,440.65,3.403
26,442.61,3.556
28,444.54,3.572
30,446.54,4.114
32,448.49,4.433
34,450.4,4.716
36,452.46,5.113
38,454.42,5.814
40,456.44,6.258
42,458.49,6.691
44,460.52,7.402
46,462.55,8.192
48,464.61,8.768
50,466.73,9.7
52,468.79,10.095
54,470.9,11.298
56,472.94,11.961
58,475,12.994
60,477.05,13.637
62,479.2,14.546
64,481.29,15.399
66,483.38,16.465
68,485.48,17.301
70,487.63,17.677
72,489.71,18.629
74,491.82,19.488
76,493.93,20.057
78,496.05,20.637
80,498.16,21.021
82,500.23,22.043
84,502.32,22.264
86,504.45,22.801
88,506.49,23.55
90,508.63,24.153
92,510.76,24.686
94,512.84,24.952
96,514.92,25.394
98,516.97,26.106
100,519.06,26.681
102,521.08,26.752
104,523.17,28.022
106,525.24,29.07
108,527.25,30.076
110,529.35,30.925
112,531.38,32.1
114,533.49,33.228
116,535.52,34.67
118,537.56,35.368
120,539.52,36.825
122,541.61,38.474
124,543.61,39.419
126,545.65,40.789
128,547.61,42.336
130,549.64,43.349
132,551.74,44.785
134,553.76,46.343
136,555.71,47.816
138,557.73,49.02
140,559.73,50.394
142,561.71,51.54
144,563.76,52.454
146,565.75,53.786
148,567.7,55.107
150,569.69,56.168
152,571.74,57.513
154,573.7,59.129
156,575.71,60.463
158,577.73,62.012
160,579.74,63.876
162,581.69,66.487
164,583.66,68.519
166,585.68,71.281
168,587.67,73.121
170,589.67,75.64
172,591.66,78.274
174,593.67,81.445
176,595.7,83.62
178,597.7,86.752
180,599.68,89.402
182,601.69,92.528
184,603.68,95.816
186,605.7,98.921
188,607.74,103.01
190,609.75,106.957
192,611.82,111.424
194,613.89,116.275
196,615.9,121.379
198,617.96,126.29
200,619.97,131.257
202,622.03,135.058
204,624.09,137.774
206,626.15,139.35
208,628.24,138.499
210,630.31,136.363
212,632.37,131.771
214,634.47,126.079
216,636.52,119.049
218,638.63,110.76
220,640.74,102.264
222,642.78,93.29
224,644.85,85.081
226,646.95,77.309
228,649.03,70.252
230,651.13,64.359
232,653.16,58.961
234,655.25,54.349
236,657.29,50.756
238,659.36,47.892
240,661.41,45.6
242,663.45,43.937
244,665.46,42.561
246,667.48,41.782
248,669.49,40.886
250,671.47,39.569
252,673.49,39.445
254,675.53,38.342
256,677.54,37.625
258,679.48,37.286
260,681.46,36.988
262,683.49,36.367
264,685.39,36.285
266,687.37,35.738
268,689.3,35.755
270,691.3,35.631
272,693.27,35.616
274,695.27,35.392
276,697.26,35.225
278,699.2,34.914
280,701.17,34.828
282,703.18,35.319
284,705.11,35.364
286,707.07,35.978
288,709.09,36.172
290,711.04,36.448
292,713.07,37.329
294,715.09,38.301
296,717.1,38.628
298,719.14,39.23
300,721.13,39.943
302,723.11,40.651
304,725.21,41.204
306,727.24,41.33
308,729.23,41.876
310,731.33,42.276
312,733.38,43.129
314,735.46,43.796
316,737.52,44.126
318,739.57,44.957
320,741.63,45.775
322,743.7,46.554
324,745.72,47.347
326,747.77,48.805
328,749.81,50.522
330,751.93,52.237
332,754.04,54.986
334,756.14,57.986
336,758.25,65.668
338,760.48,75.049
340,762.7,80.461
342,764.84,82.577
344,767.04,80.482
346,769.13,72.78
348,771.19,62.521
350,773.18,52.589
352,775.14,45.78
354,777.13,41.486
356,779.03,38.511
358,780.9,36.181
360,782.8,34.654
362,784.64,33.273
364,786.55,32.616
366,788.42,32.336
368,790.28,31.187
370,792.13,29.87
372,794.06,28.765
374,796,26.884
376,797.83,24.841
378,799.75,22.856
380,801.6,20.285
382,803.49,18.585
384,805.34,15.832
386,807.19,14.601
388,809.09,12.893
390,810.96,11.868
392,812.84,11.147
394,814.68,10.627
396,816.6,9.328
398,818.53,8.621
400,820.47,7.949
402,822.36,7.033
404,824.32,6.802
406,826.27,5.784
408,828.2,5.261
410,830.19,4.196
412,832.18,3.55
414,834.13,2.109
416,836.18,1.808
418,838.22,1.27
420,840.21,1.959
422,842.27,1.733
424,844.31,2.067
426,846.36,1.65
428,848.46,1.812
430,850.51,1.02
432,852.58,0.988
434,854.67,0.402
436,856.82,0.692
438,858.9,0.78
440,861.04,1.673
442,863.15,-0.299
444,865.22,1.284
446,867.33,-1.046
448,869.42,0.176
450,871.55,-0.124
452,873.72,-0.042
454,875.86,-0.399
456,877.9,-0.76
458,880.06,-0.616
460,882.16,-0.509
462,884.29,-0.068
464,886.4,-0.052
466,888.5,0.812
468,890.67,0.45
470,892.84,0.372
472,894.9,-0.14
474,897.08,-0.072
476,899.18,-0.545
478,901.3,-0.539
480,903.46,-0.708
482,905.56,-0.817
484,907.57,-1.055
486,909.67,-1.422
488,911.82,-1.533
490,913.84,-1.332
492,916.11,-1.243
494,918.15,-0.753
496,920.2,-0.827
498,922.35,0.342
500,924.5,0.336
502,926.52,0.148
504,928.61,0.213
506,930.77,-0.193
508,932.82,-0.732
510,934.89,-0.228
512,937.04,-0.83
514,939.11,-0.744
516,941.21,-0.632
518,943.26,-0.556
520,945.38,-0.375
522,947.4,-1.024
524,949.56,-0.895
526,951.62,-1.177
528,953.69,-1.151
530,955.75,-1.502
532,957.87,-1.54
534,959.95,-1.355
536,962.1,-1.309
538,964.16,-1.251
540,966.23,-1.2
542,968.33,-1.168
544,970.39,-0.828
546,972.44,-0.631
548,974.55,-0.403
550,976.63,-0.59
552,978.76,-0.441
554,980.77,-0.271
556,982.86,-0.513
558,984.97,-0.178
560,987.02,-0.504
562,989.08,0.019
564,991.11,-0.116
566,993.18,-0.018
568,995.32,0.162
570,997.38,0