File: Wood/Calibration_Data/IMT/IMT-Mines-Ales_Wood_TGA_N2_5K_R1.csv
Time (s),Temperature (K),Weight (mg)
0,383.15,4.877
32,384.62,4.877
64,387.08,4.878
96,389.70,4.877
128,392.35,4.877
160,395.02,4.877
192,397.69,4.876
224,400.38,4.876
256,403.05,4.875
288,405.72,4.875
320,408.40,4.874
352,411.07,4.874
384,413.75,4.873
416,416.42,4.872
448,419.09,4.871
480,421.77,4.870
512,424.45,4.869
544,427.12,4.867
576,429.79,4.866
608,432.47,4.864
640,435.14,4.862
672,437.81,4.860
704,440.49,4.857
736,443.16,4.854
768,445.83,4.851
800,448.50,4.848
832,451.18,4.844
864,453.85,4.840
896,456.52,4.835
928,459.19,4.830
960,461.86,4.824
992,464.53,4.818
1024,467.20,4.812
1056,469.87,4.805
1088,472.55,4.798
1120,475.22,4.790
1152,477.89,4.782
1184,480.56,4.774
1216,483.24,4.765
1248,485.91,4.756
1280,488.58,4.747
1312,491.25,4.737
1344,493.92,4.726
1376,496.59,4.716
1408,499.27,4.705
1440,501.93,4.692
1472,504.61,4.679
1504,507.28,4.666
1536,509.95,4.651
1568,512.63,4.635
1600,515.30,4.617
1632,517.97,4.599
1664,520.65,4.579
1696,523.32,4.557
1728,525.98,4.534
1760,528.66,4.508
1792,531.33,4.483
1824,533.99,4.457
1856,536.68,4.429
1888,539.35,4.401
1920,542.01,4.371
1952,544.69,4.341
1984,547.36,4.309
2016,550.03,4.277
2048,552.70,4.244
2080,555.38,4.210
2112,558.05,4.176
2144,560.72,4.140
2176,563.40,4.102
2208,566.07,4.065
2240,568.73,4.026
2272,571.40,3.986
2304,574.07,3.943
2336,576.75,3.899
2368,579.42,3.854
2400,582.09,3.806
2432,584.76,3.756
2464,587.44,3.703
2496,590.11,3.648
2528,592.78,3.591
2560,595.46,3.530
2592,598.13,3.466
2624,600.79,3.401
2656,603.47,3.332
2688,606.14,3.260
2720,608.81,3.185
2752,611.48,3.108
2784,614.16,3.028
2816,616.83,2.946
2848,619.50,2.862
2880,622.17,2.776
2912,624.84,2.687
2944,627.52,2.597
2976,630.19,2.502
3008,632.85,2.406
3040,635.53,2.308
3072,638.20,2.207
3104,640.87,2.104
3136,643.54,2.000
3168,646.21,1.896
3200,648.89,1.792
3232,651.56,1.692
3264,654.22,1.597
3296,656.90,1.511
3328,659.58,1.434
3360,662.25,1.368
3392,664.92,1.313
3424,667.59,1.268
3456,670.26,1.234
3488,672.94,1.208
3520,675.61,1.189
3552,678.28,1.174
3584,680.95,1.162
3616,683.62,1.152
3648,686.29,1.143
3680,688.96,1.134
3712,691.64,1.126
3744,694.31,1.118
3776,696.98,1.110
3808,699.65,1.103
3840,702.32,1.095
3872,704.98,1.088
3904,707.65,1.081
3936,710.32,1.074
3968,712.99,1.067
4000,715.64,1.060
4032,718.32,1.054
4064,720.99,1.047
4096,723.65,1.041
4128,726.32,1.034
4160,728.98,1.028
4192,731.66,1.022
4224,734.32,1.016
4256,736.98,1.010
4288,739.65,1.004
4320,742.32,0.999
4352,744.98,0.994
4384,747.66,0.989
4416,750.32,0.984
4448,752.99,0.979
4480,755.66,0.975
4512,758.32,0.970
4544,760.98,0.966
4576,763.65,0.962
4608,766.32,0.958
4640,768.99,0.954
4672,771.65,0.950
4704,774.31,0.947
4736,777.00,0.943
4768,779.65,0.939
4800,782.32,0.936
4832,784.99,0.933
4864,787.65,0.929
4896,790.32,0.926
4928,792.99,0.923
4960,795.66,0.920
4992,798.32,0.917
5024,800.98,0.914
5056,803.65,0.911
5088,806.32,0.908
5120,808.99,0.905
5152,811.65,0.902
5184,814.32,0.900
5216,816.99,0.897
5248,819.65,0.894
5280,822.32,0.891
5312,824.99,0.889
5344,827.66,0.886
5376,830.32,0.883
5408,832.99,0.881
5440,835.65,0.878
5472,838.32,0.876
5504,840.99,0.873
5536,843.65,0.871
5568,846.32,0.868
5600,848.99,0.866
5632,851.66,0.863
5664,854.32,0.861
5696,856.99,0.858
5728,859.66,0.856
5760,862.32,0.854
5792,864.99,0.852
5824,867.66,0.849
5856,870.32,0.847
5888,872.99,0.845
5920,875.65,0.842
5952,878.32,0.840
5984,880.99,0.838
6016,883.66,0.836
6048,886.32,0.834
6080,888.99,0.831
6112,891.66,0.829
6144,894.32,0.827
6176,896.98,0.825
6208,899.66,0.823
6240,902.32,0.821
6272,904.99,0.819
6304,907.66,0.817
6336,910.33,0.815
6368,912.99,0.813
6400,915.66,0.812
6432,918.32,0.810
6464,920.99,0.808
6496,923.66,0.806
6528,926.32,0.804
6560,928.99,0.803
6592,931.66,0.801
6624,934.32,0.799
6656,937.00,0.798
6688,939.66,0.796
6720,942.33,0.794
6752,944.99,0.793
6784,947.65,0.791
6816,950.33,0.790
6848,952.99,0.788
6880,955.66,0.787
6912,958.33,0.785
6944,960.99,0.784
6976,963.66,0.782
7008,966.32,0.781
7040,968.99,0.780
7072,971.65,0.778
7104,974.32,0.777
7136,976.99,0.776
7168,979.66,0.775
7200,982.33,0.773
7232,984.99,0.772
7264,987.66,0.771
7296,990.33,0.769
7328,992.99,0.768
7360,995.66,0.767
7392,998.32,0.765
7424,1000.99,0.764
7456,1003.66,0.763
7488,1006.33,0.762
7520,1008.99,0.761
7552,1011.66,0.760
7584,1014.32,0.759
7616,1016.99,0.758
7648,1019.66,0.757
7680,1022.32,0.756
7712,1024.99,0.755
7744,1027.66,0.754
7776,1030.33,0.753
7808,1032.99,0.751
7840,1035.66,0.750
7872,1038.32,0.749
7904,1040.99,0.748
7936,1043.66,0.747
7968,1046.32,0.746
8000,1049.00,0.745
8032,1051.66,0.744
8064,1054.33,0.743
8096,1056.99,0.741
8128,1059.66,0.740
8160,1062.32,0.739
8192,1065.00,0.738
8224,1067.66,0.737
8256,1070.33,0.736
8288,1072.99,0.735
8320,1075.66,0.734
8352,1078.32,0.733
8384,1080.99,0.732
8416,1083.65,0.731
8448,1086.32,0.730
8480,1088.99,0.729
8512,1091.66,0.728
8544,1094.33,0.727
8576,1096.99,0.725
8608,1099.66,0.724
8640,1102.33,0.723
8672,1104.99,0.722
8704,1107.65,0.721
8736,1110.33,0.720
8768,1112.99,0.719
8800,1115.66,0.717
8832,1118.32,0.716
8864,1120.99,0.715
8896,1123.66,0.714
8928,1126.33,0.712
8960,1128.99,0.711
8992,1131.65,0.709
9024,1134.32,0.708
9056,1136.99,0.707
9088,1139.66,0.705
9120,1142.33,0.704
9152,1144.99,0.703
9184,1147.66,0.701
9216,1150.32,0.699
9248,1152.99,0.698
9280,1155.65,0.696
9312,1158.32,0.695
9344,1160.99,0.693
9376,1163.66,0.691
9408,1166.32,0.690
9440,1168.99,0.688
9472,1171.66,0.686
9479,1172.24,0.686