File: Wood/Calibration_Data/IMT/IMT-Mines-Ales_MCC_N2_60K_R2.csv
Time (s),Temperature (K),HRR (W/g)
0,411.54,0
2,413.29,-0.102
4,415.09,-0.054
6,416.96,-0.532
8,418.81,-0.544
10,420.65,-0.569
12,422.51,-0.549
14,424.44,-0.503
16,426.39,-0.552
18,428.29,-0.367
20,430.25,-0.526
22,432.2,-0.059
24,434.16,0.364
26,436.09,0.555
28,438.14,1.201
30,440.17,1.646
32,442.22,2.202
34,444.3,2.64
36,446.34,3.068
38,448.39,4.285
40,450.45,4.716
42,452.59,4.9
44,454.62,5.85
46,456.73,7.325
48,458.82,8.523
50,460.95,9.948
52,463.01,10.537
54,465.19,11.284
56,467.35,11.699
58,469.43,12.387
60,471.61,12.727
62,473.7,13.112
64,475.76,13.303
66,477.93,13.439
68,480.08,14.285
70,482.2,14.729
72,484.36,15.197
74,486.48,15.3
76,488.58,15.464
78,490.74,15.949
80,492.85,15.679
82,495.02,15.979
84,497.1,15.876
86,499.18,16.588
88,501.32,16.839
90,503.45,16.843
92,505.5,17.067
94,507.66,17.535
96,509.73,17.833
98,511.81,17.931
100,513.91,18.988
102,516.01,19.458
104,518.07,20.202
106,520.11,21.275
108,522.18,21.953
110,524.22,23.264
112,526.32,24.02
114,528.38,24.978
116,530.38,26.435
118,532.44,27.398
120,534.44,28.419
122,536.51,29.417
124,538.51,30.638
126,540.48,31.293
128,542.5,32.748
130,544.51,33.895
132,546.51,34.624
134,548.52,35.676
136,550.5,36.092
138,552.54,36.843
140,554.51,37.096
142,556.5,38.094
144,558.47,39.095
146,560.46,39.248
148,562.4,39.822
150,564.36,39.97
152,566.35,40.432
154,568.34,40.665
156,570.3,41.039
158,572.31,41.42
160,574.3,41.757
162,576.25,42.408
164,578.26,43.126
166,580.2,43.558
168,582.16,44.436
170,584.11,45.854
172,586.04,46.856
174,588.1,48.785
176,590.04,50.353
178,592.02,52.416
180,594,53.9
182,596,55.708
184,597.96,57.491
186,600,60.221
188,601.93,61.539
190,603.9,63.761
192,605.89,65.876
194,607.88,67.965
196,609.9,70.106
198,611.88,71.868
200,613.82,73.69
202,615.85,75.891
204,617.84,77.809
206,619.84,79.962
208,621.85,81.591
210,623.83,83.684
212,625.85,85.36
214,627.88,86.748
216,629.87,88.27
218,631.88,83.022
220,633.94,84.813
222,635.93,86.999
224,637.97,87.316
226,639.95,89.804
228,642.01,91.857
230,643.99,94.856
232,645.99,96.865
234,647.99,99.638
236,650.04,102.579
238,652.05,104.85
240,654,107.776
242,655.98,110.093
244,658.05,111.995
246,660.04,113.203
248,662.07,113.897
250,664.08,113.73
252,666.12,111.966
254,668.11,108.575
256,670.12,104.764
258,672.17,99.288
260,674.2,92.901
262,676.27,85.377
264,678.25,76.927
266,680.28,68.834
268,682.31,60.115
270,684.35,52.327
272,686.35,44.743
274,688.39,38.849
276,690.38,33.159
278,692.42,28.586
280,694.45,24.697
282,696.51,22.203
284,698.49,20.06
286,700.51,18.254
288,702.55,16.914
290,704.52,15.645
292,706.54,14.857
294,708.6,14.408
296,710.6,13.494
298,712.66,12.974
300,714.67,12.717
302,716.72,12.577
304,718.82,12.026
306,720.83,11.596
308,722.81,10.768
310,724.88,10.419
312,726.88,10.479
314,728.88,9.903
316,730.95,9.514
318,732.96,9.542
320,735.01,8.975
322,737.07,9.386
324,739.08,8.741
326,741.1,8.035
328,743.14,7.72
330,745.19,7.293
332,747.16,6.853
334,749.2,6.191
336,751.25,6.221
338,753.23,6.231
340,755.29,6.024
342,757.36,5.966
344,759.38,5.877
346,761.43,5.082
348,763.42,4.618
350,765.42,4.545
352,767.45,4.379
354,769.49,3.674
356,771.52,3.629
358,773.58,3.1
360,775.57,2.845
362,777.62,1.97
364,779.62,2.765
366,781.75,2.514
368,783.73,2.516
370,785.75,2.473
372,787.78,2.208
374,789.8,2.477
376,791.86,2.493
378,793.87,1.866
380,795.94,1.453
382,797.97,1.429
384,800.03,1.663
386,802.03,1.122
388,804.08,1.241
390,806.11,1.023
392,808.17,1.789
394,810.2,1.802
396,812.27,1.386
398,814.3,0.769
400,816.37,0.707
402,818.42,1.477
404,820.45,1.376
406,822.44,0.765
408,824.49,1.156
410,826.55,0.321
412,828.62,1.423
414,830.66,0.639
416,832.68,0.949
418,834.77,0.659
420,836.83,0.733
422,838.84,0.47
424,840.97,0.114
426,842.87,0.441
428,845.08,0.195
430,847.07,0.024
432,849.13,0.385
434,851.17,0.284
436,853.19,0.777
438,855.31,0.726
440,857.31,0.912
442,859.44,0.886
444,861.52,0.933
446,863.59,0.446
448,865.64,0.655
450,867.71,0.983
452,869.82,0.748
454,871.88,0.239
456,873.97,0.528
458,876.05,0.35
460,878.18,0.029
462,880.23,0.1
464,882.31,0.203
466,884.38,0.243
468,886.49,0.502
470,888.59,0.446
472,890.67,0.167
474,892.72,0.62
476,894.84,0.91
478,896.95,0.98
480,899.04,0.493
482,901.12,0.187
484,903.17,-0.143
486,905.27,-0.11
488,907.37,-0.333
490,909.42,0.08
492,911.55,-0.086
494,913.57,-0.107
496,915.65,-0.012
498,917.76,0.203
500,919.84,0.093
502,921.9,0.209
504,923.99,0.317
506,926,1.116
508,928.09,0.843
510,930.14,0.939
512,932.2,0.646
514,934.29,0.51
516,936.39,0.298
518,938.49,0.149
520,940.51,-0.011
522,942.6,-0.282
524,944.7,0.594
526,946.74,-0.098
528,948.86,0.058
530,950.92,0.398
532,953.01,0.939
534,955.08,0.33
536,957.23,0.507
538,959.28,0.262
540,961.36,0.492
542,963.44,0.443
544,965.46,0.79
546,967.54,0.785
548,969.6,-0.231
550,971.65,0.028
552,973.75,0.418
554,975.83,0.271
556,977.91,0.338
558,979.97,-0.009
560,982.05,0.593
562,984.12,0.162
564,986.22,0.297
566,988.26,0.091
568,990.32,0.313
570,992.41,-0.129
572,994.52,0.124
574,996.59,0.107
576,998.7,0.271
578,1000.76,0.244
580,1002.85,0.453
582,1004.94,0.174
584,1007.05,-0.274
586,1009.14,0