File: Wood/Calibration_Data/IMT/IMT-Mines-Ales_MCC_O2-2_60K_R2.csv
Time (s),Temperature (K),HRR (W/g)
0,380.72,0
2.5,382.19,0.827
5,383.72,1.666
7.5,385.33,2.124
10,387.01,3.408
12.5,388.66,4.06
15,390.34,4.637
17.5,392.11,4.814
20,393.93,4.896
22.5,395.78,5.394
25,397.68,5.608
27.5,399.61,5.577
30,401.6,34.513
32.5,403.63,18.89
35,405.74,12.836
37.5,407.79,9.427
40,409.95,8.315
42.5,412.09,7.466
45,414.32,7.948
47.5,416.56,7.534
50,418.84,8.582
52.5,421.14,9.219
55,423.44,9.387
57.5,425.83,10.16
60,428.19,10.913
62.5,430.58,11.11
65,433,11.353
67.5,435.44,10.682
70,437.89,8.887
72.5,440.43,8.402
75,442.96,8.689
77.5,445.5,9.629
80,448.03,11.251
82.5,450.63,12.928
85,453.16,14.698
87.5,455.75,16.693
90,458.36,18.19
92.5,461,20.012
95,463.6,21.597
97.5,466.26,23.148
100,468.9,24.477
102.5,471.58,24.71
105,474.2,25.125
107.5,476.84,24.292
110,479.49,24.402
112.5,482.18,26.095
115,484.83,27.918
117.5,487.48,29.111
120,490.13,30.381
122.5,492.78,32.111
125,495.46,33.161
127.5,498.08,34.249
130,500.73,35.659
132.5,503.39,36.6
135,506,37.527
137.5,508.62,38.003
140,511.24,37.062
142.5,513.87,36.495
145,516.47,36.213
147.5,519.01,36.782
150,521.6,38.974
152.5,524.14,40.735
155,526.71,42.06
157.5,529.25,43.809
160,531.83,46.667
162.5,534.37,50.007
165,536.87,51.79
167.5,539.41,53.495
170,541.88,54.194
172.5,544.39,53.756
175,546.91,55.346
177.5,549.4,57.1
180,551.92,55.034
182.5,554.37,53.035
185,556.88,51.815
187.5,559.4,52.611
190,561.84,53.803
192.5,564.28,55.743
195,566.74,57.72
197.5,569.23,59.844
200,571.73,62.521
202.5,574.17,65.69
205,576.69,68.711
207.5,579.1,75.712
210,581.57,76.057
212.5,584.06,78.15
215,586.47,79.912
217.5,588.94,82.499
220,591.41,85.971
222.5,593.88,88.751
225,596.37,91.93
227.5,598.84,94.823
230,601.38,95.776
232.5,603.83,97.018
235,606.31,99.171
237.5,608.83,103.473
240,611.37,107.782
242.5,613.88,111.681
245,616.34,115.143
247.5,618.93,118.399
250,621.43,121.485
252.5,623.93,124.723
255,626.44,126.911
257.5,629,128.957
260,631.55,130.986
262.5,634.1,134.038
265,636.65,137.407
267.5,639.18,138.797
270,641.72,136.433
272.5,644.24,131.755
275,646.83,126.534
277.5,649.35,120.874
280,651.93,114.994
282.5,654.48,109.158
285,657.06,102.109
287.5,659.59,93.95
290,662.17,85.334
292.5,664.72,75.588
295,667.23,67.22
297.5,669.8,59.135
300,672.4,52.206
302.5,674.99,46.753
305,677.56,41.777
307.5,680.16,37.095
310,682.68,33.188
312.5,685.22,32.253
315,687.81,32.977
317.5,690.32,30.488
320,692.9,26.606
322.5,695.48,22.069
325,698.02,19.797
327.5,700.54,19.632
330,703.07,22.582
332.5,705.61,46.82
335,708.11,42.862
337.5,710.63,40.869
340,713.15,39.455
342.5,715.7,38.856
345,718.16,37.847
347.5,720.71,37.207
350,723.22,37.041
352.5,725.7,36.918
355,728.23,36.365
357.5,730.77,36.632
360,733.26,36.236
362.5,735.83,36.522
365,738.35,36.324
367.5,740.84,36.25
370,743.37,36.756
372.5,745.84,36.588
375,748.4,36.628
377.5,750.9,36.639
380,753.38,35.99
382.5,755.92,34.436
385,758.44,33.622
387.5,760.97,33.649
390,763.5,33.837
392.5,766.04,35.154
395,768.58,35.933
397.5,771.11,36.776
400,773.68,37.262
402.5,776.24,38.291
405,778.76,39.107
407.5,781.28,39.775
410,783.78,40.223
412.5,786.32,40.448
415,788.8,41.086
417.5,791.33,40.373
420,793.86,39.337
422.5,796.41,38.024
425,798.95,37.793
427.5,801.53,37.709
430,804.03,38.689
432.5,806.59,39.377
435,809.15,40.216
437.5,811.72,41.094
440,814.25,42.272
442.5,816.83,42.399
445,819.38,43.286
447.5,821.95,44.002
450,824.52,44.254
452.5,827.04,44.145
455,829.6,44.508
457.5,832.13,42.949
460,834.64,41.843
462.5,837.29,41.101
465,839.88,41.462
467.5,842.46,41.823
470,845.01,43.094
472.5,847.56,43.848
475,850.11,44.152
477.5,852.71,45.211
480,855.27,45.377
482.5,857.87,45.34
485,860.46,45.239
487.5,863.03,44.468
490,865.61,43.897
492.5,868.13,43.043
495,870.7,41.12
497.5,873.31,38.079
500,875.9,36.581
502.5,878.45,35.689
505,881.04,34.648
507.5,883.58,34.332
510,886.15,32.96
512.5,888.76,31.003
515,891.27,28.422
517.5,893.81,25.289
520,896.35,21.401
522.5,898.85,16.935
525,901.29,12.644
527.5,903.78,9.22
530,906.2,5.949
532.5,908.62,2.706
535,911.13,-0.18
537.5,913.55,-1.831
540,916.05,3.161
542.5,918.58,0.624
545,921.11,-0.202
547.5,923.66,-0.734
550,926.16,-0.299
552.5,928.73,-0.445
555,931.3,-0.36
557.5,933.87,-0.192
560,936.48,0.114
562.5,939.11,0.671
565,941.67,1.005
567.5,944.34,1.458
570,946.9,1.683
572.5,949.52,1.9
575,952.12,1.869
577.5,954.75,1.279
580,957.41,-1.203
582.5,960.03,-3.008
585,962.6,-3.143
587.5,965.26,-3.164
590,967.85,-2.516
592.5,970.5,-1.72
595,973.09,-1.412
597.5,975.68,-0.597
600,978.32,-0.35
602.5,980.92,0.359
605,983.55,0.485
607.5,986.06,0.341
609,987.65,0