File: Wood/Calibration_Data/IMT/IMT-Mines-Ales_Wood_TGA_O2-20_5K_R1.csv
Time (s),Temperature (K),Weight (mg)
0,383.15,4.615
32,384.64,4.616
64,387.12,4.616
96,389.73,4.616
128,392.39,4.616
160,395.06,4.615
192,397.72,4.615
224,400.40,4.615
256,403.08,4.614
288,405.75,4.614
320,408.43,4.613
352,411.10,4.612
384,413.78,4.612
416,416.45,4.611
448,419.12,4.610
480,421.81,4.609
512,424.48,4.607
544,427.16,4.606
576,429.82,4.604
608,432.50,4.602
640,435.18,4.600
672,437.85,4.598
704,440.52,4.595
736,443.19,4.592
768,445.86,4.589
800,448.53,4.586
832,451.20,4.583
864,453.87,4.579
896,456.56,4.575
928,459.22,4.571
960,461.89,4.566
992,464.56,4.561
1024,467.23,4.556
1056,469.91,4.551
1088,472.58,4.545
1120,475.25,4.539
1152,477.92,4.532
1184,480.60,4.525
1216,483.27,4.517
1248,485.94,4.509
1280,488.61,4.500
1312,491.29,4.491
1344,493.96,4.481
1376,496.63,4.471
1408,499.30,4.459
1440,501.97,4.447
1472,504.65,4.434
1504,507.32,4.419
1536,509.99,4.404
1568,512.66,4.387
1600,515.33,4.369
1632,518.00,4.349
1664,520.67,4.328
1696,523.35,4.305
1728,526.02,4.281
1760,528.69,4.256
1792,531.36,4.229
1824,534.04,4.201
1856,536.71,4.171
1888,539.38,4.141
1920,542.05,4.108
1952,544.72,4.075
1984,547.39,4.040
2016,550.07,4.003
2048,552.74,3.964
2080,555.41,3.923
2112,558.08,3.880
2144,560.75,3.835
2176,563.43,3.787
2208,566.10,3.736
2240,568.77,3.682
2272,571.44,3.624
2304,574.11,3.561
2336,576.78,3.494
2368,579.45,3.422
2400,582.13,3.344
2432,584.80,3.260
2464,587.46,3.168
2496,590.14,3.069
2528,592.81,2.961
2560,595.49,2.839
2592,598.15,2.701
2624,600.82,2.541
2656,603.49,2.359
2688,606.17,2.167
2720,608.84,1.988
2752,611.51,1.841
2784,614.18,1.733
2816,616.86,1.657
2848,619.53,1.598
2880,622.20,1.549
2912,624.87,1.507
2944,627.55,1.469
2976,630.22,1.435
3008,632.89,1.404
3040,635.55,1.374
3072,638.23,1.346
3104,640.90,1.320
3136,643.58,1.294
3168,646.25,1.270
3200,648.92,1.246
3232,651.59,1.222
3264,654.26,1.199
3296,656.93,1.177
3328,659.60,1.155
3360,662.28,1.133
3392,664.95,1.111
3424,667.62,1.089
3456,670.30,1.067
3488,672.96,1.046
3520,675.64,1.024
3552,678.30,1.002
3584,680.98,0.980
3616,683.65,0.957
3648,686.32,0.935
3680,689.00,0.911
3712,691.67,0.887
3744,694.33,0.862
3776,697.01,0.837
3808,699.68,0.811
3840,702.35,0.784
3872,705.02,0.756
3904,707.69,0.727
3936,710.35,0.697
3968,713.01,0.666
4000,715.69,0.635
4032,718.36,0.603
4064,721.02,0.571
4096,723.69,0.538
4128,726.35,0.504
4160,729.01,0.470
4192,731.69,0.436
4224,734.34,0.400
4256,737.02,0.364
4288,739.69,0.327
4320,742.35,0.290
4352,745.02,0.251
4384,747.69,0.211
4416,750.35,0.169
4448,753.01,0.128
4480,755.68,0.092
4512,758.34,0.063
4544,761.02,0.044
4576,763.68,0.035
4608,766.36,0.031
4640,769.02,0.029
4672,771.69,0.028
4704,774.35,0.028
4736,777.01,0.027
4768,779.68,0.027
4800,782.35,0.027
4832,785.02,0.027
4864,787.69,0.026
4896,790.35,0.026
4928,793.02,0.026
4960,795.68,0.026
4992,798.35,0.025
5024,801.01,0.025
5056,803.69,0.025
5088,806.35,0.025
5120,809.01,0.025
5152,811.68,0.025
5184,814.36,0.025
5216,817.01,0.025
5248,819.69,0.025
5280,822.35,0.025
5312,825.02,0.025
5344,827.69,0.025
5376,830.35,0.025
5408,833.02,0.025
5440,835.69,0.025
5472,838.35,0.025
5504,841.02,0.025
5536,843.69,0.025
5568,846.35,0.025
5600,849.02,0.025
5632,851.69,0.025
5664,854.35,0.025
5696,857.02,0.024
5728,859.69,0.024
5760,862.36,0.024
5792,865.02,0.024
5824,867.69,0.024
5856,870.36,0.024
5888,873.02,0.024
5920,875.68,0.024
5952,878.35,0.024
5984,881.02,0.024
6016,883.69,0.024
6048,886.36,0.024
6080,889.02,0.024
6112,891.69,0.024
6144,894.35,0.024
6176,897.02,0.024
6208,899.69,0.024
6240,902.36,0.024
6272,905.02,0.023
6304,907.69,0.023
6336,910.36,0.024
6368,913.03,0.024
6400,915.69,0.024
6432,918.36,0.024
6464,921.02,0.024
6496,923.69,0.024
6528,926.35,0.024
6560,929.02,0.024
6592,931.70,0.024
6624,934.36,0.024
6656,937.03,0.024
6688,939.69,0.024
6720,942.35,0.024
6752,945.02,0.024
6784,947.69,0.024
6816,950.36,0.024
6848,953.03,0.024
6880,955.69,0.024
6912,958.36,0.024
6944,961.02,0.024
6976,963.69,0.024
7008,966.35,0.024
7040,969.02,0.024
7072,971.69,0.024
7104,974.36,0.024
7136,977.02,0.024
7168,979.69,0.024
7200,982.36,0.024
7232,985.02,0.024
7264,987.69,0.024
7296,990.35,0.024
7328,993.02,0.024
7360,995.69,0.024
7392,998.36,0.024
7424,1001.02,0.024
7456,1003.69,0.025
7488,1006.36,0.024
7520,1009.03,0.025
7552,1011.69,0.025
7584,1014.36,0.025
7616,1017.02,0.025
7648,1019.69,0.025
7680,1022.35,0.025
7712,1025.02,0.025
7744,1027.69,0.025
7776,1030.36,0.025
7808,1033.03,0.025
7840,1035.70,0.025
7872,1038.36,0.025
7904,1041.02,0.025
7936,1043.69,0.025
7968,1046.36,0.025
8000,1049.02,0.025
8032,1051.69,0.025
8064,1054.36,0.025
8096,1057.03,0.025
8128,1059.69,0.025
8160,1062.35,0.025
8192,1065.03,0.025
8224,1067.69,0.025
8256,1070.36,0.025
8288,1073.02,0.024
8320,1075.69,0.025
8352,1078.36,0.025
8384,1081.03,0.025
8416,1083.69,0.025
8448,1086.36,0.025
8480,1089.03,0.025
8512,1091.69,0.025
8544,1094.35,0.025
8576,1097.02,0.025
8608,1099.70,0.025
8640,1102.36,0.024
8672,1105.02,0.025
8704,1107.68,0.025
8736,1110.36,0.025
8768,1113.02,0.025
8800,1115.69,0.025
8832,1118.36,0.025
8864,1121.02,0.025
8896,1123.69,0.025
8928,1126.35,0.025
8960,1129.02,0.025
8992,1131.69,0.025
9024,1134.36,0.025
9056,1137.03,0.024
9088,1139.69,0.024
9120,1142.36,0.024
9152,1145.02,0.024
9184,1147.69,0.024
9216,1150.35,0.024
9248,1153.02,0.024
9280,1155.69,0.024
9312,1158.36,0.023
9344,1161.03,0.023
9376,1163.69,0.023
9408,1166.36,0.023
9440,1169.02,0.023
9472,1171.68,0.023
9479,1172.27,0.023