File: Wood/Calibration_Data/IMT/IMT-Mines-Ales_Wood_MCC_O2-10_60K_R2.csv
Time (s),Temperature (K),HRR (W/g)
0,397.45,0
2.5,399.32,-0.39
5,401.2,-0.513
7.5,403.06,-0.349
10,405.02,-0.222
12.5,407,-0.131
15,409.01,0.047
17.5,411.11,0.014
20,413.12,0.609
22.5,415.21,0.709
25,417.34,7.03
27.5,419.53,3.874
30,421.64,-3.449
32.5,423.91,-0.617
35,426.14,2.71
37.5,428.36,4.278
40,430.67,15.256
42.5,432.99,15.88
45,435.25,0.856
47.5,437.66,-5.26
50,439.99,-0.583
52.5,442.36,5.442
55,444.83,9.792
57.5,447.3,11.701
60,449.76,12.432
62.5,452.23,12.597
65,454.71,12.589
67.5,457.21,13.12
70,459.71,13.871
72.5,462.23,14.646
75,464.81,15.286
77.5,467.38,16.243
80,469.96,16.73
82.5,472.58,17.654
85,475.17,18.306
87.5,477.71,19.134
90,480.29,19.745
92.5,482.91,19.425
95,485.58,20.246
97.5,488.16,20.76
100,490.77,21.491
102.5,493.41,21.337
105,496,21.408
107.5,498.62,21.946
110,501.18,22.819
112.5,503.8,23.206
115,506.4,23.807
117.5,509.07,24.826
120,511.67,25.542
122.5,514.26,27.217
125,516.86,28.215
127.5,519.42,29.441
130,522,30.781
132.5,524.56,32.379
135,527.15,33.486
137.5,529.73,35.454
140,532.3,36.794
142.5,534.85,38.014
145,537.42,39.652
147.5,539.93,41.137
150,542.42,43.354
152.5,544.94,44.82
155,547.45,46.009
157.5,549.99,47.441
160,552.52,49.084
162.5,555.06,50.754
165,557.57,51.535
167.5,560.03,53.016
170,562.51,54.101
172.5,565,55.498
175,567.45,56.563
177.5,569.94,57.641
180,572.49,59.645
182.5,574.97,60.938
185,577.44,62.934
187.5,579.96,65.575
190,582.42,68.037
192.5,584.93,70.402
195,587.42,73.232
197.5,589.91,76.767
200,592.43,80.056
202.5,594.94,84.452
205,597.46,87.124
207.5,599.95,90.687
210,602.47,94.34
212.5,604.96,98.589
215,607.45,102.602
217.5,609.97,107.109
220,612.48,112.475
222.5,615.06,118.731
225,617.56,123.761
227.5,620.1,128.697
230,622.68,134.136
232.5,625.21,137.999
235,627.75,139.833
237.5,630.29,139.043
240,632.9,135.048
242.5,635.51,128.929
245,638.04,119.709
247.5,640.66,109.822
250,643.23,100.136
252.5,645.8,89.658
255,648.39,80.212
257.5,650.98,72.28
260,653.5,65.286
262.5,656.05,59.612
265,658.63,54.83
267.5,661.15,50.878
270,663.69,47.866
272.5,666.2,45.706
275,668.77,44.571
277.5,671.26,43.847
280,673.81,43.569
282.5,676.29,43.409
285,678.83,42.916
287.5,681.34,41.924
290,683.82,41.446
292.5,686.32,41.381
295,688.77,40.467
297.5,691.24,39.911
300,693.77,39.962
302.5,696.27,39.871
305,698.71,39.421
307.5,701.25,39.324
310,703.72,39.401
312.5,706.16,39.836
315,708.64,39.928
317.5,711.12,40.773
320,713.62,41.136
322.5,716.16,42.099
325,718.61,42.488
327.5,721.22,42.998
330,723.7,44.009
332.5,726.21,44.497
335,728.77,45.253
337.5,731.31,46.334
340,733.86,46.804
342.5,736.43,48.104
345,739,49.084
347.5,741.56,50.147
350,744.04,51.047
352.5,746.61,52.431
355,749.16,53.737
357.5,751.71,54.761
360,754.3,55.769
362.5,756.88,57.016
365,759.48,59.501
367.5,762.08,61.43
370,764.66,65.559
372.5,767.3,78.693
375,770.05,87.458
377.5,772.75,80.57
380,775.35,73.438
382.5,777.97,62.779
385,780.47,52.191
387.5,782.91,44.727
390,785.31,47.464
392.5,787.79,52.077
395,790.28,44.019
397.5,792.64,31.842
400,794.98,23.595
402.5,797.3,18.203
405,799.63,14.689
407.5,801.92,12.689
410,804.25,10.566
412.5,806.52,8.965
415,808.89,7.405
417.5,811.23,6.309
420,813.56,4.841
422.5,815.97,3.896
425,818.38,2.39
427.5,820.8,1.98
430,823.19,1.677
432.5,825.59,1.39
435,828.13,1.323
437.5,830.6,0.93
440,833.07,0.719
442.5,835.6,0.842
445,838.21,0.362
447.5,840.76,0.357
450,843.29,0.269
452.5,845.84,0.135
455,848.41,0.348
457.5,851.02,-0.519
460,853.66,-0.723
462.5,856.33,-0.332
465,858.96,-0.183
467.5,861.55,-0.468
470,864.19,-0.524
472.5,866.78,-0.692
475,869.47,-1.068
477.5,872.09,-0.785
480,874.74,-0.407
482.5,877.41,-0.208
485,880.04,-0.651
487.5,882.67,-0.627
490,885.33,-0.962
492.5,887.97,-1.811
495,890.58,-0.887
497.5,893.19,-0.854
500,895.84,-0.626
502.5,898.53,-0.6
505,901.13,-0.576
507.5,903.72,-0.667
510,906.34,-0.961
512.5,908.96,-0.912
515,911.57,-0.574
517.5,914.18,-0.604
520,916.86,-1.009
522.5,919.46,-0.321
525,922.06,-0.503
527.5,924.66,-0.742
530,927.22,-1.498
532.5,929.84,-1.375
535,932.45,-1.415
537.5,935.04,-1.864
540,937.65,-1.548
542.5,940.27,-1.147
545,942.85,-0.58
547.5,945.41,-0.089
550,947.97,-0.81
552.5,950.6,-0.697
555,953.21,-0.7
557.5,955.84,-0.975
560,958.43,-1.594
562.5,960.98,-1.638
565,963.61,-2.029
567.5,966.22,-1.566
570,968.81,-1.115
572.5,971.39,-1.459
575,974.02,-1.214
577.5,976.69,-0.63
580,979.21,-1.144
582.5,981.83,-1.004
585,984.44,-0.572
587.5,987.05,-0.426
590,989.64,-0.912
592.5,992.27,-0.487
595,994.84,-0.217
597.5,997.46,0.129
600,1000.08,0.02
602,1002.19,0