File: Wood/Calibration_Data/IMT/IMT-Mines-Ales_TGA_N2_20K_R1.csv
Time (s),Sample Temperature (K),Weight (mg)
0,383.15,5.110
16,384.42,5.112
32,388.89,5.114
48,393.73,5.113
64,398.84,5.113
80,404.09,5.113
96,409.40,5.112
112,414.78,5.111
128,420.16,5.110
144,425.55,5.109
160,430.93,5.108
176,436.32,5.106
192,441.68,5.104
208,447.06,5.101
224,452.45,5.097
240,457.82,5.093
256,463.19,5.087
272,468.57,5.081
288,473.95,5.073
304,479.32,5.063
320,484.70,5.051
336,490.08,5.038
352,495.45,5.022
368,500.83,5.005
384,506.20,4.986
400,511.58,4.965
416,516.95,4.943
432,522.32,4.918
448,527.70,4.890
464,533.08,4.858
480,538.46,4.821
496,543.83,4.778
512,549.20,4.729
528,554.58,4.676
544,559.95,4.617
560,565.32,4.554
576,570.70,4.487
592,576.08,4.416
608,581.45,4.341
624,586.83,4.264
640,592.20,4.184
656,597.58,4.100
672,602.95,4.011
688,608.32,3.915
704,613.71,3.810
720,619.08,3.696
736,624.45,3.571
752,629.83,3.436
768,635.20,3.291
784,640.58,3.137
800,645.94,2.974
816,651.32,2.801
832,656.70,2.617
848,662.07,2.422
864,667.45,2.220
880,672.82,2.016
896,678.20,1.820
912,683.57,1.642
928,688.95,1.488
944,694.32,1.365
960,699.70,1.275
976,705.04,1.216
992,710.37,1.182
1008,715.71,1.159
1024,721.03,1.141
1040,726.37,1.125
1056,731.70,1.109
1072,737.04,1.095
1088,742.37,1.080
1104,747.70,1.066
1120,753.04,1.053
1136,758.37,1.040
1152,763.71,1.027
1168,769.04,1.015
1184,774.37,1.004
1200,779.71,0.994
1216,785.04,0.985
1232,790.38,0.976
1248,795.71,0.967
1264,801.04,0.959
1280,806.38,0.952
1296,811.71,0.945
1312,817.04,0.938
1328,822.38,0.932
1344,827.71,0.926
1360,833.05,0.920
1376,838.39,0.914
1392,843.71,0.908
1408,849.05,0.903
1424,854.38,0.897
1440,859.71,0.892
1456,865.06,0.887
1472,870.39,0.882
1488,875.72,0.877
1504,881.05,0.872
1520,886.39,0.868
1536,891.72,0.863
1552,897.06,0.859
1568,902.39,0.855
1584,907.72,0.851
1600,913.06,0.846
1616,918.40,0.842
1632,923.73,0.837
1648,929.07,0.833
1664,934.40,0.829
1680,939.73,0.826
1696,945.07,0.822
1712,950.40,0.818
1728,955.73,0.814
1744,961.07,0.810
1760,966.39,0.806
1776,971.73,0.803
1792,977.07,0.800
1808,982.40,0.797
1824,987.73,0.794
1840,993.07,0.792
1856,998.40,0.790
1872,1003.73,0.788
1888,1009.07,0.785
1904,1014.40,0.782
1920,1019.73,0.779
1936,1025.06,0.777
1952,1030.40,0.775
1968,1035.73,0.772
1984,1041.06,0.770
2000,1046.40,0.768
2016,1051.73,0.766
2032,1057.07,0.764
2048,1062.39,0.762
2064,1067.73,0.760
2080,1073.06,0.758
2096,1078.39,0.756
2112,1083.73,0.754
2128,1089.06,0.751
2144,1094.40,0.749
2160,1099.73,0.747
2176,1105.06,0.745
2192,1110.39,0.743
2208,1115.72,0.741
2224,1121.05,0.739
2240,1126.40,0.737
2256,1131.73,0.735
2272,1137.05,0.733
2288,1142.38,0.731
2304,1147.72,0.729
2320,1153.05,0.727
2336,1158.39,0.725
2352,1163.71,0.723
2368,1169.06,0.720
2388,779.49,0.950
2404,782.15,0.950
2420,784.83,0.940
2436,787.49,0.940
2452,790.16,0.940
2468,792.82,0.930
2484,795.49,0.930
2500,798.16,0.930
2516,800.83,0.920
2532,803.50,0.920
2548,806.16,0.920
2564,808.83,0.910
2580,811.49,0.910
2596,814.15,0.910
2612,816.83,0.900
2628,819.49,0.900
2644,822.16,0.900
2660,824.83,0.890
2676,827.50,0.890
2692,830.16,0.890
2708,832.83,0.890
2724,835.49,0.880
2740,838.16,0.880
2756,840.82,0.880
2772,843.50,0.880
2788,846.16,0.870
2804,848.83,0.870
2820,851.49,0.870
2836,854.16,0.870
2852,856.83,0.860
2868,859.49,0.860
2884,862.16,0.860
2900,864.83,0.860
2916,867.49,0.850
2932,870.16,0.850
2948,872.84,0.850
2964,875.50,0.850
2980,878.16,0.840
2996,880.83,0.840
3012,883.49,0.840
3028,886.17,0.840
3044,888.83,0.830
3060,891.50,0.830
3076,894.17,0.830
3092,896.83,0.830
3108,899.50,0.830
3124,902.17,0.820
3140,904.83,0.820
3156,907.50,0.820
3172,910.16,0.820
3188,912.83,0.810
3204,915.50,0.810
3220,918.17,0.810
3236,920.83,0.810
3252,923.50,0.810
3268,926.17,0.800
3284,928.83,0.800
3300,931.50,0.800
3316,934.17,0.800
3332,936.84,0.800
3348,939.51,0.800
3364,942.18,0.790
3380,944.84,0.790
3396,947.50,0.790
3412,950.17,0.790
3428,952.83,0.790
3444,955.50,0.790
3460,958.17,0.780
3476,960.83,0.780
3492,963.51,0.780
3508,966.17,0.780
3524,968.84,0.780
3540,971.50,0.780
3556,974.17,0.780
3572,976.84,0.770
3588,979.50,0.770
3604,982.17,0.770
3620,984.83,0.770
3636,987.50,0.770
3652,990.17,0.770
3668,992.83,0.770
3684,995.50,0.760
3700,998.17,0.760
3716,1000.84,0.760
3732,1003.50,0.760
3748,1006.17,0.760
3764,1008.84,0.760
3780,1011.51,0.760
3796,1014.17,0.760
3812,1016.84,0.750
3828,1019.51,0.750
3844,1022.17,0.750
3860,1024.84,0.750
3876,1027.51,0.750
3892,1030.18,0.750
3908,1032.83,0.750
3924,1035.50,0.750
3940,1038.17,0.750
3956,1040.84,0.740
3972,1043.50,0.740
3988,1046.17,0.740
4004,1048.83,0.740
4020,1051.50,0.740
4036,1054.17,0.740
4052,1056.83,0.740
4068,1059.49,0.740
4084,1062.17,0.740
4100,1064.84,0.730
4116,1067.51,0.730
4132,1070.17,0.730
4148,1072.83,0.730
4164,1075.50,0.730
4180,1078.16,0.730
4196,1080.83,0.730
4212,1083.50,0.730
4228,1086.17,0.730
4244,1088.83,0.730
4260,1091.50,0.720
4276,1094.17,0.720
4292,1096.84,0.720
4308,1099.50,0.720
4324,1102.17,0.720
4340,1104.83,0.720
4356,1107.50,0.720
4372,1110.17,0.720
4388,1112.84,0.720
4404,1115.50,0.720
4420,1118.17,0.710
4436,1120.83,0.710
4452,1123.49,0.710
4468,1126.16,0.710
4484,1128.83,0.710
4500,1131.50,0.710
4516,1134.17,0.710
4532,1136.82,0.710
4548,1139.49,0.710
4564,1142.16,0.700
4580,1144.83,0.700
4596,1147.50,0.700
4612,1150.17,0.700
4628,1152.83,0.700
4644,1155.49,0.700
4660,1158.16,0.700
4676,1160.83,0.700
4692,1163.50,0.700
4708,1166.16,0.690
4724,1168.83,0.690
4739,1171.32,0.690