File: Wood/Calibration_Data/IMT/IMT-Mines-Ales_Wood_Cone_50kW_hor_R1.csv
Time (s),Specimen mass (g),HRR (kW/m²)
0,119.80,4.59
10,120.33,2.94
20,120.05,142.59
30,118.84,219.54
40,117.53,194.27
50,116.55,168.78
60,115.45,152.40
70,114.63,143.55
80,113.65,134.18
90,113.04,131.83
100,112.25,126.20
110,111.44,125.74
120,110.65,118.35
130,109.94,114.07
140,109.24,110.99
150,108.53,111.51
160,107.85,110.17
170,107.22,108.36
180,106.55,107.40
190,105.84,106.70
200,105.24,107.74
210,104.62,105.57
220,103.97,102.77
230,103.25,103.12
240,102.64,99.63
250,101.94,104.01
260,101.34,100.13
270,100.64,100.13
280,100.04,103.44
290,99.35,100.74
300,98.74,101.85
310,98.13,105.84
320,97.42,99.76
330,96.84,99.59
340,96.32,98.49
350,95.72,100.43
360,95.02,98.73
370,94.42,99.97
380,93.74,99.59
390,93.15,94.37
400,92.54,98.59
410,91.94,98.43
420,91.32,97.01
430,90.64,99.77
440,90.12,96.75
450,89.42,98.13
460,88.82,98.56
470,88.24,99.67
480,87.52,101.06
490,86.93,100.93
500,86.22,100.80
510,85.72,103.16
520,85.04,101.94
530,84.34,101.50
540,83.73,101.69
550,83.04,101.77
560,82.54,102.49
570,81.93,101.80
580,81.32,103.99
590,80.62,104.70
600,79.93,104.35
610,79.41,105.77
620,78.83,102.89
630,78.22,106.16
640,77.42,105.10
650,76.83,103.62
660,76.23,108.22
670,75.62,110.25
680,74.91,106.40
690,74.16,109.12
700,73.63,110.74
710,72.93,110.32
720,72.31,111.44
730,71.71,114.89
740,71.03,115.83
750,70.19,115.00
760,69.63,115.02
770,69.01,114.61
780,68.33,116.19
790,67.63,116.60
800,67.03,119.33
810,66.32,119.65
820,65.63,120.12
830,64.93,120.17
840,64.13,124.66
850,63.53,128.45
860,62.71,126.65
870,62.13,130.56
880,61.41,130.00
890,60.70,131.88
900,59.93,133.68
910,59.22,138.35
920,58.42,138.67
930,57.73,139.74
940,56.92,141.52
950,56.14,141.82
960,55.32,142.79
970,54.42,146.12
980,53.51,151.18
990,52.81,151.97
1000,51.92,154.03
1010,51.11,155.74
1020,50.12,160.96
1030,49.41,162.85
1040,48.51,160.83
1050,47.52,165.70
1060,46.62,162.45
1070,45.70,163.22
1080,44.72,165.76
1090,43.65,167.60
1100,42.53,166.86
1110,41.91,166.63
1120,40.92,167.67
1130,40.01,165.73
1140,38.95,169.66
1150,38.13,164.44
1160,37.20,166.78
1170,36.32,162.66
1180,35.33,160.10
1190,34.42,158.50
1200,33.45,154.39
1210,32.54,152.74
1220,31.82,147.92
1230,30.88,142.48
1240,30.21,137.99
1250,29.41,137.83
1260,28.63,133.58
1270,27.93,128.89
1280,27.32,123.33
1290,26.61,119.50
1300,26.00,116.26
1310,25.32,114.28
1320,24.71,106.22
1330,24.29,104.02
1340,23.71,94.45
1350,23.30,90.62
1360,22.90,86.58
1370,22.40,82.74
1380,22.20,80.73
1390,21.82,71.11
1400,21.58,65.70
1410,21.29,64.37
1420,21.10,61.68
1430,20.87,55.14
1440,20.69,49.77
1450,20.59,48.09
1460,20.40,45.21
1470,20.19,44.88
1480,20.09,44.69
1490,19.90,45.38
1500,19.79,43.49
1510,19.70,42.92
1520,19.58,43.36
1530,19.39,42.49
1540,19.30,41.60
1550,19.18,42.79
1560,18.99,45.23
1570,18.90,42.84
1580,18.79,43.67
1590,18.70,45.14
1600,18.60,44.03
1610,18.39,42.90