File: Wood/Calibration_Data/IMT/IMT-Mines-Ales_Wood_TGA_O2-20_2K_R1.csv
Time (s),Temperature (K),Weight (mg)
0,383.15,4.993
79,385.21,4.993
158,387.82,4.993
237,390.46,4.992
316,393.10,4.991
395,395.73,4.991
474,398.37,4.990
553,401.00,4.989
632,403.65,4.988
711,406.28,4.987
790,408.92,4.986
869,411.55,4.984
948,414.20,4.983
1027,416.83,4.981
1106,419.47,4.979
1185,422.10,4.976
1264,424.74,4.974
1343,427.38,4.971
1422,430.01,4.968
1501,432.64,4.965
1580,435.29,4.961
1659,437.92,4.958
1738,440.55,4.953
1817,443.19,4.949
1896,445.82,4.944
1975,448.45,4.939
2054,451.09,4.935
2133,453.73,4.929
2212,456.37,4.924
2291,459.00,4.917
2370,461.64,4.911
2449,464.27,4.904
2528,466.91,4.897
2607,469.54,4.889
2686,472.18,4.880
2765,474.82,4.871
2844,477.45,4.861
2923,480.09,4.851
3002,482.72,4.840
3081,485.36,4.828
3160,487.99,4.815
3239,490.63,4.801
3318,493.26,4.786
3397,495.90,4.770
3476,498.53,4.753
3555,501.17,4.734
3634,503.80,4.714
3713,506.44,4.692
3792,509.07,4.669
3871,511.71,4.645
3950,514.35,4.619
4029,516.99,4.592
4108,519.62,4.563
4187,522.25,4.533
4266,524.88,4.501
4345,527.52,4.467
4424,530.16,4.432
4503,532.79,4.395
4582,535.43,4.356
4661,538.06,4.315
4740,540.70,4.271
4819,543.33,4.225
4898,545.97,4.176
4977,548.60,4.123
5056,551.24,4.067
5135,553.88,4.007
5214,556.51,3.943
5293,559.14,3.874
5372,561.78,3.798
5451,564.42,3.719
5530,567.05,3.631
5609,569.69,3.537
5688,572.32,3.434
5767,574.96,3.321
5846,577.60,3.197
5925,580.23,3.057
6004,582.87,2.895
6083,585.50,2.709
6162,588.14,2.505
6241,590.77,2.302
6320,593.40,2.127
6399,596.04,1.991
6478,598.67,1.889
6557,601.31,1.810
6636,603.94,1.746
6715,606.58,1.690
6794,609.22,1.641
6873,611.85,1.597
6952,614.49,1.557
7031,617.12,1.519
7110,619.76,1.485
7189,622.40,1.452
7268,625.03,1.420
7347,627.66,1.390
7426,630.29,1.361
7505,632.93,1.334
7584,635.57,1.306
7663,638.20,1.280
7742,640.83,1.254
7821,643.47,1.228
7900,646.11,1.203
7979,648.75,1.178
8058,651.39,1.152
8137,654.01,1.128
8216,656.65,1.102
8295,659.28,1.077
8374,661.92,1.051
8453,664.57,1.024
8532,667.19,0.998
8611,669.83,0.971
8690,672.47,0.943
8769,675.10,0.914
8848,677.74,0.885
8927,680.37,0.854
9006,683.00,0.823
9085,685.64,0.791
9164,688.28,0.758
9243,690.91,0.723
9322,693.55,0.689
9401,696.19,0.653
9480,698.82,0.616
9559,701.45,0.579
9638,704.09,0.542
9717,706.71,0.503
9796,709.36,0.465
9875,711.99,0.426
9954,714.63,0.386
10033,717.25,0.346
10112,719.89,0.305
10191,722.52,0.262
10270,725.15,0.220
10349,727.78,0.177
10428,730.42,0.135
10507,733.05,0.095
10586,735.69,0.060
10665,738.32,0.035
10744,740.95,0.020
10823,743.59,0.013
10902,746.21,0.010
10981,748.86,0.009
11060,751.48,0.008
11139,754.12,0.008
11218,756.75,0.007
11297,759.38,0.007
11376,762.02,0.006
11455,764.65,0.005
11534,767.29,0.005
11613,769.92,0.004
11692,772.55,0.004
11771,775.18,0.003
11850,777.82,0.003
11929,780.45,0.003
12008,783.09,0.002
12087,785.72,0.002
12166,788.35,0.002
12245,790.98,0.002
12324,793.62,0.002
12403,796.25,0.001
12482,798.88,0.001
12561,801.52,0.001
12640,804.15,0.001
12719,806.79,0.001
12798,809.42,0.001
12877,812.05,0.001
12956,814.68,0.000
13035,817.32,0.000
13114,819.95,0.000
13193,822.58,0.000
13272,825.22,0.000
13351,827.85,0.000
13430,830.48,-0.001
13509,833.12,0.000
13588,835.76,-0.001
13667,838.38,-0.001
13746,841.02,-0.001
13825,843.65,-0.001
13904,846.28,-0.001
13983,848.92,-0.001
14062,851.55,-0.001
14141,854.19,-0.002
14220,856.82,-0.002
14299,859.45,-0.002
14378,862.09,-0.002
14457,864.73,-0.002
14536,867.35,-0.002
14615,869.99,-0.002
14694,872.62,-0.002
14773,875.25,-0.003
14852,877.89,-0.003
14931,880.52,-0.003
15010,883.15,-0.003
15089,885.79,-0.003
15168,888.42,-0.003
15247,891.06,-0.003
15326,893.69,-0.003
15405,896.32,-0.003
15484,898.95,-0.004
15563,901.59,-0.003
15642,904.22,-0.004
15721,906.86,-0.004
15800,909.49,-0.004
15879,912.12,-0.004
15958,914.76,-0.004
16037,917.39,-0.004
16116,920.02,-0.004
16195,922.66,-0.004
16274,925.29,-0.004
16353,927.92,-0.004
16432,930.56,-0.004
16511,933.19,-0.004
16590,935.83,-0.004
16669,938.46,-0.005
16748,941.09,-0.005
16827,943.73,-0.005
16906,946.35,-0.005
16985,948.99,-0.005
17064,951.63,-0.005
17143,954.26,-0.005
17222,956.89,-0.005
17301,959.52,-0.005
17380,962.15,-0.005
17459,964.79,-0.005
17538,967.42,-0.005
17617,970.06,-0.005
17696,972.69,-0.006
17775,975.32,-0.006
17854,977.95,-0.006
17933,980.59,-0.006
18012,983.23,-0.006
18091,985.85,-0.006
18170,988.49,-0.006
18249,991.12,-0.006
18328,993.76,-0.006
18407,996.38,-0.006
18486,999.02,-0.006
18565,1001.65,-0.006
18644,1004.29,-0.006
18723,1006.92,-0.006
18802,1009.56,-0.006
18881,1012.19,-0.006
18960,1014.82,-0.006
19039,1017.45,-0.006
19118,1020.09,-0.007
19197,1022.72,-0.007
19276,1025.35,-0.007
19355,1027.99,-0.007
19434,1030.63,-0.007
19513,1033.26,-0.007
19592,1035.89,-0.007
19671,1038.52,-0.007
19750,1041.16,-0.007
19829,1043.79,-0.007
19908,1046.42,-0.007
19987,1049.05,-0.007
20066,1051.68,-0.007
20145,1054.32,-0.007
20224,1056.95,-0.007
20303,1059.59,-0.007
20382,1062.22,-0.007
20461,1064.85,-0.007
20540,1067.49,-0.007
20619,1070.12,-0.008
20698,1072.75,-0.007
20777,1075.39,-0.007
20856,1078.02,-0.007
20935,1080.65,-0.007
21014,1083.29,-0.008
21093,1085.92,-0.008
21172,1088.56,-0.008
21251,1091.19,-0.008
21330,1093.82,-0.008
21409,1096.45,-0.008
21488,1099.09,-0.008
21567,1101.72,-0.008
21646,1104.36,-0.008
21725,1106.99,-0.008
21804,1109.62,-0.008
21883,1112.26,-0.008
21962,1114.89,-0.009
22041,1117.52,-0.009
22120,1120.15,-0.009
22199,1122.79,-0.009
22278,1125.43,-0.009
22357,1128.05,-0.009
22436,1130.69,-0.009
22515,1133.32,-0.009
22594,1135.96,-0.010
22673,1138.59,-0.010
22752,1141.22,-0.010
22831,1143.85,-0.010
22910,1146.49,-0.010
22989,1149.12,-0.011
23068,1151.76,-0.011
23147,1154.39,-0.011
23226,1157.03,-0.011
23305,1159.65,-0.012
23384,1162.29,-0.012
23463,1164.92,-0.012
23542,1167.55,-0.012
23621,1170.19,-0.012
23699,1172.79,-0.013