File: Wood/Calibration_Data/IMT/IMT-Mines-Ales_Wood_TGA_O2-20_10K_R1.csv
Time (s),Temperature (K),Weight (mg)
0,383.15,5.006
16,383.86,5.007
32,386.10,5.008
48,388.53,5.008
64,391.07,5.008
80,393.67,5.007
96,396.31,5.007
112,398.98,5.007
128,401.65,5.007
144,404.33,5.006
160,407.01,5.006
176,409.69,5.006
192,412.38,5.005
208,415.05,5.005
224,417.74,5.004
240,420.43,5.003
256,423.11,5.002
272,425.80,5.001
288,428.47,5.000
304,431.16,4.999
320,433.83,4.997
336,436.51,4.996
352,439.19,4.994
368,441.87,4.992
384,444.54,4.991
400,447.22,4.988
416,449.90,4.986
432,452.58,4.983
448,455.25,4.980
464,457.93,4.977
480,460.60,4.973
496,463.28,4.969
512,465.97,4.965
528,468.64,4.961
544,471.32,4.956
560,473.99,4.951
576,476.67,4.946
592,479.35,4.940
608,482.02,4.934
624,484.70,4.927
640,487.38,4.920
656,490.05,4.912
672,492.73,4.903
688,495.41,4.894
704,498.09,4.885
720,500.77,4.876
736,503.44,4.865
752,506.11,4.854
768,508.79,4.842
784,511.47,4.830
800,514.15,4.815
816,516.83,4.802
832,519.50,4.786
848,522.18,4.769
864,524.86,4.750
880,527.53,4.729
896,530.21,4.707
912,532.89,4.683
928,535.57,4.657
944,538.24,4.630
960,540.92,4.602
976,543.60,4.572
992,546.27,4.541
1008,548.95,4.507
1024,551.63,4.472
1040,554.31,4.435
1056,556.98,4.397
1072,559.66,4.357
1088,562.34,4.315
1104,565.01,4.272
1120,567.69,4.226
1136,570.36,4.179
1152,573.05,4.129
1168,575.72,4.077
1184,578.40,4.021
1200,581.07,3.963
1216,583.75,3.900
1232,586.43,3.833
1248,589.11,3.762
1264,591.78,3.685
1280,594.46,3.602
1296,597.13,3.512
1312,599.81,3.416
1328,602.49,3.310
1344,605.16,3.195
1360,607.84,3.066
1376,610.53,2.919
1392,613.20,2.750
1408,615.87,2.556
1424,618.55,2.342
1440,621.22,2.132
1456,623.91,1.955
1472,626.59,1.827
1488,629.26,1.738
1504,631.94,1.674
1520,634.61,1.624
1536,637.29,1.583
1552,639.97,1.546
1568,642.64,1.513
1584,645.32,1.483
1600,647.99,1.454
1616,650.67,1.427
1632,653.35,1.401
1648,656.03,1.376
1664,658.71,1.352
1680,661.38,1.328
1696,664.06,1.305
1712,666.73,1.283
1728,669.41,1.260
1744,672.08,1.239
1760,674.77,1.217
1776,677.44,1.194
1792,680.12,1.172
1808,682.79,1.150
1824,685.48,1.127
1840,688.15,1.105
1856,690.82,1.082
1872,693.51,1.059
1888,696.19,1.036
1904,698.85,1.012
1920,701.53,0.988
1936,704.20,0.963
1952,706.86,0.938
1968,709.53,0.913
1984,712.19,0.887
2000,714.86,0.859
2016,717.53,0.831
2032,720.20,0.801
2048,722.85,0.769
2064,725.53,0.737
2080,728.19,0.704
2096,730.86,0.670
2112,733.53,0.635
2128,736.19,0.600
2144,738.86,0.564
2160,741.53,0.528
2176,744.20,0.492
2192,746.86,0.454
2208,749.53,0.416
2224,752.19,0.376
2240,754.87,0.334
2256,757.53,0.290
2272,760.19,0.243
2288,762.87,0.192
2304,765.38,0.025
2320,768.18,0.022
2336,770.86,0.020
2352,773.53,0.019
2368,776.20,0.019
2384,778.87,0.018
2400,781.53,0.018
2416,784.20,0.017
2432,786.86,0.017
2448,789.53,0.017
2464,792.20,0.017
2480,794.86,0.017
2496,797.54,0.017
2512,800.20,0.017
2528,802.87,0.017
2544,805.54,0.017
2560,808.20,0.017
2576,810.87,0.017
2592,813.54,0.017
2608,816.20,0.017
2624,818.87,0.017
2640,821.54,0.017
2656,824.21,0.016
2672,826.86,0.016
2688,829.54,0.016
2704,832.21,0.016
2720,834.87,0.016
2736,837.54,0.016
2752,840.20,0.016
2768,842.87,0.016
2784,845.54,0.016
2800,848.21,0.016
2816,850.87,0.016
2832,853.53,0.016
2848,856.20,0.016
2864,858.87,0.016
2880,861.54,0.016
2896,864.20,0.016
2912,866.87,0.016
2928,869.53,0.016
2944,872.21,0.016
2960,874.87,0.016
2976,877.54,0.016
2992,880.20,0.016
3008,882.88,0.016
3024,885.54,0.016
3040,888.20,0.016
3056,890.87,0.016
3072,893.54,0.016
3088,896.20,0.015
3104,898.88,0.015
3120,901.54,0.015
3136,904.22,0.015
3152,906.87,0.015
3168,909.54,0.015
3184,912.21,0.015
3200,914.87,0.015
3216,917.54,0.015
3232,920.21,0.015
3248,922.88,0.015
3264,925.54,0.015
3280,928.21,0.015
3296,930.87,0.015
3312,933.55,0.015
3328,936.21,0.015
3344,938.88,0.015
3360,941.55,0.015
3376,944.21,0.015
3392,946.88,0.015
3408,949.55,0.015
3424,952.21,0.015
3440,954.88,0.015
3456,957.54,0.015
3472,960.21,0.015
3488,962.87,0.015
3504,965.54,0.015
3520,968.21,0.015
3536,970.88,0.015
3552,973.54,0.015
3568,976.21,0.015
3584,978.87,0.015
3600,981.54,0.015
3616,984.21,0.015
3632,986.87,0.015
3648,989.54,0.015
3664,992.21,0.015
3680,994.88,0.015
3696,997.54,0.015
3712,1000.21,0.015
3728,1002.88,0.015
3744,1005.54,0.016
3760,1008.21,0.015
3776,1010.88,0.015
3792,1013.54,0.015
3808,1016.21,0.015
3824,1018.88,0.015
3840,1021.54,0.015
3856,1024.21,0.015
3872,1026.88,0.015
3888,1029.55,0.015
3904,1032.21,0.015
3920,1034.88,0.015
3936,1037.54,0.015
3952,1040.22,0.015
3968,1042.88,0.015
3984,1045.54,0.015
4000,1048.21,0.015
4016,1050.88,0.015
4032,1053.54,0.015
4048,1056.21,0.015
4064,1058.87,0.015
4080,1061.54,0.015
4096,1064.21,0.015
4112,1066.87,0.015
4128,1069.54,0.015
4144,1072.21,0.015
4160,1074.87,0.015
4176,1077.55,0.015
4192,1080.21,0.015
4208,1082.88,0.015
4224,1085.54,0.015
4240,1088.21,0.015
4256,1090.88,0.015
4272,1093.54,0.015
4288,1096.21,0.014
4304,1098.87,0.014
4320,1101.54,0.014
4336,1104.20,0.014
4352,1106.88,0.014
4368,1109.55,0.014
4384,1112.20,0.014
4400,1114.87,0.014
4416,1117.54,0.014
4432,1120.21,0.014
4448,1122.87,0.014
4464,1125.54,0.014
4480,1128.21,0.014
4496,1130.87,0.014
4512,1133.54,0.014
4528,1136.20,0.013
4544,1138.88,0.013
4560,1141.55,0.013
4576,1144.21,0.013
4592,1146.88,0.013
4608,1149.54,0.013
4624,1152.20,0.013
4640,1154.88,0.013
4656,1157.55,0.013
4672,1160.21,0.013
4688,1162.87,0.013
4704,1165.54,0.012
4720,1168.20,0.012
4736,1170.87,0.012
4739,1171.37,0.012