File: Wood/Calibration_Data/IMT/IMT-Mines-Ales_Wood_MCC_O2-5_60K_R1.csv
Time (s),Temperature (K),HRR (W/g)
0,380.74,0
2.5,381.93,0.386
5,383.18,0.703
7.5,384.41,1.142
10,385.79,1.19
12.5,387.16,1.183
15,388.57,1.316
17.5,390.13,1.27
20,391.67,1.051
22.5,393.2,1.168
25,394.83,1.524
27.5,396.45,2.16
30,398.22,2.155
32.5,399.96,2.188
35,401.8,2.341
37.5,403.66,2.837
40,405.55,2.773
42.5,407.47,2.896
45,409.43,3.063
47.5,411.44,3.595
50,413.48,3.859
52.5,415.53,4.655
55,417.63,4.606
57.5,419.79,4.984
60,421.99,5.455
62.5,424.15,6.09
65,426.33,6.271
67.5,428.52,7.007
70,430.92,7.341
72.5,433.21,7.922
75,435.48,9.036
77.5,437.84,9.154
80,440.23,10.111
82.5,442.59,10.387
85,445.07,11.152
87.5,447.51,11.786
90,450,12.5
92.5,452.47,13.572
95,454.98,13.908
97.5,457.54,14.5
100,460.06,14.647
102.5,462.6,15.217
105,465.15,16.413
107.5,467.69,16.631
110,470.32,17.061
112.5,472.91,18.125
115,475.51,19.256
117.5,478.1,19.924
120,480.71,20.483
122.5,483.35,21.015
125,485.94,20.979
127.5,488.6,21.732
130,491.19,21.775
132.5,493.82,22.274
135,496.46,22.665
137.5,499,22.994
140,501.63,23.608
142.5,504.3,24.398
145,506.9,25.034
147.5,509.53,25.499
150,512.13,26.753
152.5,514.75,28.092
155,517.33,28.907
157.5,519.87,30.178
160,522.46,31.087
162.5,525.02,32.104
165,527.61,33.67
167.5,530.17,35.282
170,532.73,37.153
172.5,535.32,38.421
175,537.87,40.059
177.5,540.35,41.42
180,542.89,42.885
182.5,545.43,44.405
185,547.91,45.667
187.5,550.44,46.883
190,552.96,48.218
192.5,555.47,49.235
195,557.98,49.878
197.5,560.45,51.049
200,562.92,51.843
202.5,565.4,52.36
205,567.92,53.081
207.5,570.36,54.349
210,572.9,55.417
212.5,575.39,56.625
215,577.88,58.122
217.5,580.39,60.267
220,582.87,62.63
222.5,585.31,64.306
225,587.84,67.697
227.5,590.29,71.036
230,592.77,73.853
232.5,595.26,76.815
235,597.74,79.974
237.5,600.28,82.975
240,602.71,86.03
242.5,605.25,89.192
245,607.72,92.12
247.5,610.18,95.319
250,612.72,97.997
252.5,615.24,100.974
255,617.74,103.876
257.5,620.26,107.394
260,622.77,111.294
262.5,625.24,115.279
265,627.85,119.632
267.5,630.3,123.155
270,632.9,126.33
272.5,635.47,127.813
275,637.98,128.141
277.5,640.57,125.762
280,643.08,121.169
282.5,645.66,113.976
285,648.18,104.942
287.5,650.78,94.375
290,653.29,83.946
292.5,655.85,74.027
295,658.5,65.138
297.5,661.05,57.961
300,663.65,52.348
302.5,666.24,48.224
305,668.82,44.406
307.5,671.36,42.257
310,673.99,40.7
312.5,676.56,39.457
315,679.07,38.114
317.5,681.63,37.048
320,684.22,36.527
322.5,686.74,35.667
325,689.31,35.304
327.5,691.81,34.909
330,694.31,35.061
332.5,696.9,34.762
335,699.41,34.386
337.5,701.91,34.201
340,704.42,34.216
342.5,706.91,34.279
345,709.42,33.849
347.5,711.9,33.805
350,714.44,33.829
352.5,716.89,33.985
355,719.42,34.167
357.5,721.91,34.666
360,724.39,35.51
362.5,726.86,35.964
365,729.36,36.203
367.5,731.88,36.467
370,734.38,37.095
372.5,736.91,37.521
375,739.49,37.908
377.5,742.02,38.657
380,744.49,39.145
382.5,746.97,39.663
385,749.51,39.877
387.5,752.01,40.089
390,754.54,40.164
392.5,757.12,40.376
395,759.59,41.298
397.5,762.18,41.427
400,764.68,41.663
402.5,767.21,42.581
405,769.72,42.649
407.5,772.23,43.247
410,774.78,43.41
412.5,777.34,43.68
415,779.87,43.736
417.5,782.41,43.924
420,784.95,43.891
422.5,787.47,44.695
425,789.97,45.663
427.5,792.51,46.117
430,795.09,46.523
432.5,797.68,47.392
435,800.2,48.088
437.5,802.83,48.65
440,805.39,49.421
442.5,807.94,50.369
445,810.51,50.473
447.5,813.1,50.17
450,815.71,49.158
452.5,818.29,48.016
455,820.81,46.106
457.5,823.37,42.963
460,825.86,38.334
462.5,828.37,33.768
465,830.86,29.538
467.5,833.28,24.724
470,835.67,19.949
472.5,838.09,16.215
475,840.47,13.282
477.5,842.87,9.912
480,845.19,7.92
482.5,847.51,6.276
485,849.91,4.308
487.5,852.28,3.919
490,854.73,3.703
492.5,857.22,3.128
495,859.66,2.21
497.5,862.1,1.606
500,864.59,1.922
502.5,867.07,1.531
505,869.59,1.097
507.5,872.15,0.948
510,874.7,0.398
512.5,877.27,0.353
515,879.91,0.674
517.5,882.45,1.208
520,885.03,1.03
522.5,887.61,0.396
525,890.25,-0.383
527.5,892.89,-0.076
530,895.54,0.035
532.5,898.18,0.571
535,900.84,1.625
537.5,903.45,1.437
540,906.06,1.282
542.5,908.7,1.041
545,911.34,0.746
547.5,913.96,0.324
550,916.63,-0.112
552.5,919.3,-0.386
555,921.9,-0.713
557.5,924.53,-0.926
560,927.14,-0.865
562.5,929.78,0.047
565,932.42,1.458
567.5,935.03,1.758
570,937.73,1.617
572.5,940.33,1.744
575,942.93,1.765
577.5,945.53,0.99
580,948.13,1.153
582.5,950.79,0.631
585,953.4,0.569
587.5,956.05,0.083
590,958.66,-0.063
592.5,961.25,-0.224
595,963.88,-0.462
597.5,966.52,-0.052
600,969.13,-0.526
602.5,971.71,-0.367
605,974.34,-0.545
607.5,976.91,-0.461
610,979.54,-0.803
612.5,982.18,-0.629
615,984.78,-0.573
617.5,987.4,-0.571
620,990.03,-0.789
622.5,992.64,-0.299
624.5,994.73,0