File: Wood/Calibration_Data/IMT/IMT-Mines-Ales_TGA_N2_10K_R1.csv
Time (s),Sample Temperature (K),Weight (mg)
0,383.15,4.921
16,383.83,4.922
32,386.07,4.923
48,388.48,4.923
64,391.03,4.923
80,393.64,4.923
96,396.27,4.923
112,398.93,4.922
128,401.60,4.922
144,404.29,4.922
160,406.97,4.921
176,409.65,4.921
192,412.33,4.920
208,415.01,4.920
224,417.70,4.919
240,420.37,4.918
256,423.07,4.918
272,425.76,4.917
288,428.44,4.916
304,431.12,4.915
320,433.79,4.914
336,436.46,4.912
352,439.15,4.910
368,441.83,4.909
384,444.50,4.906
400,447.18,4.904
416,449.86,4.902
432,452.53,4.899
448,455.21,4.895
464,457.88,4.892
480,460.56,4.888
496,463.24,4.884
512,465.92,4.879
528,468.60,4.873
544,471.27,4.868
560,473.95,4.861
576,476.63,4.854
592,479.30,4.847
608,481.98,4.839
624,484.66,4.831
640,487.33,4.823
656,490.01,4.814
672,492.69,4.804
688,495.37,4.795
704,498.04,4.784
720,500.72,4.774
736,503.41,4.763
752,506.08,4.752
768,508.75,4.740
784,511.43,4.727
800,514.11,4.714
816,516.79,4.700
832,519.46,4.685
848,522.14,4.669
864,524.81,4.652
880,527.49,4.633
896,530.18,4.613
912,532.85,4.591
928,535.53,4.568
944,538.20,4.543
960,540.88,4.518
976,543.55,4.491
992,546.24,4.462
1008,548.91,4.433
1024,551.58,4.403
1040,554.26,4.371
1056,556.94,4.338
1072,559.62,4.305
1088,562.29,4.271
1104,564.97,4.236
1120,567.65,4.201
1136,570.33,4.165
1152,573.01,4.128
1168,575.68,4.090
1184,578.36,4.052
1200,581.03,4.012
1216,583.71,3.971
1232,586.39,3.928
1248,589.06,3.884
1264,591.74,3.838
1280,594.41,3.790
1296,597.09,3.739
1312,599.77,3.687
1328,602.45,3.632
1344,605.13,3.575
1360,607.80,3.514
1376,610.47,3.451
1392,613.15,3.386
1408,615.84,3.318
1424,618.51,3.247
1440,621.19,3.173
1456,623.86,3.098
1472,626.54,3.020
1488,629.21,2.940
1504,631.89,2.858
1520,634.56,2.774
1536,637.24,2.687
1552,639.92,2.597
1568,642.61,2.506
1584,645.28,2.411
1600,647.96,2.314
1616,650.63,2.215
1632,653.31,2.114
1648,655.98,2.013
1664,658.66,1.912
1680,661.34,1.812
1696,664.01,1.716
1712,666.68,1.624
1728,669.37,1.539
1744,672.04,1.462
1760,674.72,1.393
1776,677.40,1.333
1792,680.07,1.284
1808,682.75,1.245
1824,685.43,1.213
1840,688.11,1.190
1856,690.79,1.173
1872,693.46,1.159
1888,696.14,1.148
1904,698.81,1.138
1920,701.49,1.130
1936,704.15,1.121
1952,706.83,1.113
1968,709.49,1.106
1984,712.16,1.098
2000,714.82,1.091
2016,717.48,1.083
2032,720.16,1.076
2048,722.82,1.069
2064,725.49,1.062
2080,728.15,1.055
2096,730.82,1.049
2112,733.49,1.042
2128,736.15,1.035
2144,738.83,1.029
2160,741.49,1.023
2176,744.16,1.017
2192,746.82,1.011
2208,749.49,1.005
2224,752.15,0.999
2240,754.82,0.994
2256,757.49,0.988
2272,760.16,0.983
2288,762.82,0.978
2304,765.49,0.973
2320,768.15,0.969
2336,770.81,0.964
2352,773.49,0.960
2368,776.16,0.956
2384,778.83,0.951
2400,781.49,0.947
2416,784.16,0.943
2432,786.83,0.940
2448,789.49,0.936
2464,792.16,0.933
2480,794.83,0.929
2496,797.49,0.926
2512,800.15,0.923
2528,802.83,0.919
2544,805.49,0.916
2560,808.15,0.913
2576,810.82,0.910
2592,813.50,0.907
2608,816.16,0.904
2624,818.82,0.901
2640,821.49,0.898
2656,824.16,0.895
2672,826.83,0.893
2688,829.49,0.890
2704,832.16,0.887
2720,834.83,0.884
2736,837.49,0.882
2752,840.16,0.879
2768,842.83,0.876
2784,845.49,0.874
2800,848.16,0.871
2816,850.83,0.869
2832,853.50,0.866
2848,856.16,0.864
2864,858.83,0.861
2880,861.50,0.859
2896,864.17,0.856
2912,866.83,0.854
2928,869.50,0.851
2944,872.16,0.849
2960,874.83,0.847
2976,877.50,0.844
2992,880.17,0.842
3008,882.83,0.840
3024,885.50,0.837
3040,888.17,0.835
3056,890.83,0.833
3072,893.50,0.831
3088,896.16,0.828
3104,898.83,0.826
3120,901.50,0.824
3136,904.16,0.822
3152,906.83,0.820
3168,909.50,0.818
3184,912.17,0.815
3200,914.83,0.813
3216,917.50,0.811
3232,920.17,0.809
3248,922.83,0.807
3264,925.50,0.805
3280,928.17,0.804
3296,930.83,0.802
3312,933.50,0.800
3328,936.17,0.798
3344,938.83,0.796
3360,941.50,0.794
3376,944.17,0.793
3392,946.84,0.791
3408,949.50,0.789
3424,952.17,0.788
3440,954.83,0.786
3456,957.51,0.785
3472,960.16,0.783
3488,962.83,0.781
3504,965.50,0.780
3520,968.17,0.778
3536,970.84,0.777
3552,973.50,0.775
3568,976.17,0.774
3584,978.84,0.773
3600,981.51,0.771
3616,984.17,0.770
3632,986.84,0.769
3648,989.51,0.767
3664,992.17,0.766
3680,994.84,0.765
3696,997.50,0.763
3712,1000.17,0.762
3728,1002.84,0.761
3744,1005.50,0.760
3760,1008.17,0.759
3776,1010.84,0.757
3792,1013.50,0.756
3808,1016.17,0.755
3824,1018.84,0.754
3840,1021.50,0.753
3856,1024.17,0.752
3872,1026.83,0.750
3888,1029.50,0.749
3904,1032.18,0.748
3920,1034.84,0.747
3936,1037.50,0.746
3952,1040.17,0.745
3968,1042.84,0.744
3984,1045.50,0.743
4000,1048.17,0.742
4016,1050.84,0.741
4032,1053.51,0.740
4048,1056.17,0.739
4064,1058.83,0.737
4080,1061.50,0.736
4096,1064.17,0.735
4112,1066.84,0.734
4128,1069.49,0.733
4144,1072.17,0.732
4160,1074.84,0.731
4176,1077.50,0.730
4192,1080.16,0.729
4208,1082.84,0.728
4224,1085.50,0.727
4240,1088.16,0.726
4256,1090.83,0.725
4272,1093.49,0.724
4288,1096.17,0.723
4304,1098.84,0.722
4320,1101.49,0.721
4336,1104.17,0.720
4352,1106.83,0.719
4368,1109.50,0.718
4384,1112.16,0.717
4400,1114.83,0.716
4416,1117.50,0.714
4432,1120.17,0.713
4448,1122.83,0.713
4464,1125.50,0.712
4480,1128.16,0.710
4496,1130.84,0.709
4512,1133.50,0.708
4528,1136.16,0.707
4544,1138.83,0.706
4560,1141.50,0.705
4576,1144.17,0.704
4592,1146.84,0.702
4608,1149.50,0.701
4624,1152.16,0.700
4640,1154.83,0.699
4656,1157.50,0.698
4672,1160.16,0.697
4688,1162.82,0.696
4704,1165.50,0.694
4720,1168.15,0.693
4736,1170.83,0.691
4739,1171.32,0.691