File: Wood/Calibration_Data/IMT/IMT-Mines-Ales_Wood_Cone_75kW_hor_R1.csv
Time (s),Mass (g),HRR (kW/m²)
0,97.00,-0.04
10,95.11,226.95
20,93.72,222.53
30,92.52,180.08
40,91.53,153.97
50,90.42,138.75
60,89.60,127.18
70,88.72,121.38
80,88.02,113.28
90,87.22,111.00
100,86.52,107.24
110,85.81,103.65
120,85.10,101.86
130,84.41,101.52
140,83.70,100.95
150,83.00,100.94
160,82.42,99.76
170,81.80,98.66
180,81.10,96.16
190,80.50,95.71
200,79.82,94.92
210,79.21,93.83
220,78.50,93.01
230,77.82,91.10
240,77.11,91.85
250,76.51,90.91
260,75.92,92.57
270,75.22,89.10
280,74.65,86.00
290,74.10,85.09
300,73.31,85.05
310,72.80,87.10
320,72.11,85.15
330,71.49,84.14
340,70.90,83.81
350,70.31,86.39
360,69.61,81.22
370,69.02,81.77
380,68.41,85.08
390,67.81,83.97
400,67.21,82.09
410,66.61,82.60
420,66.01,81.29
430,65.49,78.40
440,64.89,80.35
450,64.29,81.42
460,63.60,82.45
470,63.11,81.61
480,62.52,80.45
490,61.99,83.49
500,61.31,80.92
510,60.71,82.88
520,60.19,81.03
530,59.60,82.07
540,58.99,81.33
550,58.39,82.73
560,57.89,84.49
570,57.29,83.20
580,56.69,84.67
590,56.10,88.46
600,55.50,85.83
610,54.99,84.75
620,54.39,88.10
630,53.79,90.33
640,53.21,89.88
650,52.52,87.59
660,51.99,90.71
670,51.20,96.22
680,50.73,96.05
690,50.19,94.92
700,49.49,96.26
710,48.88,100.80
720,48.20,101.97
730,47.52,103.09
740,46.90,103.35
750,46.19,105.25
760,45.51,109.16
770,44.80,111.76
780,44.10,111.73
790,43.40,113.33
800,42.70,114.31
810,41.97,119.31
820,41.10,119.25
830,40.50,122.01
840,39.61,124.52
850,38.71,127.05
860,37.90,130.64
870,37.19,133.56
880,36.38,132.89
890,35.50,131.76
900,34.70,134.97
910,33.78,139.67
920,32.90,138.06
930,31.98,137.73
940,31.08,139.12
950,30.30,139.76
960,29.39,141.10
970,28.42,142.84
980,27.60,143.40
990,26.68,146.69
1000,25.90,146.97
1010,25.00,148.10
1020,24.11,143.82
1030,23.38,139.21
1040,22.49,131.14
1050,21.79,126.81
1060,21.09,124.72
1070,20.41,113.87
1080,19.80,106.17
1090,19.28,97.32
1100,18.78,90.34
1110,18.38,82.86
1120,17.98,75.22
1130,17.68,70.18
1140,17.38,64.48
1150,17.08,57.91
1160,16.88,55.28
1170,16.68,51.16
1180,16.48,49.06
1190,16.30,45.91
1200,16.27,46.83
1210,16.08,45.04
1220,15.95,44.47
1230,15.77,42.65
1240,15.58,43.45
1250,15.47,41.33
1260,15.37,43.11
1270,15.28,41.64
1280,15.09,40.40
1290,14.89,41.13
1300,14.88,40.46
1310,14.77,38.51
1320,24.71,106.22
1330,24.29,104.02
1340,23.71,94.45
1350,23.30,90.62
1360,22.90,86.58
1370,22.40,82.74
1380,22.20,80.73
1390,21.82,71.11
1400,21.58,65.70
1410,21.29,64.37
1420,21.10,61.68
1430,20.87,55.14
1440,20.69,49.77
1450,20.59,48.09
1460,20.40,45.21
1470,20.19,44.88
1480,20.09,44.69
1490,19.90,45.38
1500,19.79,43.49
1510,19.70,42.92
1520,19.58,43.36
1530,19.39,42.49
1540,19.30,41.60
1550,19.18,42.79
1560,18.99,45.23
1570,18.90,42.84
1580,18.79,43.67
1590,18.70,45.14
1600,18.60,44.03
1610,18.39,42.90