File: Wood/Calibration_Data/IMT/IMT-Mines-Ales_Wood_MCC_O2-5_60K_R2.csv
Time (s),Temperature (K),HRR (W/g)
0,410.22,0
2,411.88,-0.122
4,413.55,0.181
6,415.21,1.534
8,416.88,2.403
10,418.66,3.661
12,420.39,4.019
14,422.15,4.262
16,423.91,4.016
18,425.75,3.709
20,427.5,3.963
22,429.24,3.692
24,431.1,3.097
26,432.96,3.727
28,434.72,3.537
30,436.62,3.616
32,438.47,3.864
34,440.36,3.976
36,442.27,4.71
38,444.22,4.843
40,446.13,5.38
42,448.05,6.351
44,450.02,6.276
46,451.98,7.267
48,453.93,7.646
50,455.86,8.419
52,457.87,9.079
54,459.87,9.872
56,461.82,10.784
58,463.89,11.618
60,465.9,11.909
62,467.93,12.919
64,469.94,13.683
66,471.94,14.005
68,473.97,14.342
70,476.04,15.594
72,478.09,15.612
74,480.14,16.265
76,482.15,16.797
78,484.24,17.079
80,486.28,17.532
82,488.4,18.158
84,490.47,18.784
86,492.53,19.273
88,494.57,20.655
90,496.68,20.951
92,498.72,21.482
94,500.77,21.694
96,502.83,22.788
98,504.9,23.465
100,506.97,24.314
102,509.05,24.953
104,511.12,26.431
106,513.19,27.601
108,515.3,28.324
110,517.33,29.639
112,519.35,30.855
114,521.34,32.004
116,523.43,33.152
118,525.51,34.261
120,527.51,35.611
122,529.62,36.832
124,531.67,38.042
126,533.7,39.352
128,535.73,40.735
130,537.76,42.587
132,539.81,44.034
134,541.81,45.796
136,543.81,46.971
138,545.83,47.869
140,547.87,49.524
142,549.89,50.582
144,551.9,51.656
146,553.88,52.549
148,555.92,53.685
150,557.9,54.306
152,559.91,55.365
154,561.9,56.012
156,563.9,57.259
158,565.89,57.906
160,567.88,59.187
162,569.87,60.493
164,571.9,61.322
166,573.9,62.397
168,575.9,63.982
170,577.88,66.041
172,579.9,68.165
174,581.87,69.646
176,583.86,71.691
178,585.85,73.992
180,587.83,76.598
182,589.83,79.619
184,591.84,81.964
186,593.81,84.674
188,595.86,87.651
190,597.85,90.321
192,599.86,92.806
194,601.85,95.577
196,603.8,98.321
198,605.81,101.268
200,607.84,103.446
202,609.81,105.968
204,611.8,108.743
206,613.87,111.405
208,615.87,114.453
210,617.89,117.406
212,619.94,120.465
214,621.94,123.781
216,623.96,127.734
218,625.98,130.899
220,628,133.337
222,630.07,135.275
224,632.09,135.954
226,634.12,135.667
228,636.15,133.843
230,638.21,130.603
232,640.23,126.137
234,642.31,120.852
236,644.31,114.552
238,646.35,107.064
240,648.42,99.888
242,650.5,92.042
244,652.55,84.68
246,654.58,76.825
248,656.64,70.158
250,658.7,63.954
252,660.71,58.405
254,662.79,53.913
256,664.83,50.502
258,666.9,47.457
260,668.98,45.32
262,671,43.372
264,673,42.063
266,675.09,40.592
268,677.12,39.913
270,679.17,39.019
272,681.2,38.647
274,683.23,38.113
276,685.26,37.529
278,687.26,36.827
280,689.31,36.966
282,691.32,36.738
284,693.35,36.793
286,695.4,36.57
288,697.48,36.161
290,699.42,36.742
292,701.47,36.445
294,703.44,36.688
296,705.44,36.513
298,707.4,36.715
300,709.47,37.19
302,711.43,37.017
304,713.45,37.177
306,715.45,37.241
308,717.43,36.952
310,719.44,37.297
312,721.45,37.48
314,723.45,37.758
316,725.42,38.034
318,727.45,38.253
320,729.39,38.657
322,731.4,38.588
324,733.38,38.817
326,735.45,38.753
328,737.5,39.128
330,739.52,39.691
332,741.5,39.971
334,743.56,40.492
336,745.52,40.861
338,747.55,40.937
340,749.57,40.948
342,751.64,40.918
344,753.63,41.075
346,755.71,41.643
348,757.71,42.063
350,759.77,42.72
352,761.81,43.423
354,763.82,43.344
356,765.84,44.748
358,767.84,44.996
360,769.86,45.844
362,771.85,46.394
364,773.91,46.792
366,775.94,47.312
368,778,47.753
370,780.03,48.389
372,782.1,49.098
374,784.14,50.105
376,786.13,50.961
378,788.16,51.394
380,790.19,52.079
382,792.23,52.763
384,794.32,52.713
386,796.38,52.768
388,798.43,52.213
390,800.47,52.055
392,802.51,51.154
394,804.56,50.371
396,806.59,49.091
398,808.63,47.889
400,810.65,47.089
402,812.67,45.937
404,814.7,44.746
406,816.71,43.479
408,818.78,42.558
410,820.8,41.227
412,822.8,39.833
414,824.79,38.174
416,826.82,35.885
418,828.77,32.763
420,830.8,29.153
422,832.73,25.534
424,834.69,21.958
426,836.64,18.518
428,838.59,16.005
430,840.51,12.804
432,842.5,10.719
434,844.4,8.392
436,846.3,7.112
438,848.24,6.25
440,850.17,4.753
442,852.13,4.209
444,854.06,3.755
446,856.05,3.265
448,858.04,2.111
450,860.01,2.206
452,862.01,1.552
454,863.99,1.512
456,866.01,0.799
458,868.02,0.526
460,870.03,0.103
462,872.1,-0.443
464,874.17,-0.551
466,876.21,-0.78
468,878.23,-1.265
470,880.34,-1.266
472,882.37,-1.54
474,884.47,-1.84
476,886.51,-1.67
478,888.62,-1.821
480,890.74,-2.17
482,892.78,-2.126
484,894.88,-2.291
486,897.08,-2.554
488,899.16,-2.652
490,901.27,-3.212
492,903.38,-2.678
494,905.44,-2.766
496,907.56,-2.976
498,909.66,-3.222
500,911.81,-3.487
502,913.91,-3.595
504,916.04,-3.875
506,918.16,-3.271
508,920.25,-3.474
510,922.37,-3.003
512,924.53,-3.255
514,926.54,-3.188
516,928.68,-2.958
518,930.73,-2.938
520,932.86,-2.087
522,934.96,-1.98
524,937.1,-1.727
526,939.24,-0.683
528,941.28,0.044
530,943.46,0.389
532,945.44,0.33
534,947.57,0.618
536,949.65,1.016
538,951.74,1.714
540,953.83,1.301
542,955.9,0.856
544,958.05,0.646
546,960.1,0.325
548,962.22,0.846
550,964.33,0.791
552,966.4,0.533
554,968.48,0.254
556,970.53,0.045
558,972.63,-0.021
560,974.74,0.618
562,976.82,1.275
564,978.91,1.834
566,981.01,1.237
568,983.05,1.173
570,985.18,0.495
572,987.23,0.534
573.5,988.78,0