File: Wood/Calibration_Data/IMT/IMT_Wood_TGA_O2-20_2K_R1.csv
Time (s),Temperature (K),Mass (mg)
0,383,4.993
103,386,4.993
193,389,4.992
283,392,4.992
373,395,4.991
462,398,4.99
553,401,4.989
642,404,4.988
732,407,4.987
822,410,4.985
912,413,4.983
1002,416,4.981
1092,419,4.979
1182,422,4.977
1271,425,4.974
1361,428,4.971
1451,431,4.967
1541,434,4.963
1631,437,4.959
1721,440,4.954
1811,443,4.949
1901,446,4.944
1991,449,4.939
2081,452,4.933
2171,455,4.927
2261,458,4.92
2351,461,4.913
2441,464,4.905
2531,467,4.897
2620,470,4.888
2710,473,4.878
2800,476,4.867
2890,479,4.855
2980,482,4.843
3070,485,4.829
3160,488,4.815
3250,491,4.799
3340,494,4.782
3430,497,4.763
3519,500,4.743
3609,503,4.721
3700,506,4.696
3790,509,4.67
3879,512,4.642
3969,515,4.613
4059,518,4.581
4149,521,4.547
4239,524,4.512
4329,527,4.474
4419,530,4.434
4509,533,4.392
4599,536,4.348
4689,539,4.3
4779,542,4.249
4869,545,4.194
4959,548,4.135
5049,551,4.072
5139,554,4.004
5228,557,3.931
5318,560,3.849
5408,563,3.761
5498,566,3.668
5588,569,3.562
5678,572,3.448
5768,575,3.32
5858,578,3.177
5948,581,3.012
6038,584,2.819
6128,587,2.594
6218,590,2.359
6307,593,2.153
6397,596,1.994
6487,599,1.879
6577,602,1.793
6667,605,1.723
6757,608,1.664
6847,611,1.611
6937,614,1.564
7027,617,1.521
7117,620,1.482
7207,623,1.445
7297,626,1.409
7387,629,1.376
7477,632,1.343
7567,635,1.312
7657,638,1.282
7746,641,1.253
7836,644,1.223
7926,647,1.195
8016,650,1.166
8106,653,1.137
8196,656,1.109
8286,659,1.08
8376,662,1.05
8466,665,1.02
8556,668,0.99
8645,671,0.959
8736,674,0.926
8826,677,0.893
8916,680,0.859
9006,683,0.823
9096,686,0.786
9185,689,0.749
9275,692,0.709
9365,695,0.669
9455,698,0.628
9545,701,0.586
9635,704,0.543
9725,707,0.5
9815,710,0.456
9905,713,0.411
9995,716,0.365
10085,719,0.319
10175,722,0.271
10265,725,0.222
10355,728,0.174
10445,731,0.124
10535,734,0.082
10625,737,0.046
10715,740,0.024
10805,743,0.014
10895,746,0.011
10985,749,0.009
11075,752,0.008
11165,755,0.007
11255,758,0.007
11345,761,0.006
11435,764,0.005
11525,767,0.005
11615,770,0.004
11705,773,0.004
11795,776,0.003
11885,779,0.003
11975,782,0.002
12065,785,0.002
12155,788,0.002
12245,791,0.002
12335,794,0.002
12425,797,0.001
12515,800,0.001
12605,803,0.001
12695,806,0.001
12785,809,0.001
12875,812,0.001
12965,815,0
13055,818,0
13145,821,0
13235,824,0
13325,827,0
13415,830,0
13505,833,0
13595,836,-0.001
13685,839,-0.001
13775,842,-0.001
13865,845,-0.001
13955,848,-0.001
14045,851,-0.002
14135,854,-0.002
14225,857,-0.002
14315,860,-0.002
14405,863,-0.002
14495,866,-0.002
14585,869,-0.002
14675,872,-0.002
14765,875,-0.003
14855,878,-0.003
14945,881,-0.003
15035,884,-0.003
15125,887,-0.003
15215,890,-0.003
15305,893,-0.003
15395,896,-0.003
15485,899,-0.004
15575,902,-0.003
15665,905,-0.004
15755,908,-0.004
15845,911,-0.004
15935,914,-0.004
16025,917,-0.004
16115,920,-0.004
16205,923,-0.004
16295,926,-0.004
16385,929,-0.004
16475,932,-0.004
16565,935,-0.004
16655,938,-0.005
16745,941,-0.005
16835,944,-0.005
16925,947,-0.005
17015,950,-0.005
17105,953,-0.005
17195,956,-0.005
17285,959,-0.005
17375,962,-0.005
17465,965,-0.005
17555,968,-0.005
17645,971,-0.005
17735,974,-0.006
17825,977,-0.006
17915,980,-0.006
18005,983,-0.006
18095,986,-0.006
18185,989,-0.006
18275,992,-0.006
18365,995,-0.006
18455,998,-0.006
18545,1001,-0.006
18635,1004,-0.006
18725,1007,-0.006
18815,1010,-0.006
18905,1013,-0.006
18995,1016,-0.006
19085,1019,-0.006
19175,1022,-0.007
19265,1025,-0.007
19355,1028,-0.007
19445,1031,-0.007
19535,1034,-0.007
19625,1037,-0.007
19715,1040,-0.007
19805,1043,-0.007
19895,1046,-0.007
19985,1049,-0.007
20075,1052,-0.007
20165,1055,-0.007
20255,1058,-0.007
20345,1061,-0.007
20435,1064,-0.007
20525,1067,-0.007
20615,1070,-0.008
20705,1073,-0.007
20795,1076,-0.007
20885,1079,-0.007
20975,1082,-0.007
21065,1085,-0.008
21155,1088,-0.008
21245,1091,-0.008
21335,1094,-0.008
21425,1097,-0.008
21515,1100,-0.008
21605,1103,-0.008
21695,1106,-0.008
21785,1109,-0.008
21875,1112,-0.008
21965,1115,-0.009
22055,1118,-0.009
22145,1121,-0.009
22235,1124,-0.009
22325,1127,-0.009
22415,1130,-0.009
22505,1133,-0.009
22595,1136,-0.01
22685,1139,-0.01
22775,1142,-0.01
22865,1145,-0.01
22955,1148,-0.01
23045,1151,-0.011
23135,1154,-0.011
23225,1157,-0.011
23315,1160,-0.012
23405,1163,-0.012
23495,1166,-0.012
23585,1169,-0.012
23675,1172,-0.012
23699,1173,-0.013