File: Wood/Calibration_Data/IMT/IMT_Wood_MCC_O2-2_60K_R1.csv
Time (s),Temperature (K),HRR (W/g)
0,397.99,0
2.5,399.52,0.207
5,401.09,0.382
7.5,402.78,0.582
10,404.43,1.419
12.5,406.16,1.366
15,407.88,1.179
17.5,409.63,1.474
20,411.51,1.86
22.5,413.37,2.03
25,415.22,2.204
27.5,417.13,2.785
30,419.12,3.261
32.5,421.1,3.783
35,423.09,4.405
37.5,425.18,4.662
40,427.18,5.158
42.5,429.28,5.647
45,431.4,5.815
47.5,433.5,5.998
50,435.62,6.055
52.5,437.79,6.742
55,439.99,7.211
57.5,442.16,7.752
60,444.44,8.98
62.5,446.75,9.233
65,448.98,12.486
67.5,451.32,12.088
70,453.67,12.326
72.5,456.03,13.17
75,458.41,14.468
77.5,460.85,15.746
80,463.21,16.655
82.5,465.7,17.679
85,468.14,19.077
87.5,470.6,20.327
90,473.07,21.763
92.5,475.58,23.101
95,478.1,23.581
97.5,480.59,24.955
100,483.14,25.926
102.5,485.66,26.337
105,488.24,27.098
107.5,490.79,27.609
110,493.38,28.064
112.5,495.92,28.572
115,498.5,29.064
117.5,501.08,29.37
120,503.68,29.789
122.5,506.24,30.159
125,508.89,30.878
127.5,511.46,31.58
130,514.04,32.502
132.5,516.6,33.752
135,519.18,35.123
137.5,521.76,36.313
140,524.33,37.353
142.5,526.92,39.037
145,529.51,40.901
147.5,532.06,42.547
150,534.59,43.01
152.5,537.16,45.539
155,539.72,46.424
157.5,542.24,48.197
160,544.81,49.206
162.5,547.34,50.154
165,549.91,51.065
167.5,552.45,51.584
170,554.94,52.67
172.5,557.47,53.354
175,559.97,54.203
177.5,562.47,54.869
180,564.95,55.859
182.5,567.48,56.764
185,569.96,57.846
187.5,572.49,59.015
190,574.99,60.726
192.5,577.47,62.579
195,579.97,65.439
197.5,582.39,67.711
200,584.89,70.243
202.5,587.4,72.799
205,589.85,75.86
207.5,592.37,78.814
210,594.82,82.144
212.5,597.33,85.359
215,599.82,88.898
217.5,602.29,91.647
220,604.74,94.623
222.5,607.28,97.229
225,609.74,99.683
227.5,612.26,102.265
230,614.73,105.395
232.5,617.25,107.918
235,619.79,110.078
237.5,622.29,111.96
240,624.75,113.545
242.5,627.32,114.61
245,629.81,117.184
247.5,632.35,119.453
250,634.88,121.031
252.5,637.36,123.288
255,639.89,125.375
257.5,642.43,126.805
260,644.9,126.156
262.5,647.43,124.159
265,650.01,119.643
267.5,652.53,112.389
270,655.01,104.452
272.5,657.58,96.046
275,660.1,86.385
277.5,662.63,76.319
280,665.27,66.372
282.5,667.8,57.517
285,670.34,49.845
287.5,672.92,43.652
290,675.6,42.113
292.5,677.97,37.216
295,680.62,33.255
297.5,683.25,30.042
300,685.74,26.988
302.5,688.33,25.532
305,690.85,24.487
307.5,693.33,25.452
310,695.89,26.023
312.5,698.45,26.422
315,701.06,26.889
317.5,703.56,27.062
320,706.06,27.507
322.5,708.48,28.005
325,711.13,28.73
327.5,713.52,28.798
330,716.12,28.185
332.5,718.73,25.688
335,721.18,24.177
337.5,723.71,23.545
340,726.04,24.317
342.5,728.7,24.986
345,731.13,26.201
347.5,733.7,26.966
350,736.24,28.618
352.5,738.88,29.21
355,741.35,29.842
357.5,743.82,30.442
360,746.34,31.557
362.5,748.88,31.783
365,751.39,32.336
367.5,753.87,32.048
370,756.48,30.571
372.5,758.98,28.765
375,761.5,27.918
377.5,764.03,28.174
380,766.5,28.751
382.5,769.08,30.436
385,771.57,32.085
387.5,774.13,33.249
390,776.65,34.371
392.5,779.2,35.177
395,781.74,36.051
397.5,784.21,36.829
400,786.76,37.032
402.5,789.26,37.911
405,791.8,38.102
407.5,794.35,37.037
410,796.88,35.458
412.5,799.49,33.6
415,802,33.364
417.5,804.56,33.672
420,807.06,35.046
422.5,809.64,36.146
425,812.2,37.655
427.5,814.73,38.748
430,817.36,39.742
432.5,819.92,40.542
435,822.45,41.366
437.5,825.04,42.633
440,827.54,43.568
442.5,830.12,43.672
445,832.7,41.879
447.5,835.32,40.028
450,837.87,38.904
452.5,840.48,38.463
455,843.02,39.498
457.5,845.51,40.175
460,848.1,41.462
462.5,850.68,42.82
465,853.26,43.471
467.5,855.86,44.231
470,858.48,44.31
472.5,861.07,44.794
475,863.62,44.898
477.5,866.12,44.191
480,868.74,42.793
482.5,871.32,38.688
485,873.89,35.624
487.5,876.46,34.628
490,879.05,34.774
492.5,881.61,35.587
495,884.2,35.174
497.5,886.75,34.593
500,889.26,32.626
502.5,891.82,30.464
505,894.36,28.199
507.5,896.92,25.552
510,899.44,22.997
512.5,901.93,19.646
515,904.4,16.043
517.5,906.87,11.425
520,909.27,6.593
522.5,911.78,20.944
525,914.23,11.403
527.5,916.76,7.676
530,919.27,5.627
532.5,921.78,4.23
535,924.29,4.492
537.5,926.77,4.319
540,929.32,4.828
542.5,931.85,4.789
545,934.4,5.29
547.5,937.01,5.083
550,939.61,5.646
552.5,942.18,6.206
555,944.87,5.97
557.5,947.38,4.614
560,950.01,2.081
562.5,952.55,-0.419
565,955.2,-1.349
567.5,957.86,-1.242
570,960.45,-0.37
572.5,963.1,0.792
575,965.73,2.297
577.5,968.36,2.518
580,970.97,4.011
582.5,973.63,4.963
585,976.28,4.797
587.5,978.88,5.102
590,981.46,5.913
592.5,984.1,5.981
595,986.75,6.369
597.5,989.4,5.185
600,992,2.942
602.5,994.62,0.985
605,997.28,-0.107
606,998.33,0