File: Wood/Calibration_Data/IMT/IMT_Wood_TGA_N2_5K_R1.csv
Time (s),Temperature (K),Mass (mg)
0,383,4.877
50,386,4.878
87,389,4.877
123,392,4.877
159,395,4.877
195,398,4.876
231,401,4.876
267,404,4.875
303,407,4.875
339,410,4.874
375,413,4.873
410,416,4.872
446,419,4.871
482,422,4.87
518,425,4.868
554,428,4.867
590,431,4.865
626,434,4.863
662,437,4.86
698,440,4.858
734,443,4.855
770,446,4.851
806,449,4.847
841,452,4.843
877,455,4.838
913,458,4.832
949,461,4.826
985,464,4.82
1021,467,4.813
1057,470,4.805
1093,473,4.797
1129,476,4.788
1165,479,4.779
1201,482,4.769
1237,485,4.759
1273,488,4.749
1309,491,4.738
1344,494,4.726
1380,497,4.714
1416,500,4.702
1452,503,4.688
1488,506,4.673
1524,509,4.656
1560,512,4.639
1596,515,4.62
1632,518,4.599
1668,521,4.576
1704,524,4.551
1740,527,4.525
1776,530,4.495
1812,533,4.467
1848,536,4.437
1883,539,4.405
1919,542,4.372
1955,545,4.338
1991,548,4.302
2027,551,4.266
2063,554,4.229
2099,557,4.19
2135,560,4.15
2171,563,4.108
2207,566,4.067
2243,569,4.022
2279,572,3.977
2315,575,3.929
2351,578,3.878
2386,581,3.826
2422,584,3.772
2458,587,3.714
2494,590,3.652
2530,593,3.588
2566,596,3.519
2602,599,3.446
2638,602,3.371
2674,605,3.292
2710,608,3.209
2746,611,3.122
2782,614,3.033
2818,617,2.941
2854,620,2.846
2890,623,2.748
2925,626,2.651
2961,629,2.547
2997,632,2.44
3033,635,2.329
3069,638,2.216
3105,641,2.101
3141,644,1.984
3177,647,1.866
3213,650,1.751
3249,653,1.641
3285,656,1.54
3321,659,1.45
3357,662,1.374
3393,665,1.311
3428,668,1.263
3464,671,1.227
3500,674,1.2
3536,677,1.181
3572,680,1.166
3608,683,1.154
3644,686,1.144
3680,689,1.134
3716,692,1.125
3752,695,1.117
3788,698,1.108
3824,701,1.099
3860,704,1.091
3896,707,1.083
3932,710,1.075
3968,713,1.067
4004,716,1.059
4040,719,1.052
4076,722,1.045
4112,725,1.037
4148,728,1.03
4184,731,1.023
4220,734,1.017
4256,737,1.01
4292,740,1.004
4328,743,0.998
4364,746,0.992
4400,749,0.986
4436,752,0.981
4472,755,0.976
4508,758,0.971
4544,761,0.966
4580,764,0.961
4616,767,0.957
4652,770,0.952
4688,773,0.948
4724,776,0.944
4760,779,0.94
4796,782,0.936
4832,785,0.933
4868,788,0.929
4904,791,0.925
4940,794,0.922
4976,797,0.918
5012,800,0.915
5048,803,0.912
5084,806,0.909
5120,809,0.905
5156,812,0.902
5192,815,0.899
5228,818,0.896
5264,821,0.893
5300,824,0.89
5336,827,0.887
5372,830,0.884
5408,833,0.881
5444,836,0.878
5480,839,0.875
5516,842,0.872
5552,845,0.869
5588,848,0.867
5624,851,0.864
5660,854,0.861
5696,857,0.858
5732,860,0.856
5768,863,0.853
5804,866,0.851
5840,869,0.848
5876,872,0.845
5912,875,0.843
5948,878,0.841
5984,881,0.838
6020,884,0.835
6056,887,0.833
6092,890,0.831
6128,893,0.828
6164,896,0.826
6200,899,0.824
6236,902,0.821
6272,905,0.819
6308,908,0.817
6344,911,0.815
6380,914,0.813
6416,917,0.811
6452,920,0.809
6488,923,0.807
6524,926,0.805
6560,929,0.803
6596,932,0.801
6632,935,0.799
6668,938,0.797
6704,941,0.795
6740,944,0.793
6776,947,0.792
6812,950,0.79
6848,953,0.788
6884,956,0.786
6920,959,0.785
6956,962,0.783
6992,965,0.782
7028,968,0.78
7064,971,0.779
7100,974,0.777
7136,977,0.776
7172,980,0.774
7208,983,0.773
7244,986,0.772
7280,989,0.77
7316,992,0.769
7352,995,0.767
7388,998,0.766
7424,1001,0.764
7460,1004,0.763
7496,1007,0.762
7532,1010,0.761
7568,1013,0.76
7604,1016,0.758
7640,1019,0.757
7676,1022,0.756
7712,1025,0.755
7748,1028,0.753
7784,1031,0.752
7820,1034,0.751
7856,1037,0.75
7892,1040,0.748
7928,1043,0.747
7964,1046,0.746
8000,1049,0.745
8036,1052,0.744
8072,1055,0.742
8108,1058,0.741
8144,1061,0.74
8180,1064,0.739
8216,1067,0.738
8252,1070,0.736
8288,1073,0.735
8324,1076,0.734
8360,1079,0.733
8396,1082,0.732
8432,1085,0.73
8468,1088,0.729
8504,1091,0.728
8540,1094,0.727
8576,1097,0.725
8612,1100,0.724
8648,1103,0.723
8684,1106,0.722
8720,1109,0.72
8756,1112,0.719
8792,1115,0.718
8828,1118,0.716
8864,1121,0.715
8900,1124,0.713
8936,1127,0.712
8972,1130,0.711
9008,1133,0.709
9044,1136,0.707
9080,1139,0.706
9116,1142,0.704
9152,1145,0.703
9188,1148,0.701
9224,1151,0.699
9260,1154,0.697
9296,1157,0.696
9332,1160,0.694
9368,1163,0.692
9404,1166,0.69
9440,1169,0.688
9476,1172,0.686
9479,1173,0.686