File: Wood/Calibration_Data/IMT/IMT_Wood_TGA_O2-20_20K_R1.csv
Time (s),Temperature (K),Mass (mg)
0,383,4.299
21,386,4.301
31,389,4.302
41,392,4.302
51,395,4.302
60,398,4.302
69,401,4.301
78,404,4.301
87,407,4.301
96,410,4.3
105,413,4.3
114,416,4.299
123,419,4.299
132,422,4.298
141,425,4.298
150,428,4.297
159,431,4.296
168,434,4.295
177,437,4.294
186,440,4.293
195,443,4.291
203,446,4.29
212,449,4.288
221,452,4.285
230,455,4.283
239,458,4.28
248,461,4.277
257,464,4.274
266,467,4.271
275,470,4.267
284,473,4.263
293,476,4.258
302,479,4.253
311,482,4.247
320,485,4.241
328,488,4.235
337,491,4.228
346,494,4.22
355,497,4.212
364,500,4.203
373,503,4.193
382,506,4.183
391,509,4.173
400,512,4.162
409,515,4.15
418,518,4.137
427,521,4.124
436,524,4.109
445,527,4.093
453,530,4.078
462,533,4.059
471,536,4.038
480,539,4.016
489,542,3.992
498,545,3.966
507,548,3.939
516,551,3.91
525,554,3.879
534,557,3.847
543,560,3.813
552,563,3.777
561,566,3.74
570,569,3.701
579,572,3.66
587,575,3.622
596,578,3.577
605,581,3.53
614,584,3.481
623,587,3.429
632,590,3.375
641,593,3.316
650,596,3.253
659,599,3.186
668,602,3.114
677,605,3.037
686,608,2.953
695,611,2.863
704,614,2.766
712,617,2.671
721,620,2.553
730,623,2.421
739,626,2.268
748,629,2.094
757,632,1.904
766,635,1.719
775,638,1.565
784,641,1.463
793,644,1.399
802,647,1.352
811,650,1.313
820,653,1.28
829,656,1.25
837,659,1.226
846,662,1.201
855,665,1.177
864,668,1.154
873,671,1.132
882,674,1.111
891,677,1.09
900,680,1.069
909,683,1.05
918,686,1.03
927,689,1.01
936,692,0.99
945,695,0.97
954,698,0.949
963,701,0.929
972,704,0.908
981,707,0.887
990,710,0.866
999,713,0.844
1008,716,0.823
1017,719,0.8
1026,722,0.778
1035,725,0.754
1044,728,0.73
1053,731,0.704
1062,734,0.678
1071,737,0.65
1080,740,0.622
1089,743,0.593
1098,746,0.563
1107,749,0.532
1116,752,0.502
1125,755,0.471
1134,758,0.439
1143,761,0.408
1152,764,0.375
1161,767,0.341
1170,770,0.306
1179,773,0.268
1187,776,0.23
1198,779,0.029
1206,782,0.018
1215,785,0.016
1224,788,0.014
1233,791,0.014
1242,794,0.013
1251,797,0.013
1260,800,0.012
1269,803,0.012
1278,806,0.012
1287,809,0.012
1295,812,0.012
1305,815,0.011
1314,818,0.011
1322,821,0.011
1331,824,0.011
1340,827,0.011
1350,830,0.011
1358,833,0.011
1368,836,0.01
1376,839,0.01
1385,842,0.01
1394,845,0.01
1404,848,0.01
1412,851,0.01
1422,854,0.009
1430,857,0.009
1439,860,0.009
1448,863,0.009
1457,866,0.009
1466,869,0.009
1475,872,0.009
1484,875,0.008
1493,878,0.008
1502,881,0.008
1511,884,0.008
1520,887,0.008
1529,890,0.008
1538,893,0.008
1547,896,0.007
1556,899,0.007
1565,902,0.007
1574,905,0.007
1583,908,0.007
1592,911,0.007
1601,914,0.006
1610,917,0.006
1619,920,0.006
1628,923,0.006
1637,926,0.006
1646,929,0.006
1655,932,0.006
1664,935,0.006
1673,938,0.005
1682,941,0.005
1691,944,0.005
1700,947,0.005
1709,950,0.005
1718,953,0.005
1727,956,0.005
1736,959,0.005
1745,962,0.005
1754,965,0.004
1763,968,0.004
1772,971,0.004
1781,974,0.004
1790,977,0.004
1799,980,0.004
1808,983,0.004
1817,986,0.003
1826,989,0.003
1835,992,0.003
1844,995,0.003
1853,998,0.003
1862,1001,0.003
1871,1004,0.003
1880,1007,0.003
1889,1010,0.003
1898,1013,0.003
1907,1016,0.003
1916,1019,0.002
1925,1022,0.002
1934,1025,0.002
1943,1028,0.002
1952,1031,0.002
1961,1034,0.002
1970,1037,0.002
1979,1040,0.002
1988,1043,0.002
1997,1046,0.002
2006,1049,0.002
2015,1052,0.001
2024,1055,0.001
2033,1058,0.001
2042,1061,0.001
2051,1064,0.001
2060,1067,0.001
2069,1070,0.001
2078,1073,0.001
2087,1076,0
2096,1079,0
2105,1082,0
2114,1085,0
2123,1088,0
2132,1091,-0.001
2141,1094,-0.001
2150,1097,-0.001
2159,1100,-0.001
2168,1103,-0.001
2177,1106,-0.002
2186,1109,-0.002
2195,1112,-0.002
2204,1115,-0.002
2213,1118,-0.002
2222,1121,-0.002
2231,1124,-0.002
2240,1127,-0.003
2249,1130,-0.003
2258,1133,-0.003
2267,1136,-0.003
2276,1139,-0.003
2285,1142,-0.003
2294,1145,-0.004
2303,1148,-0.004
2312,1151,-0.004
2321,1154,-0.004
2330,1157,-0.005
2339,1160,-0.005
2348,1163,-0.005
2357,1166,-0.005
2366,1169,-0.005
2369,1170,-0.006