File: Wood/Calibration_Data/IMT/IMT_Wood_TGA_N2_10K_R1.csv
Time (s),Temperature (K),Mass (mg)
0,383,4.921
31,386,4.923
51,389,4.923
70,392,4.923
88,395,4.923
106,398,4.922
124,401,4.922
142,404,4.922
160,407,4.921
178,410,4.921
196,413,4.92
213,416,4.92
231,419,4.919
249,422,4.918
267,425,4.917
285,428,4.916
303,431,4.915
321,434,4.913
339,437,4.912
357,440,4.91
375,443,4.908
392,446,4.905
410,449,4.903
428,452,4.899
446,455,4.896
464,458,4.892
482,461,4.887
500,464,4.882
518,467,4.877
536,470,4.871
554,473,4.864
572,476,4.856
590,479,4.848
608,482,4.839
626,485,4.83
643,488,4.821
661,491,4.811
679,494,4.8
697,497,4.789
715,500,4.777
733,503,4.765
751,506,4.752
769,509,4.739
787,512,4.725
805,515,4.71
823,518,4.694
841,521,4.676
859,524,4.657
877,527,4.636
894,530,4.615
912,533,4.591
930,536,4.565
948,539,4.537
966,542,4.508
984,545,4.477
1002,548,4.444
1020,551,4.41
1038,554,4.375
1056,557,4.338
1074,560,4.301
1092,563,4.263
1110,566,4.223
1128,569,4.183
1146,572,4.142
1163,575,4.102
1181,578,4.059
1199,581,4.014
1217,584,3.968
1235,587,3.92
1253,590,3.87
1271,593,3.817
1289,596,3.762
1307,599,3.704
1325,602,3.643
1343,605,3.578
1361,608,3.511
1379,611,3.439
1397,614,3.365
1414,617,3.291
1432,620,3.21
1450,623,3.126
1468,626,3.04
1486,629,2.95
1504,632,2.858
1522,635,2.763
1540,638,2.665
1558,641,2.563
1576,644,2.459
1594,647,2.351
1612,650,2.24
1630,653,2.127
1648,656,2.013
1666,659,1.899
1684,662,1.788
1701,665,1.687
1719,668,1.586
1737,671,1.495
1755,674,1.413
1773,677,1.344
1791,680,1.287
1809,683,1.243
1827,686,1.208
1845,689,1.184
1863,692,1.166
1881,695,1.152
1899,698,1.141
1917,701,1.131
1935,704,1.122
1953,707,1.113
1971,710,1.104
1989,713,1.096
2007,716,1.088
2025,719,1.079
2043,722,1.071
2061,725,1.063
2079,728,1.056
2097,731,1.048
2115,734,1.041
2133,737,1.033
2151,740,1.026
2169,743,1.019
2187,746,1.012
2205,749,1.006
2223,752,1
2241,755,0.993
2259,758,0.987
2277,761,0.982
2295,764,0.976
2313,767,0.971
2331,770,0.966
2349,773,0.961
2367,776,0.956
2385,779,0.951
2403,782,0.947
2421,785,0.942
2439,788,0.938
2457,791,0.934
2475,794,0.93
2493,797,0.927
2511,800,0.923
2529,803,0.919
2547,806,0.916
2565,809,0.912
2583,812,0.909
2601,815,0.905
2619,818,0.902
2637,821,0.899
2655,824,0.896
2673,827,0.892
2691,830,0.889
2709,833,0.886
2727,836,0.883
2745,839,0.88
2763,842,0.877
2781,845,0.874
2799,848,0.871
2817,851,0.868
2835,854,0.866
2853,857,0.863
2871,860,0.86
2889,863,0.857
2907,866,0.855
2925,869,0.852
2943,872,0.849
2961,875,0.847
2979,878,0.844
2997,881,0.841
3015,884,0.839
3033,887,0.836
3051,890,0.834
3069,893,0.831
3087,896,0.828
3105,899,0.826
3123,902,0.824
3141,905,0.821
3159,908,0.819
3177,911,0.816
3195,914,0.814
3213,917,0.812
3231,920,0.81
3249,923,0.807
3267,926,0.805
3285,929,0.803
3303,932,0.801
3321,935,0.799
3338,938,0.797
3357,941,0.795
3375,944,0.793
3393,947,0.791
3411,950,0.789
3429,953,0.787
3447,956,0.785
3465,959,0.784
3483,962,0.782
3500,965,0.78
3519,968,0.778
3537,971,0.777
3554,974,0.775
3573,977,0.774
3591,980,0.772
3608,983,0.771
3627,986,0.769
3645,989,0.768
3663,992,0.766
3680,995,0.765
3698,998,0.763
3717,1001,0.762
3734,1004,0.761
3752,1007,0.759
3771,1010,0.758
3789,1013,0.756
3807,1016,0.755
3825,1019,0.754
3843,1022,0.752
3860,1025,0.751
3879,1028,0.75
3897,1031,0.749
3914,1034,0.748
3933,1037,0.746
3950,1040,0.745
3969,1043,0.744
3987,1046,0.743
4005,1049,0.741
4023,1052,0.74
4041,1055,0.739
4058,1058,0.738
4077,1061,0.736
4095,1064,0.735
4112,1067,0.734
4131,1070,0.733
4149,1073,0.732
4166,1076,0.731
4185,1079,0.729
4202,1082,0.728
4221,1085,0.727
4239,1088,0.726
4257,1091,0.725
4275,1094,0.724
4292,1097,0.722
4311,1100,0.721
4329,1103,0.72
4347,1106,0.719
4365,1109,0.718
4383,1112,0.717
4401,1115,0.716
4419,1118,0.714
4437,1121,0.713
4455,1124,0.712
4473,1127,0.711
4491,1130,0.71
4509,1133,0.708
4527,1136,0.707
4545,1139,0.706
4563,1142,0.705
4581,1145,0.703
4599,1148,0.702
4617,1151,0.701
4635,1154,0.699
4653,1157,0.698
4671,1160,0.697
4689,1163,0.695
4707,1166,0.694
4725,1169,0.692
4739,1171.5,0.691