File: Wood/Calibration_Data/IMT/IMT_Wood_Cone_25kW_hor_R1.csv
Time (s),Mass (g),HRR (kW/m2)
0,103.20,3.09
10,102.59,1.75
20,102.40,0.32
30,102.30,-1.29
40,102.30,-0.45
50,102.20,1.05
60,102.10,-0.14
70,102.00,0.61
80,101.81,0.48
90,101.73,1.90
100,101.48,1.54
110,101.40,1.31
120,101.20,3.29
130,101.00,149.85
140,99.81,150.80
150,99.10,112.46
160,98.50,93.69
170,97.81,81.57
180,97.40,71.29
190,96.90,64.00
200,96.50,58.29
210,96.10,54.22
220,95.80,52.70
230,95.39,54.24
240,95.00,54.52
250,94.60,52.12
260,94.29,53.35
270,93.91,54.03
280,93.51,50.40
290,93.20,52.71
300,92.89,53.35
310,92.50,51.81
320,92.10,50.56
330,91.80,50.23
340,91.49,48.76
350,91.10,50.93
360,90.79,48.61
370,90.50,46.07
380,90.11,47.33
390,89.79,44.99
400,89.50,45.63
410,89.19,45.66
420,88.81,46.54
430,88.50,46.39
440,88.11,47.36
450,87.81,45.69
460,87.49,44.16
470,87.11,44.64
480,86.80,48.60
490,86.41,48.35
500,86.09,48.71
510,85.71,48.82
520,85.39,49.36
530,85.01,46.26
540,84.71,47.68
550,84.39,47.42
560,84.01,48.52
570,83.68,47.80
580,83.29,48.84
590,82.91,46.18
600,82.59,46.38
610,82.21,47.42
620,81.90,46.95
630,81.51,46.80
640,81.11,48.23
650,80.81,48.25
660,80.49,48.79
670,80.01,48.56
680,79.70,46.63
690,79.29,46.88
700,79.00,49.48
710,78.69,49.82
720,78.28,50.41
730,77.89,49.78
740,77.49,48.67
750,77.19,49.86
760,76.79,51.48
770,76.40,51.46
780,76.01,52.16
790,75.69,50.75
800,75.31,51.65
810,74.91,49.75
820,74.59,51.37
830,74.21,51.58
840,73.89,52.25
850,73.49,50.10
860,73.09,49.26
870,72.71,50.90
880,72.33,51.89
890,71.99,51.70
900,71.69,52.72
910,71.29,54.51
920,70.89,53.10
930,70.50,54.52
940,70.20,52.72
950,69.78,52.40
960,69.41,52.84
970,69.09,51.07
980,68.68,53.60
990,68.39,55.30
1000,68.00,56.69
1010,67.60,53.41
1020,67.29,54.27
1030,66.88,56.21
1040,66.48,55.92
1050,66.14,53.89
1060,65.78,56.58
1070,65.47,57.33
1080,65.08,56.28
1090,64.68,58.86
1100,64.39,56.82
1110,64.00,57.01
1120,63.60,58.03
1130,63.29,58.14
1140,62.88,58.26
1150,62.50,57.69
1160,62.19,60.15
1170,61.80,60.07
1180,61.49,60.92
1190,61.08,61.08
1200,60.68,61.45
1210,60.28,59.26
1220,59.98,61.08
1230,59.59,62.38
1240,59.20,63.03
1250,58.78,62.65
1260,58.39,64.04
1270,58.08,63.75
1280,57.68,63.66
1290,57.20,65.92
1300,56.88,68.01
1310,56.49,67.88
1320,55.99,68.31
1330,55.68,71.53
1340,55.18,69.51
1350,54.78,69.02
1360,54.38,68.74
1370,53.90,71.84
1380,53.50,75.73
1390,53.08,74.61
1400,52.59,77.04
1410,52.19,80.96
1420,51.70,79.85
1430,51.20,78.14
1440,50.78,81.72
1450,50.38,84.44
1460,49.88,84.39
1470,49.38,82.64
1480,48.88,85.30
1490,48.38,86.55
1500,47.88,86.39
1510,47.38,90.66
1520,46.88,90.34
1530,46.28,90.56
1540,45.78,86.58
1550,45.20,89.48
1560,44.69,90.13
1570,44.19,91.16
1580,43.68,91.90
1590,43.08,94.82
1600,42.50,97.11
1610,41.98,98.01
1620,41.40,98.05
1630,40.81,97.43
1640,40.29,99.20
1650,39.67,96.59
1660,39.18,100.86
1670,38.49,99.16
1680,37.90,99.86
1690,37.39,102.61
1700,36.77,104.52
1710,36.19,103.47
1720,35.67,100.84
1730,35.07,100.74
1740,34.49,99.97
1750,33.89,100.02
1760,33.29,100.60
1770,32.69,101.66
1780,32.19,96.96
1790,31.59,96.61
1800,31.09,97.01
1810,30.57,96.05
1820,29.99,93.47
1830,29.57,92.81
1840,28.98,92.44
1850,28.47,91.86
1860,27.97,87.99
1870,27.47,89.47
1880,26.98,88.63
1890,26.49,84.22
1900,25.99,83.74
1910,25.59,82.32
1920,25.17,80.11
1930,24.67,79.38
1940,24.27,78.87
1950,23.88,76.99
1960,23.47,72.20
1970,23.07,72.39
1980,22.69,71.21
1990,22.37,69.40
2000,21.99,65.74
2010,21.63,64.10
2020,21.29,61.65
2030,21.07,60.67
2040,20.77,57.44
2050,20.47,56.93
2060,20.17,53.97
2070,19.87,53.59
2080,19.67,50.82
2090,19.37,46.64
2100,19.17,47.98
2110,18.89,46.57
2120,18.77,45.13
2130,18.48,42.49
2140,18.37,38.13
2150,18.16,38.37
2160,17.97,36.27
2170,17.77,34.56
2180,17.57,37.82
2190,17.47,35.55
2200,17.27,33.99
2210,17.08,33.79
2220,16.97,32.80
2230,16.84,32.68
2240,16.67,32.64
2250,16.48,31.28
2260,16.38,29.02
2270,16.36,29.39
2280,16.17,28.53
2290,16.07,28.17
2300,15.97,28.06
2310,15.77,28.14
2320,15.77,27.48
2330,15.58,24.40
2340,15.54,23.69
2350,15.37,24.54
2360,15.27,24.33
2370,15.25,24.79
2380,15.07,25.36
2390,15.07,24.75
2400,14.89,24.21
2410,14.77,23.92