File: Wood/Calibration_Data/IMT/IMT_Wood_Cone_25kW_hor_R3.csv
Time (s),Mass (g),HRR (kW/m2)
0,200.94,0.52
10,200.90,0.79
20,200.90,-0.81
30,200.63,-0.13
40,200.70,4.86
50,200.60,3.15
60,200.42,1.27
70,200.32,2.41
80,200.21,3.12
90,199.91,7.78
100,200.00,6.45
110,199.77,0.97
120,199.62,112.24
130,198.61,159.66
140,197.70,138.26
150,196.81,116.26
160,196.13,100.82
170,195.60,86.78
180,195.01,76.54
190,194.50,69.23
200,194.10,64.69
210,193.70,59.86
220,193.30,55.67
230,192.90,52.64
240,192.60,51.30
250,192.20,49.51
260,191.80,47.75
270,191.41,46.89
280,191.10,45.86
290,190.72,45.34
300,190.42,46.26
310,190.10,45.82
320,189.71,46.22
330,189.41,44.37
340,189.09,44.58
350,188.80,44.39
360,188.42,46.02
370,188.11,47.26
380,187.71,44.81
390,187.41,45.62
400,187.09,43.78
410,186.80,44.33
420,186.41,42.03
430,186.09,42.01
440,185.80,40.85
450,185.49,42.23
460,185.09,40.00
470,184.71,40.97
480,184.41,38.70
490,184.10,39.08
500,183.77,39.59
510,183.41,41.05
520,183.10,39.88
530,182.71,39.11
540,182.41,39.14
550,182.10,39.81
560,181.79,38.47
570,181.39,39.01
580,181.00,39.09
590,180.69,39.79
600,180.31,36.90
610,180.01,35.54
620,179.71,37.65
630,179.31,38.07
640,178.99,36.63
650,178.69,36.31
660,178.31,37.74
670,178.01,35.77
680,177.63,37.44
690,177.31,37.50
700,176.99,40.35
710,176.61,38.58
720,176.29,39.34
730,175.99,37.33
740,175.59,39.58
750,175.29,38.01
760,174.91,39.41
770,174.60,39.61
780,174.29,38.10
790,174.00,39.74
800,173.61,39.15
810,173.29,37.10
820,172.99,40.22
830,172.59,40.71
840,172.29,41.11
850,171.99,38.73
860,171.69,40.14
870,171.29,39.39
880,170.99,41.03
890,170.69,40.95
900,170.40,40.98
910,170.09,41.23
920,169.79,42.22
930,169.40,40.07
940,169.10,42.36
950,168.79,41.49
960,168.49,39.64
970,168.19,40.83
980,167.80,43.25
990,167.50,39.72
1000,167.19,40.29
1010,166.83,41.76
1020,166.57,43.25
1030,166.29,42.89
1040,165.99,43.95
1050,165.68,43.58
1060,165.30,43.27
1070,164.99,44.15
1080,164.69,43.71
1090,164.39,42.70
1100,164.08,46.30
1110,163.79,47.22
1120,163.40,46.77
1130,163.08,45.39
1140,162.79,46.42
1150,162.48,46.56
1160,162.10,48.59
1170,161.79,47.78
1180,161.49,47.06
1190,161.09,49.96
1200,160.79,51.01
1210,160.49,50.81
1220,160.19,52.74
1230,159.89,51.82
1240,159.49,54.36
1250,159.10,54.40
1260,158.78,61.87
1270,158.30,61.01
1280,158.00,60.48
1290,157.60,62.60
1300,157.21,62.36
1310,156.92,63.13
1320,156.48,63.54
1330,156.09,64.97
1340,155.69,66.86
1350,155.28,66.46
1360,154.88,69.59
1370,154.48,68.14
1380,154.00,70.53
1390,153.60,69.10
1400,153.18,70.23
1410,152.70,72.83
1420,152.29,72.65
1430,151.80,72.71
1440,151.38,74.35
1450,150.78,72.75
1460,150.48,74.29
1470,149.99,73.54
1480,149.58,76.38
1490,149.08,78.57
1500,148.58,82.12
1510,148.00,81.31
1520,147.59,84.11
1530,147.09,81.51
1540,146.60,84.80
1550,146.10,86.82
1560,145.58,85.08
1570,145.08,85.61
1580,144.48,87.62
1590,143.98,84.19
1600,143.49,86.22
1610,142.98,87.44
1620,142.38,90.49
1630,141.88,92.39
1640,141.29,91.84
1650,140.70,92.96
1660,140.09,89.34
1670,139.68,91.86
1680,138.99,91.60
1690,138.48,91.96
1700,137.90,90.18
1710,137.38,88.17
1720,136.78,91.11
1730,136.28,90.97
1740,135.77,89.84
1750,135.09,89.94
1760,134.59,89.87
1770,134.09,89.90
1780,133.59,86.34
1790,133.08,84.98
1800,132.49,83.26
1810,131.99,85.24
1820,131.58,82.87
1830,131.07,78.88
1840,130.58,80.02
1850,130.08,76.73
1860,129.68,76.49
1870,129.27,73.72
1880,128.77,72.84
1890,128.29,72.47
1900,127.89,68.55
1910,127.57,66.06
1920,127.17,64.61
1930,126.77,61.19
1940,126.39,59.77
1950,126.08,61.10
1960,125.78,60.19
1970,125.42,56.26
1980,125.09,56.48
1990,124.69,54.71
2000,124.49,53.23
2010,124.18,50.57
2020,123.97,49.11
2030,123.77,47.21
2040,123.48,45.56
2050,123.27,42.75
2060,123.07,41.27
2070,122.87,40.57
2080,122.59,40.32
2090,122.47,37.43
2100,122.27,36.50
2110,121.99,35.32
2120,121.88,32.81
2130,121.78,33.19
2140,121.57,29.90
2150,121.47,28.83
2160,121.27,27.56
2170,121.17,24.91
2180,120.97,26.94
2190,120.87,27.03
2200,120.67,26.61
2210,120.57,25.59
2220,120.47,24.05
2230,120.37,23.48
2240,120.27,22.92
2250,120.08,22.22
2260,119.97,22.45
2270,119.97,22.59
2280,119.76,20.61
2290,119.67,21.49
2300,119.58,21.26
2310,119.45,22.24
2320,119.37,21.27
2330,119.27,22.57
2340,119.17,23.93
2350,119.07,21.64
2360,118.97,21.29
2370,118.86,22.60
2380,118.68,20.89
2390,118.67,21.39
2400,118.57,21.33
2410,118.47,20.63
2420,118.26,21.69
2430,118.19,19.26
2440,118.17,20.33