File: Wood/Calibration_Data/IMT/IMT_Wood_Cone_50kW_hor_R2.csv
Time (s),Mass (g),HRR (kW/m2)
0,96.00,2.77
10,94.00,1.27
20,93.41,192.59
30,92.10,177.85
40,91.20,143.14
50,90.31,130.67
60,89.60,121.24
70,88.81,112.59
80,88.20,106.05
90,87.42,99.11
100,86.81,99.57
110,86.20,92.11
120,85.52,90.46
130,84.83,88.59
140,84.40,87.26
150,83.73,85.86
160,83.21,82.25
170,82.69,81.92
180,82.11,83.01
190,81.52,81.21
200,80.89,83.01
210,80.50,81.61
220,79.89,79.85
230,79.39,81.30
240,78.81,80.52
250,78.20,81.25
260,77.61,78.90
270,77.11,77.84
280,76.59,78.88
290,76.01,76.71
300,75.60,77.07
310,74.99,77.30
320,74.41,79.99
330,73.91,77.32
340,73.31,74.87
350,72.82,74.62
360,72.29,73.54
370,71.70,76.45
380,71.21,75.91
390,70.69,76.26
400,70.11,76.00
410,69.61,76.18
420,69.11,74.53
430,68.51,74.32
440,68.01,75.18
450,67.49,76.27
460,66.89,77.54
470,66.40,76.95
480,65.91,73.35
490,65.39,72.30
500,64.89,73.14
510,64.31,73.65
520,63.89,76.08
530,63.29,72.15
540,62.80,73.32
550,62.29,74.51
560,61.79,74.26
570,61.29,75.55
580,60.70,74.50
590,60.20,76.02
600,59.70,77.34
610,59.10,76.65
620,58.70,75.50
630,58.20,76.25
640,57.72,76.48
650,57.21,76.50
660,56.70,76.93
670,56.21,79.00
680,55.69,77.49
690,55.20,77.58
700,54.69,77.16
710,54.18,80.66
720,53.70,79.40
730,53.19,81.53
740,52.59,83.70
750,52.10,81.74
760,51.60,83.19
770,51.00,81.89
780,50.50,85.72
790,49.98,87.77
800,49.46,86.10
810,48.88,88.11
820,48.29,88.30
830,47.80,89.84
840,47.28,92.06
850,46.60,92.54
860,46.09,95.43
870,45.50,95.45
880,44.90,97.14
890,44.30,97.78
900,43.78,99.33
910,43.10,102.28
920,42.50,101.70
930,41.90,104.06
940,41.37,107.05
950,40.60,107.25
960,40.09,108.06
970,39.38,109.63
980,38.70,111.89
990,38.00,114.45
1000,37.37,115.52
1010,36.60,112.06
1020,35.88,112.60
1030,35.29,114.50
1040,34.60,116.25
1050,33.91,115.79
1060,33.22,112.50
1070,32.58,114.98
1080,31.88,111.93
1090,31.18,113.04
1100,30.49,112.11
1110,29.89,114.48
1120,29.20,110.17
1130,28.49,112.73
1140,27.68,110.60
1150,27.19,106.49
1160,26.59,105.87
1170,26.00,101.96
1180,25.47,99.63
1190,24.77,95.32
1200,24.28,94.62
1210,23.79,92.80
1220,23.19,92.32
1230,22.69,91.95
1240,22.29,89.48
1250,21.69,88.71
1260,21.29,81.80
1270,20.79,79.85
1280,20.39,80.49
1290,19.97,75.17
1300,19.57,75.58
1310,19.17,72.00
1320,18.77,70.89
1330,18.39,68.97
1340,18.09,67.62
1350,17.77,64.64
1360,17.39,63.38
1370,17.08,59.88
1380,16.78,56.80
1390,16.57,56.62
1400,16.28,53.83
1410,16.07,52.87
1420,15.87,51.32
1430,15.57,47.78
1440,15.39,46.14
1450,15.18,44.50
1460,14.99,43.40
1470,14.79,42.97
1480,14.68,42.05
1490,14.57,41.83
1500,14.37,38.00
1510,14.17,38.65
1520,14.07,36.77
1530,13.97,36.35
1540,13.87,38.94
1550,13.67,38.19
1560,13.58,38.22
1570,13.39,38.47
1580,13.37,37.46
1590,13.28,35.89
1600,13.15,33.84
1610,12.97,35.76
1620,12.87,34.21
1630,12.87,33.49
1640,12.76,33.74
1650,12.57,33.28
1660,12.47,32.44
1670,12.38,33.61
1680,12.37,34.18
1690,12.19,34.54
1700,12.07,31.73
1710,12.06,32.18
1715,11.97,32.44