File: Wood/Calibration_Data/IMT/IMT_Wood_TGA_N2_20K_R1.csv
Time (s),Temperature (K),Mass (mg)
0,383,5.11
21,386,5.113
32,389,5.114
42,392,5.114
52,395,5.113
61,398,5.113
70,401,5.113
79,404,5.113
88,407,5.112
97,410,5.112
106,413,5.112
115,416,5.111
124,419,5.111
133,422,5.11
142,425,5.109
151,428,5.109
160,431,5.108
169,434,5.107
178,437,5.106
186,440,5.105
195,443,5.103
204,446,5.102
213,449,5.1
222,452,5.098
231,455,5.096
240,458,5.093
249,461,5.09
258,464,5.087
267,467,5.083
276,470,5.079
285,473,5.074
294,476,5.069
303,479,5.064
311,482,5.058
320,485,5.051
329,488,5.044
338,491,5.036
347,494,5.027
356,497,5.018
365,500,5.008
374,503,4.998
383,506,4.987
392,509,4.976
401,512,4.964
410,515,4.951
419,518,4.938
428,521,4.924
436,524,4.911
445,527,4.896
454,530,4.879
463,533,4.86
472,536,4.84
481,539,4.819
490,542,4.795
499,545,4.77
508,548,4.742
517,551,4.713
526,554,4.683
535,557,4.651
544,560,4.617
553,563,4.582
561,566,4.55
570,569,4.512
579,572,4.474
588,575,4.434
597,578,4.393
606,581,4.35
615,584,4.307
624,587,4.264
633,590,4.219
642,593,4.174
651,596,4.127
660,599,4.079
669,602,4.028
678,605,3.976
687,608,3.921
695,611,3.87
704,614,3.81
713,617,3.747
722,620,3.681
731,623,3.611
740,626,3.538
749,629,3.462
758,632,3.383
767,635,3.3
776,638,3.215
785,641,3.128
794,644,3.037
803,647,2.942
812,650,2.845
821,653,2.745
829,656,2.652
838,659,2.545
847,662,2.435
856,665,2.322
865,668,2.207
874,671,2.092
883,674,1.978
892,677,1.868
901,680,1.762
910,683,1.663
919,686,1.571
928,689,1.488
937,692,1.415
946,695,1.352
954,698,1.305
963,701,1.262
972,704,1.228
981,707,1.203
990,710,1.186
999,713,1.171
1008,716,1.159
1017,719,1.149
1026,722,1.139
1035,725,1.13
1044,728,1.121
1053,731,1.112
1062,734,1.104
1071,737,1.096
1080,740,1.087
1089,743,1.079
1098,746,1.072
1107,749,1.064
1116,752,1.056
1125,755,1.048
1134,758,1.041
1143,761,1.034
1152,764,1.027
1161,767,1.021
1170,770,1.014
1179,773,1.008
1188,776,1.002
1197,779,0.996
1206,782,0.99
1215,785,0.985
1224,788,0.98
1233,791,0.975
1242,794,0.97
1251,797,0.966
1260,800,0.961
1269,803,0.957
1278,806,0.952
1287,809,0.948
1296,812,0.945
1305,815,0.941
1314,818,0.938
1323,821,0.934
1332,824,0.93
1341,827,0.927
1350,830,0.923
1359,833,0.92
1368,836,0.917
1377,839,0.914
1386,842,0.91
1395,845,0.907
1404,848,0.904
1413,851,0.901
1422,854,0.898
1431,857,0.895
1440,860,0.892
1449,863,0.889
1458,866,0.887
1467,869,0.884
1476,872,0.881
1485,875,0.878
2979,878,0.84
2997,881,0.84
3015,884,0.84
3033,887,0.84
3051,890,0.83
3069,893,0.83
3087,896,0.83
3105,899,0.83
3123,902,0.82
3141,905,0.82
3159,908,0.82
3177,911,0.82
3195,914,0.81
3213,917,0.81
3231,920,0.81
3249,923,0.81
3267,926,0.81
3285,929,0.8
3303,932,0.8
3321,935,0.8
3338,938,0.8
3357,941,0.79
3375,944,0.79
3393,947,0.79
3411,950,0.79
3429,953,0.79
3447,956,0.79
3465,959,0.78
3483,962,0.78
3500,965,0.78
3519,968,0.78
3537,971,0.78
3554,974,0.78
3573,977,0.77
3591,980,0.77
3608,983,0.77
3627,986,0.77
3645,989,0.77
3663,992,0.77
3680,995,0.76
3698,998,0.76
3717,1001,0.76
3734,1004,0.76
3752,1007,0.76
3771,1010,0.76
3789,1013,0.76
3807,1016,0.76
3825,1019,0.75
3843,1022,0.75
3860,1025,0.75
3879,1028,0.75
3897,1031,0.75
3914,1034,0.75
3933,1037,0.75
3950,1040,0.74
3969,1043,0.74
3987,1046,0.74
4005,1049,0.74
4023,1052,0.74
4041,1055,0.74
4058,1058,0.74
4077,1061,0.74
4095,1064,0.74
4112,1067,0.73
4131,1070,0.73
4149,1073,0.73
4166,1076,0.73
4185,1079,0.73
4202,1082,0.73
4221,1085,0.73
4239,1088,0.73
4257,1091,0.72
4275,1094,0.72
4292,1097,0.72
4311,1100,0.72
4329,1103,0.72
4347,1106,0.72
4365,1109,0.72
4383,1112,0.72
4401,1115,0.72
4419,1118,0.71
4437,1121,0.71
4455,1124,0.71
4473,1127,0.71
4491,1130,0.71
4509,1133,0.71
4527,1136,0.71
4545,1139,0.71
4563,1142,0.7
4581,1145,0.7
4599,1148,0.7
4617,1151,0.7
4635,1154,0.7
4653,1157,0.7
4671,1160,0.7
4689,1163,0.7
4707,1166,0.69
4725,1169,0.69
4739,1171.5,0.69