File: Wood/Calibration_Data/IMT/IMT_Wood_Cone_25kW_hor_R5.csv
Time (s),Mass (g),HRR (kW/m2)
0,83.70,1.49
10,84.01,1.52
20,84.10,1.92
30,83.80,-0.72
40,83.92,0.78
50,83.81,0.03
60,83.62,2.48
70,83.51,0.21
80,83.31,-0.41
90,83.41,-1.72
100,83.04,-3.05
110,82.86,-0.99
120,82.89,-0.52
130,82.70,0.19
140,82.53,-0.34
150,82.61,-0.66
160,82.32,0.42
170,82.09,4.87
180,82.09,-0.74
190,81.90,1.37
200,81.60,0.57
210,81.52,1.13
220,81.40,4.80
230,81.22,4.10
240,81.12,2.82
250,80.92,4.30
260,80.81,6.43
270,80.63,6.39
280,80.52,6.29
290,80.22,77.05
300,79.52,115.09
310,78.82,102.64
320,78.20,88.96
330,77.70,80.07
340,77.12,71.14
350,76.62,62.77
360,76.22,58.52
370,75.80,55.78
380,75.40,52.61
390,75.00,48.63
400,74.70,49.12
410,74.32,46.95
420,74.00,46.13
430,73.60,43.22
440,73.30,43.62
450,73.00,42.76
460,72.60,43.60
470,72.31,44.58
480,71.91,43.85
490,71.60,43.85
500,71.22,44.28
510,70.90,45.30
520,70.50,45.01
530,70.20,45.85
540,69.90,46.63
550,69.52,46.87
560,69.12,46.25
570,68.81,44.22
580,68.50,47.28
590,68.12,48.21
600,67.80,47.83
610,67.50,47.92
620,67.10,46.01
630,66.71,45.62
640,66.39,45.16
650,66.02,47.44
660,65.70,45.11
670,65.40,46.53
680,65.00,47.37
690,64.62,47.33
700,64.30,46.66
710,64.00,44.11
720,63.60,46.69
730,63.20,46.88
740,62.90,48.01
750,62.51,48.95
760,62.20,48.36
770,61.82,47.66
780,61.50,47.70
790,61.10,46.98
800,60.72,47.10
810,60.40,48.82
820,60.01,47.11
830,59.61,47.92
840,59.32,46.45
850,58.92,44.48
860,58.60,47.29
870,58.21,46.73
880,57.90,45.41
890,57.51,46.29
900,57.20,49.37
910,56.79,50.49
920,56.51,50.95
930,56.12,48.73
940,55.80,47.96
950,55.41,49.15
960,55.09,49.74
970,54.69,47.06
980,54.40,51.35
990,53.99,52.29
1000,53.61,51.02
1010,53.29,51.35
1020,52.91,50.21
1030,52.59,50.82
1040,52.21,54.36
1050,51.89,53.41
1060,51.49,53.16
1070,51.20,52.85
1080,50.79,52.75
1090,50.41,54.49
1100,50.09,56.80
1110,49.69,56.54
1120,49.31,60.86
1130,48.99,58.95
1140,48.61,60.31
1150,48.19,59.97
1160,47.81,62.13
1170,47.39,62.11
1180,47.09,66.20
1190,46.69,68.13
1200,46.19,63.95
1210,45.80,64.55
1220,45.40,65.53
1230,44.99,65.71
1240,44.59,67.93
1250,44.19,70.22
1260,43.71,73.09
1270,43.29,71.89
1280,42.89,72.68
1290,42.41,70.75
1300,41.91,72.94
1310,41.49,73.91
1320,41.09,77.80
1330,40.60,74.30
1340,40.19,73.45
1350,39.69,73.45
1360,39.21,73.70
1370,38.70,76.16
1380,38.29,75.90
1390,37.88,76.43
1400,37.39,77.09
1410,36.90,74.14
1420,36.39,76.46
1430,35.99,77.17
1440,35.41,77.48
1450,35.00,78.03
1460,34.59,76.42
1470,34.00,76.11
1480,33.60,78.12
1490,33.09,79.01
1500,32.68,77.93
1510,32.15,75.39
1520,31.79,74.94
1530,31.30,75.47
1540,30.80,75.92
1550,30.30,76.04
1560,29.90,77.47
1570,29.49,74.00
1580,29.00,73.32
1590,28.60,73.79
1600,28.20,72.02
1610,27.80,71.34
1620,27.38,70.03
1630,26.90,69.40
1640,26.58,67.88
1650,26.18,66.02
1660,25.78,66.42
1670,25.38,63.55
1680,25.08,63.38
1690,24.68,62.10
1700,24.37,61.84
1710,24.09,58.50
1720,23.68,57.84
1730,23.30,58.77
1740,23.00,57.13
1750,22.70,53.34
1760,22.40,54.48
1770,22.09,55.71
1780,21.80,54.05
1790,21.60,51.30
1800,21.28,48.50
1810,21.06,47.20
1820,20.70,47.30
1830,20.48,46.72
1840,20.28,45.74
1850,20.06,44.03
1860,19.80,41.33
1870,19.67,38.22
1880,19.38,37.41
1890,19.18,35.02
1900,18.98,36.07
1910,18.78,33.46
1920,18.58,31.27
1930,18.38,33.48
1940,18.20,33.63
1950,18.08,31.59
1960,17.88,28.60
1970,17.68,29.84
1980,17.58,30.71
1990,17.38,28.15
2000,17.36,26.26
2010,17.08,26.65
2020,16.90,25.85
2030,16.79,24.50
2040,16.68,24.40
2050,16.51,25.11
2060,16.43,24.78
2070,16.36,22.25
2080,16.18,25.64
2090,16.08,24.03
2100,16.06,24.34
2110,15.88,22.31
2120,15.78,21.06
2130,15.68,24.00
2140,15.48,23.38
2150,15.38,21.71
2160,15.28,21.30
2170,15.18,20.62
2180,15.08,18.81
2190,15.07,22.75
2200,14.87,21.29
2210,14.78,19.78
2220,14.68,20.75
2230,14.58,21.96
2240,14.48,19.21
2250,14.38,21.80
2260,14.28,19.78