File: Wood/Calibration_Data/IMT/IMT_Wood_MCC_N2_60K_R1.csv
Time (s),Temperature (K),HRR (W/g)
0,398.9,0
2.5,400.59,0.14
5,402.44,0.299
7.5,404.12,0.623
10,405.99,0.588
12.5,407.83,0.816
15,409.71,0.763
17.5,411.67,0.985
20,413.63,1.205
22.5,415.66,1.181
25,417.73,1.317
27.5,419.71,1.443
30,421.87,1.496
32.5,423.98,2.129
35,426.13,2.019
37.5,428.32,2.005
40,430.51,2.624
42.5,432.74,2.771
45,434.98,3.313
47.5,437.23,3.802
50,439.55,3.858
52.5,441.92,4.857
55,444.33,5.037
57.5,446.71,5.833
60,449.09,6.089
62.5,451.58,6.863
65,454.02,7.864
67.5,456.44,7.93
70,458.95,8.646
72.5,461.44,9.566
75,463.97,10.624
77.5,466.52,11.87
80,469.1,12.643
82.5,471.61,13.603
85,474.19,13.215
87.5,476.76,14.321
90,479.34,14.48
92.5,481.92,15.052
95,484.51,15.675
97.5,487.1,15.7
100,489.75,16.034
102.5,492.3,16.511
105,494.97,16.169
107.5,497.51,16.325
110,500.11,16.698
112.5,502.72,17.485
115,505.35,18.753
117.5,507.92,19.778
120,510.55,19.889
122.5,513.13,20.97
125,515.75,22.273
127.5,518.27,23.132
130,520.86,23.976
132.5,523.4,24.761
135,525.97,26.398
137.5,528.53,27.659
140,531.16,29.198
142.5,533.67,30.993
145,536.25,31.884
147.5,538.76,34.252
150,541.27,35.234
152.5,543.78,36.865
155,546.27,38.261
157.5,548.79,39.869
160,551.32,40.762
162.5,553.85,41.233
165,556.33,42.125
167.5,558.8,42.871
170,561.29,43.288
172.5,563.78,43.483
175,566.25,43.833
177.5,568.73,44.903
180,571.29,45.714
182.5,573.78,46.315
185,576.28,47.649
187.5,578.71,48.383
190,581.25,50.066
192.5,583.7,51.637
195,586.13,53.69
197.5,588.64,55.908
200,591.12,57.948
202.5,593.71,60.341
205,596.1,62.915
207.5,598.63,64.866
210,601.12,67.846
212.5,603.54,70.048
215,606.07,72.722
217.5,608.57,74.704
220,611,76.565
222.5,613.52,79.159
225,616.07,81.282
227.5,618.51,83.842
230,621.05,86.143
232.5,623.52,88.74
235,626.06,91.116
237.5,628.59,93.644
240,631.09,95.982
242.5,633.64,98.594
245,636.14,101.006
247.5,638.68,104.151
250,641.17,106.662
252.5,643.7,110.092
255,646.24,112.702
257.5,648.72,115.22
260,651.26,118.33
262.5,653.75,120.93
265,656.28,121.817
267.5,658.81,120.256
270,661.35,117.482
272.5,663.85,112.298
275,666.42,106.226
277.5,668.95,98.203
280,671.47,88.306
282.5,674.07,77.867
285,676.6,66.754
287.5,679.12,56.45
290,681.72,47.291
292.5,684.23,39.539
295,686.76,33.503
297.5,689.32,29.08
300,691.89,25.382
302.5,694.48,22.297
305,697.05,20.333
307.5,699.59,18.737
310,702.15,17.383
312.5,704.68,16.049
315,707.24,15.058
317.5,709.75,14.261
320,712.26,13.134
322.5,714.84,12.003
325,717.34,10.619
327.5,719.83,9.879
330,722.37,9.198
332.5,724.88,9.105
335,727.43,9.264
337.5,729.93,9.404
340,732.49,9.297
342.5,734.98,8.979
345,737.53,8.411
347.5,740.04,8.318
350,742.6,7.785
352.5,745.06,7.022
355,747.58,6.605
357.5,750.09,6.201
360,752.64,5.936
362.5,755.22,5.263
365,757.69,5.265
367.5,760.25,4.989
370,762.78,4.317
372.5,765.22,3.954
375,767.8,3.363
377.5,770.31,3.26
380,772.83,2.811
382.5,775.43,2.385
385,777.94,1.84
387.5,780.47,1.102
390,782.98,1.173
392.5,785.44,1.027
395,788.01,1.206
397.5,790.48,0.899
400,793,1.31
402.5,795.61,1.801
405,798.17,1.831
407.5,800.7,2.118
410,803.21,1.603
412.5,805.79,1.715
415,808.33,1.888
417.5,810.9,1.706
420,813.5,1.486
422.5,816.01,1.494
425,818.56,1.625
427.5,821.13,1.743
430,823.69,1.62
432.5,826.21,1.096
435,828.79,0.789
437.5,831.36,0.664
440,833.87,-0.138
442.5,836.48,-0.912
445,839.04,-1.423
447.5,841.6,-1.104
450,844.17,-0.673
452.5,846.7,-0.471
455,849.27,-0.119
457.5,851.86,0.061
460,854.47,-0.022
462.5,857.04,0.158
465,859.58,0.644
467.5,862.14,0.778
470,864.7,0.63
472.5,867.25,0.321
475,869.84,0.276
477.5,872.4,0.231
480,874.99,-0.115
482.5,877.58,0.28
485,880.18,0.223
487.5,882.75,0.517
490,885.34,0.656
492.5,887.92,0.175
495,890.47,-0.094
497.5,893.03,0.049
500,895.64,-0.246
502.5,898.25,-0.601
505,900.83,-1.093
507.5,903.41,-1.766
510,905.97,-2.243
512.5,908.55,-1.887
515,911.16,-1.564
517.5,913.7,-1.387
520,916.34,-1.132
522.5,918.93,-0.907
525,921.51,-0.923
527.5,924.07,-0.842
530,926.62,0.044
532.5,929.23,0.094
535,931.84,0.452
537.5,934.41,0.24
540,937.02,0.423
542.5,939.63,0.217
545,942.19,0.168
547.5,944.78,-0.003
550,947.36,0.068
552.5,949.95,-0.594
555,952.55,-0.715
557.5,955.17,-0.386
560,957.78,-0.883
562.5,960.35,-1.25
565,962.97,-1.761
567.5,965.53,-2.776
570,968.1,-3.111
572.5,970.63,-2.253
575,973.26,-1.851
577.5,975.87,-1.711
580,978.42,-1.799
582.5,981.05,-1.525
585,983.67,-1.092
587.5,986.24,-0.644
590,988.87,-0.445
592.5,991.46,-0.495
595,994.09,-0.444
597.5,996.69,-0.178
600,999.33,-0.273
602.5,1001.98,0.02
605,1004.57,0.146
607.5,1007.24,0