File: Wood/Calibration_Data/IMT/IMT_Wood_TGA_O2-20_10K_R1.csv
Time (s),Temperature (K),Mass (mg)
0,383,5.006
31,386,5.008
51,389,5.008
69,392,5.008
88,395,5.007
106,398,5.007
124,401,5.007
142,404,5.007
159,407,5.006
177,410,5.006
195,413,5.005
213,416,5.004
231,419,5.004
249,422,5.003
267,425,5.002
285,428,5
303,431,4.999
321,434,4.997
339,437,4.996
356,440,4.994
374,443,4.992
392,446,4.989
410,449,4.987
428,452,4.984
446,455,4.981
464,458,4.977
482,461,4.973
500,464,4.969
518,467,4.964
536,470,4.959
554,473,4.953
572,476,4.947
589,479,4.941
607,482,4.934
625,485,4.927
643,488,4.919
661,491,4.909
679,494,4.899
697,497,4.889
715,500,4.879
733,503,4.867
751,506,4.855
769,509,4.841
787,512,4.827
805,515,4.811
823,518,4.795
840,521,4.778
858,524,4.757
876,527,4.734
894,530,4.71
912,533,4.683
930,536,4.654
948,539,4.624
966,542,4.591
984,545,4.557
1002,548,4.52
1020,551,4.481
1038,554,4.44
1056,557,4.397
1074,560,4.352
1092,563,4.305
1109,566,4.258
1127,569,4.206
1145,572,4.151
1163,575,4.093
1181,578,4.032
1199,581,3.966
1217,584,3.896
1235,587,3.82
1253,590,3.738
1271,593,3.649
1289,596,3.552
1307,599,3.447
1325,602,3.331
1343,605,3.202
1360,608,3.066
1378,611,2.899
1396,614,2.704
1414,617,2.477
1432,620,2.235
1450,623,2.016
1468,626,1.855
1486,629,1.748
1504,632,1.674
1522,635,1.619
1540,638,1.573
1558,641,1.534
1576,644,1.498
1594,647,1.465
1612,650,1.434
1629,653,1.406
1647,656,1.378
1665,659,1.351
1683,662,1.324
1701,665,1.298
1719,668,1.273
1737,671,1.248
1755,674,1.224
1773,677,1.199
1791,680,1.173
1809,683,1.148
1827,686,1.123
1845,689,1.098
1863,692,1.072
1880,695,1.048
1898,698,1.021
1916,701,0.994
1934,704,0.967
1952,707,0.938
1970,710,0.91
1988,713,0.88
2006,716,0.849
2024,719,0.816
2042,722,0.781
2060,725,0.745
2078,728,0.708
2096,731,0.67
2114,734,0.631
2132,737,0.591
2150,740,0.551
2168,743,0.51
2186,746,0.469
2204,749,0.425
2222,752,0.381
2240,755,0.334
2258,758,0.284
2276,761,0.231
2293,764,0.174
2313,767,0.023
2330,770,0.021
2348,773,0.02
2366,776,0.019
2384,779,0.018
2402,782,0.018
2420,785,0.017
2438,788,0.017
2456,791,0.017
2474,794,0.017
2492,797,0.017
2510,800,0.017
2528,803,0.017
2546,806,0.017
2564,809,0.017
2582,812,0.017
2600,815,0.017
2618,818,0.017
2636,821,0.017
2654,824,0.016
2672,827,0.016
2690,830,0.016
2708,833,0.016
2726,836,0.016
2744,839,0.016
2762,842,0.016
2780,845,0.016
2798,848,0.016
2816,851,0.016
2834,854,0.016
2852,857,0.016
2870,860,0.016
2888,863,0.016
2906,866,0.016
2924,869,0.016
2942,872,0.016
2960,875,0.016
2978,878,0.016
2996,881,0.016
3014,884,0.016
3032,887,0.016
3050,890,0.016
3068,893,0.016
3086,896,0.015
3104,899,0.015
3122,902,0.015
3140,905,0.015
3158,908,0.015
3176,911,0.015
3194,914,0.015
3212,917,0.015
3230,920,0.015
3248,923,0.015
3266,926,0.015
3284,929,0.015
3302,932,0.015
3320,935,0.015
3338,938,0.015
3356,941,0.015
3374,944,0.015
3392,947,0.015
3410,950,0.015
3428,953,0.015
3446,956,0.015
3464,959,0.015
3482,962,0.015
3500,965,0.015
3518,968,0.015
3536,971,0.015
3554,974,0.015
3572,977,0.015
3590,980,0.015
3608,983,0.015
3626,986,0.015
3644,989,0.015
3662,992,0.015
3680,995,0.015
3698,998,0.015
3716,1001,0.015
3734,1004,0.015
3752,1007,0.015
3770,1010,0.015
3788,1013,0.015
3806,1016,0.015
3824,1019,0.015
3842,1022,0.015
3860,1025,0.015
3878,1028,0.015
3896,1031,0.015
3914,1034,0.015
3932,1037,0.015
3950,1040,0.015
3968,1043,0.015
3986,1046,0.015
4004,1049,0.015
4022,1052,0.015
4040,1055,0.015
4058,1058,0.015
4076,1061,0.015
4094,1064,0.015
4112,1067,0.015
4130,1070,0.015
4148,1073,0.015
4166,1076,0.015
4184,1079,0.015
4202,1082,0.015
4220,1085,0.015
4238,1088,0.015
4256,1091,0.015
4274,1094,0.015
4292,1097,0.014
4310,1100,0.014
4328,1103,0.014
4346,1106,0.014
4364,1109,0.014
4382,1112,0.014
4400,1115,0.014
4418,1118,0.014
4436,1121,0.014
4454,1124,0.014
4472,1127,0.014
4490,1130,0.014
4508,1133,0.014
4526,1136,0.013
4544,1139,0.013
4562,1142,0.013
4580,1145,0.013
4598,1148,0.013
4616,1151,0.013
4634,1154,0.013
4652,1157,0.013
4670,1160,0.013
4688,1163,0.013
4706,1166,0.012
4724,1169,0.012
4739,1171.5,0.012