File: Wood/Calibration_Data/IMT/IMT_Wood_Cone_25kW_hor_R2.csv
Time (s),Mass (g),HRR (kW/m2)
0,92.80,3.94
10,91.00,3.59
20,90.90,2.63
30,90.87,0.19
40,90.90,2.02
50,90.65,4.51
60,90.63,1.43
70,90.72,-0.13
80,90.32,3.77
90,90.24,2.57
100,90.13,3.93
110,89.84,3.65
120,89.65,4.40
130,89.43,2.03
140,89.51,1.68
150,89.13,3.12
160,89.23,2.20
170,88.93,1.78
180,88.86,2.92
190,88.67,2.21
200,88.53,2.00
210,88.43,0.77
220,88.13,0.66
230,88.03,2.17
240,87.92,2.46
250,87.63,1.52
260,87.65,3.90
270,87.25,5.01
280,87.23,3.25
290,86.95,4.50
300,86.72,1.84
310,86.35,118.39
320,85.46,122.63
330,84.83,108.52
340,84.15,93.13
350,83.35,86.72
360,82.92,80.08
370,82.43,71.93
380,82.03,65.49
390,81.54,61.32
400,81.13,60.73
410,80.74,59.19
420,80.35,58.78
430,79.94,59.48
440,79.54,57.87
450,79.14,55.29
460,78.82,57.39
470,78.34,55.31
480,78.02,57.85
490,77.62,56.98
500,77.33,53.85
510,76.92,56.16
520,76.44,54.83
530,76.12,55.12
540,75.72,55.01
550,75.33,54.64
560,74.93,52.57
570,74.52,54.40
580,74.14,54.03
590,73.74,55.17
600,73.42,55.09
610,73.02,54.96
620,72.62,55.53
630,72.22,55.10
640,71.84,55.43
650,71.52,53.90
660,71.12,56.40
670,70.72,55.32
680,70.33,55.56
690,69.94,55.97
700,69.53,57.44
710,69.13,56.80
720,68.73,57.10
730,68.42,57.28
740,68.02,55.53
750,67.62,52.95
760,67.22,54.80
770,66.92,56.52
780,66.43,57.66
790,66.12,56.85
800,65.81,56.23
810,65.42,55.60
820,64.94,57.28
830,64.62,55.01
840,64.23,56.81
850,63.73,56.24
860,63.43,54.17
870,63.12,54.83
880,62.73,58.35
890,62.32,58.98
900,61.93,57.06
910,61.62,59.76
920,61.32,58.67
930,60.83,60.52
940,60.52,60.18
950,60.17,61.73
960,59.82,60.66
970,59.33,60.95
980,59.01,60.66
990,58.71,62.17
1000,58.32,60.22
1010,57.91,64.43
1020,57.51,64.64
1030,57.14,64.37
1040,56.73,62.53
1050,56.34,64.11
1060,56.02,65.69
1070,55.61,66.96
1080,55.33,65.88
1090,54.83,66.97
1100,54.51,66.59
1110,54.12,68.35
1120,53.63,67.62
1130,53.23,67.71
1140,52.83,69.72
1150,52.43,70.95
1160,52.03,71.09
1170,51.63,70.56
1180,51.23,68.96
1190,50.81,71.24
1200,50.41,73.79
1210,50.02,73.47
1220,49.53,74.07
1230,49.11,76.91
1240,48.73,75.57
1250,48.31,76.59
1260,47.82,76.14
1270,47.32,77.18
1280,46.93,78.54
1290,46.43,80.83
1300,46.01,81.34
1310,45.51,82.12
1320,45.03,81.93
1330,44.53,82.56
1340,44.11,84.38
1350,43.62,85.11
1360,43.11,85.93
1370,42.61,87.09
1380,42.13,91.66
1390,41.63,88.54
1400,41.11,88.30
1410,40.52,90.47
1420,40.01,92.57
1430,39.42,88.21
1440,38.92,91.85
1450,38.43,90.07
1460,37.83,90.52
1470,37.31,93.65
1480,36.81,96.36
1490,36.21,92.20
1500,35.71,92.13
1510,35.13,94.33
1520,34.61,95.89
1530,34.11,96.05
1540,33.52,96.24
1550,32.92,94.68
1560,32.35,94.18
1570,31.91,93.22
1580,31.31,93.66
1590,30.72,97.09
1600,30.20,94.08
1610,29.54,94.36
1620,29.12,91.81
1630,28.62,89.72
1640,28.13,91.67
1650,27.69,85.91
1660,27.04,85.89
1670,26.62,84.22
1680,26.19,81.86
1690,25.72,82.47
1700,25.31,80.90
1710,24.80,78.28
1720,24.41,76.32
1730,24.00,77.94
1740,23.51,77.19
1750,23.10,73.09
1760,22.80,70.86
1770,22.41,68.85
1780,22.01,66.33
1790,21.62,64.93
1800,21.31,62.87
1810,21.00,59.23
1820,20.70,59.84
1830,20.30,53.62
1840,20.02,53.78
1850,19.80,52.08
1860,19.51,49.28
1870,19.22,50.11
1880,18.92,48.19
1890,18.71,48.05
1900,18.51,45.63
1910,18.30,44.25
1920,18.00,43.22
1930,17.91,42.26
1940,17.70,39.08
1950,17.42,38.02
1960,17.22,37.33
1970,17.10,36.43
1980,16.90,36.91
1990,16.70,34.09
2000,16.60,34.47
2010,16.40,35.22
2020,16.20,31.34
2030,16.02,31.73
2040,15.92,32.90
2050,15.71,34.44
2060,15.60,34.64
2070,15.40,30.44
2080,15.22,31.88
2090,15.10,31.92
2100,15.00,30.93
2110,14.81,32.40
2120,14.70,30.92
2130,14.60,29.08
2140,14.50,28.61
2150,14.30,27.36
2160,14.12,27.78
2170,14.01,28.55
2180,13.92,27.61
2190,13.80,27.54
2200,13.70,26.85
2210,13.59,25.94
2220,13.51,26.52
2230,13.40,26.67
2240,13.22,26.64
2250,13.10,25.60
2260,13.00,26.37
2270,12.92,26.28
2280,12.80,24.28