File: Wood/Calibration_Data/IMT/IMT_Wood_Cone_50kW_hor_R3.csv
Time (s),Mass (g),HRR (kW/m2)
0,100.60,2.79
10,99.93,94.09
20,99.12,187.88
30,98.01,153.14
40,97.22,133.47
50,96.34,122.95
60,95.71,111.35
70,95.02,102.22
80,94.40,95.92
90,93.56,90.12
100,93.21,93.16
110,92.62,89.14
120,92.10,84.96
130,91.60,82.46
140,91.11,79.35
150,90.52,81.35
160,90.09,81.10
170,89.52,76.87
180,89.11,77.85
190,88.52,75.48
200,88.11,77.15
210,87.60,78.35
220,87.02,76.46
230,86.60,77.35
240,86.02,76.47
250,85.53,73.59
260,85.12,74.68
270,84.52,75.22
280,84.10,75.17
290,83.70,73.95
300,83.10,75.44
310,82.61,73.78
320,82.12,74.71
330,81.62,77.48
340,81.20,75.64
350,80.62,72.97
360,80.12,71.96
370,79.60,74.06
380,79.12,73.93
390,78.62,75.34
400,78.12,75.19
410,77.62,76.04
420,77.10,73.99
430,76.62,76.60
440,76.20,75.21
450,75.70,73.22
460,75.20,74.62
470,74.70,74.03
480,74.30,74.05
490,73.80,74.03
500,73.29,75.63
510,72.82,76.73
520,72.30,77.28
530,71.81,76.07
540,71.15,78.72
550,70.81,79.81
560,70.40,78.71
570,69.83,79.29
580,69.41,79.27
590,68.91,80.72
600,68.49,81.49
610,67.90,80.47
620,67.49,80.84
630,67.01,82.74
640,66.60,82.37
650,66.01,83.79
660,65.59,84.72
670,65.02,84.23
680,64.61,85.21
690,64.10,87.84
700,63.52,86.33
710,63.04,88.26
720,62.51,89.75
730,62.09,90.28
740,61.49,91.93
750,61.10,90.75
760,60.59,93.06
770,60.00,92.69
780,59.49,96.73
790,58.83,94.83
800,58.32,97.51
810,57.81,98.06
820,57.21,100.45
830,56.69,100.96
840,56.04,103.83
850,55.51,102.75
860,54.89,107.28
870,54.39,106.81
880,53.69,111.24
890,53.01,111.29
900,52.51,110.08
910,51.81,111.68
920,51.10,114.69
930,50.41,119.40
940,49.81,116.48
950,49.01,119.70
960,48.36,119.43
970,47.76,120.20
980,47.09,124.89
990,46.39,124.51
1000,45.69,123.83
1010,44.91,124.65
1020,44.30,126.96
1030,43.51,126.01
1040,42.74,128.18
1050,42.10,128.32
1060,41.39,132.80
1070,40.59,130.55
1080,39.89,131.23
1090,39.18,128.25
1100,38.50,127.50
1110,37.80,129.16
1120,37.00,125.94
1130,36.40,131.23
1140,35.68,126.17
1150,34.90,124.10
1160,34.30,124.02
1170,33.69,123.91
1180,33.00,120.62
1190,32.40,117.68
1200,31.79,121.23
1210,31.18,120.78
1220,30.58,118.26
1230,29.89,118.07
1240,29.30,114.16
1250,28.70,112.80
1260,28.18,112.54
1270,27.59,112.74
1280,27.08,110.40
1290,26.50,108.38
1300,26.02,108.67
1310,25.48,107.50
1320,24.98,103.83
1330,24.50,104.11
1340,23.90,102.48
1350,23.49,99.44
1360,22.97,97.64
1370,22.58,94.09
1380,22.10,95.48
1390,21.68,91.21
1400,21.28,90.12
1410,20.84,89.22
1420,20.48,86.64
1430,20.08,82.50
1440,19.69,81.83
1450,19.30,79.89
1460,18.89,76.94
1470,18.59,76.44
1480,18.29,73.20
1490,17.98,70.82
1500,17.78,68.04
1510,17.48,63.09
1520,17.28,59.42
1530,17.00,55.18
1540,16.90,49.91
1550,16.68,49.70
1560,16.48,50.77
1570,16.37,46.29
1580,16.28,41.66
1590,16.18,41.89
1600,16.08,43.17
1610,15.88,41.20
1620,15.77,41.09
1630,15.68,41.45
1640,15.48,39.67
1650,15.37,38.63
1660,15.28,39.58
1670,15.18,40.91
1680,15.08,39.63
1690,14.90,41.36
1700,14.87,41.73
1710,14.76,39.93
1720,14.67,38.82
1730,14.57,41.09
1740,14.38,40.38
1750,14.27,39.42
1760,14.19,37.91
1770,14.08,38.33
1775,13.99,40.13