File: Wood/Calibration_Data/IMT/IMT_Wood_TGA_N2_2K_R1.csv
Time (s),Temperature (K),Mass (mg)
0,383,4.975
103,386,4.975
193,389,4.974
283,392,4.973
373,395,4.972
463,398,4.971
553,401,4.97
642,404,4.968
732,407,4.967
822,410,4.965
912,413,4.963
1002,416,4.961
1092,419,4.959
1182,422,4.957
1272,425,4.954
1361,428,4.951
1451,431,4.947
1541,434,4.943
1631,437,4.939
1721,440,4.934
1811,443,4.928
1901,446,4.922
1991,449,4.915
2081,452,4.908
2171,455,4.901
2261,458,4.893
2351,461,4.884
2441,464,4.875
2530,467,4.866
2620,470,4.856
2711,473,4.845
2800,476,4.835
2890,479,4.823
2980,482,4.812
3070,485,4.799
3160,488,4.785
3250,491,4.771
3340,494,4.755
3430,497,4.738
3520,500,4.719
3610,503,4.698
3699,506,4.676
3790,509,4.652
3879,512,4.627
3970,515,4.598
4059,518,4.57
4149,521,4.54
4239,524,4.509
4329,527,4.476
4419,530,4.441
4509,533,4.408
4599,536,4.372
4689,539,4.334
4779,542,4.295
4869,545,4.254
4959,548,4.212
5049,551,4.167
5139,554,4.122
5229,557,4.073
5318,560,4.024
5408,563,3.97
5498,566,3.915
5588,569,3.859
5678,572,3.796
5768,575,3.731
5858,578,3.662
5948,581,3.589
6038,584,3.512
6128,587,3.431
6218,590,3.347
6308,593,3.257
6398,596,3.162
6487,599,3.066
6577,602,2.966
6667,605,2.862
6757,608,2.758
6847,611,2.647
6937,614,2.535
7027,617,2.419
7117,620,2.299
7207,623,2.174
7297,626,2.048
7387,629,1.92
7477,632,1.792
7567,635,1.669
7657,638,1.556
7747,641,1.459
7836,644,1.381
7926,647,1.323
8016,650,1.282
8106,653,1.254
8196,656,1.235
8286,659,1.221
8376,662,1.21
8466,665,1.199
8556,668,1.189
8646,671,1.179
8736,674,1.17
8826,677,1.161
8916,680,1.152
9006,683,1.143
9095,686,1.135
9185,689,1.127
9276,692,1.118
9365,695,1.111
9455,698,1.103
9545,701,1.095
9635,704,1.087
9725,707,1.08
9815,710,1.073
9905,713,1.066
9995,716,1.06
10085,719,1.053
10175,722,1.047
10265,725,1.041
10355,728,1.035
10445,731,1.03
10535,734,1.025
10625,737,1.02
10715,740,1.015
10805,743,1.01
10895,746,1.005
10985,749,1.001
11075,752,0.997
11165,755,0.993
11255,758,0.988
11345,761,0.984
11435,764,0.981
11525,767,0.977
11615,770,0.973
11705,773,0.969
11795,776,0.965
11885,779,0.962
11975,782,0.958
12065,785,0.955
12155,788,0.951
12245,791,0.948
12335,794,0.944
12425,797,0.941
12515,800,0.937
12605,803,0.934
12695,806,0.931
12785,809,0.927
12875,812,0.924
12965,815,0.921
13055,818,0.918
13145,821,0.914
13235,824,0.911
13325,827,0.908
13415,830,0.905
13505,833,0.902
13595,836,0.899
13685,839,0.896
13775,842,0.893
13865,845,0.89
13955,848,0.887
14045,851,0.884
14135,854,0.881
14225,857,0.879
14315,860,0.876
14405,863,0.873
14495,866,0.87
14585,869,0.867
14675,872,0.865
14765,875,0.862
14855,878,0.859
14945,881,0.857
15035,884,0.854
15125,887,0.851
15215,890,0.849
15305,893,0.847
15395,896,0.844
15485,899,0.842
15575,902,0.839
15665,905,0.837
15755,908,0.835
15845,911,0.832
15935,914,0.83
16025,917,0.828
16115,920,0.826
16205,923,0.823
16295,926,0.821
16385,929,0.819
16475,932,0.817
16565,935,0.816
16655,938,0.813
16745,941,0.811
16835,944,0.81
16925,947,0.808
17015,950,0.806
17105,953,0.804
17195,956,0.803
17285,959,0.801
17375,962,0.8
17465,965,0.798
17555,968,0.796
17645,971,0.795
17735,974,0.793
17825,977,0.792
17915,980,0.79
18005,983,0.788
18095,986,0.787
18185,989,0.785
18275,992,0.784
18365,995,0.782
18455,998,0.781
18545,1001,0.78
18635,1004,0.778
18725,1007,0.777
18815,1010,0.775
18905,1013,0.774
18995,1016,0.772
19085,1019,0.771
19175,1022,0.769
19265,1025,0.768
19355,1028,0.767
19445,1031,0.765
19535,1034,0.764
19625,1037,0.763
19715,1040,0.762
19805,1043,0.76
19895,1046,0.759
19985,1049,0.758
20075,1052,0.756
20165,1055,0.755
20255,1058,0.754
20345,1061,0.752
20435,1064,0.751
20525,1067,0.75
20615,1070,0.748
20705,1073,0.747
20795,1076,0.745
20885,1079,0.744
20975,1082,0.743
21065,1085,0.741
21155,1088,0.74
21245,1091,0.738
21335,1094,0.737
21425,1097,0.735
21515,1100,0.733
21605,1103,0.731
21695,1106,0.73
21785,1109,0.728
21875,1112,0.726
21965,1115,0.724
22055,1118,0.722
22145,1121,0.72
22235,1124,0.718
22325,1127,0.716
22415,1130,0.714
22505,1133,0.711
22595,1136,0.709
22685,1139,0.707
22775,1142,0.704
22865,1145,0.702
22955,1148,0.699
23045,1151,0.696
23135,1154,0.693
23225,1157,0.691
23315,1160,0.687
23405,1163,0.684
23495,1166,0.681
23585,1169,0.677
23675,1172,0.674
23699,1173,0.673