File: Wood/Calibration_Data/IMT/IMT_Wood_MCC_O2-20_60K_R1.csv
Time (s),Temperature (K),HRR (W/g)
0,403.42,0
2,405.12,-0.291
4,406.81,1.818
6,408.54,3.613
8,410.33,3.797
10,412.07,4.88
12,413.86,4.687
14,415.67,3.45
16,417.54,2.352
18,419.38,1.344
20,421.49,1.679
22,423.23,3.535
24,425.19,4.949
26,427.09,7.555
28,428.99,7.55
30,430.99,7.202
32,432.9,5.931
34,434.89,5.176
36,436.88,4.276
38,438.9,4.584
40,440.91,5.819
42,442.96,8.088
44,445.05,8.86
46,447.08,11.502
48,449.14,11.835
50,451.26,12.203
52,453.32,10.934
54,455.41,10.627
56,457.49,9.757
58,459.63,10.544
60,461.71,12.522
62,463.78,14.859
64,465.95,16.978
66,468.06,19.55
68,470.19,20.48
70,472.31,21.66
72,474.39,20.974
74,476.53,21.561
76,478.64,21.922
78,480.74,23.022
80,482.92,25.766
82,484.96,27.107
84,487.16,29.426
86,489.27,30.52
88,491.43,32.085
90,493.61,32.536
92,495.63,33.393
94,497.73,33.868
96,499.79,33.291
98,501.93,33.815
100,504.03,33.592
102,506.1,34.589
104,508.12,35.955
106,510.32,37.212
108,512.39,38.556
110,514.43,38.77
112,516.56,38.71
114,518.64,39.235
116,520.66,39.212
118,522.65,40.218
120,524.79,40.997
122,526.82,40.776
124,528.94,41.768
126,530.98,42.621
128,533.05,43.113
130,535.06,45.548
132,537.1,47.004
134,539.17,49.38
136,541.19,51.011
138,543.16,52.467
140,545.24,53.6
142,547.27,53.685
144,549.31,55.462
146,551.36,56.274
148,553.34,57.15
150,555.31,58.722
152,557.33,58.677
154,559.34,59.496
156,561.31,60.408
158,563.38,61.226
160,565.35,63.461
162,567.35,64.117
164,569.35,66.195
166,571.36,67.935
168,573.4,68.87
170,575.43,71.345
172,577.44,72.262
174,579.42,73.813
176,581.4,75.602
178,583.46,77.617
180,585.39,79.761
182,587.42,82.68
184,589.42,85.669
186,591.41,87.658
188,593.44,91.049
190,595.48,93.85
192,597.43,97.16
194,599.4,100.824
196,601.41,104.567
198,603.5,109.433
200,605.53,114.938
202,607.55,120.747
204,609.56,127.973
206,611.62,135.32
208,613.65,143.035
210,615.75,151.213
212,617.77,158.695
214,619.78,163.864
216,621.87,167.969
218,623.9,168.575
220,625.93,166.52
222,628.06,161.045
224,630.13,153.798
226,632.22,143.93
228,634.36,134.265
230,636.39,123.436
232,638.49,112.551
234,640.6,102.956
236,642.66,93.407
238,644.73,85.902
240,646.77,78.339
242,648.85,72.167
244,650.87,66.641
246,652.94,63.25
248,654.97,59.726
250,656.98,57.045
252,658.97,54.752
254,661,53.316
256,662.98,51.409
258,664.93,49.308
260,666.9,48.05
262,668.92,46.285
264,670.87,46.217
266,672.83,44.835
268,674.8,44.117
270,676.74,43.947
272,678.71,43.443
274,680.67,42.527
276,682.58,41.661
278,684.55,41.543
280,686.51,40.481
282,688.49,41.039
284,690.45,40.162
286,692.41,38.958
288,694.39,38.117
290,696.41,38.209
292,698.37,39.023
294,700.35,39.483
296,702.39,40.737
298,704.33,40.863
300,706.35,41.482
302,708.39,41.724
304,710.41,43.263
306,712.39,43.094
308,714.48,44.899
310,716.5,44.764
312,718.57,46.322
314,720.63,46.051
316,722.67,47.287
318,724.73,48.666
320,726.8,50.313
322,728.88,52.168
324,730.97,43.404
326,732.99,45.615
328,735.11,54.315
330,737.21,64.56
332,739.32,68.418
334,741.43,67.742
336,743.52,98.475
338,746.31,147.667
340,748.84,161.214
342,751.11,135.721
344,753.31,101.523
346,755.38,74.698
348,757.33,56.805
350,759.26,46.484
352,761.14,39.892
354,762.98,35.006
356,764.84,31.393
358,766.69,28.477
360,768.59,27.322
362,770.44,26.167
364,772.31,26.102
366,774.21,26.991
368,776.17,26.449
370,778.06,26.082
372,780,25.99
374,781.95,24.806
376,783.84,23.107
378,785.79,21.405
380,787.77,18.207
382,789.67,17.245
384,791.65,16.203
386,793.66,15.469
388,795.64,16.252
390,797.61,14.994
392,799.63,14.33
394,801.65,11.523
396,803.62,8.592
398,805.65,6.797
400,807.61,4.833
402,809.64,4.828
404,811.63,4.546
406,813.68,6.294
408,815.67,6.406
410,817.74,6.259
412,819.79,3.799
414,821.81,2.754
416,823.79,0.786
418,825.95,0.226
420,827.94,-0.468
422,829.96,1.151
424,832.04,1.679
426,834.15,3.115
428,836.27,3.064
430,838.34,2.525
432,840.43,1.967
434,842.48,0.551
436,844.6,-0.405
438,846.66,-1.235
440,848.78,0.325
442,850.88,1.128
444,852.93,2.496
446,855.06,3.179
448,857.2,1.877
450,859.28,1.744
452,861.43,0.11
454,863.5,-1.148
456,865.6,-1.978
458,867.68,-1.239
460,869.79,-0.035
462,871.92,1.059
464,874.04,3.003
466,876.18,2.437
468,878.25,1.806
470,880.42,0.276
472,882.5,-1.029
474,884.65,-1.721
476,886.68,-2.166
478,888.77,-0.734
480,890.91,0.37
482,892.97,0.997
484,895.13,1.724
486,897.2,0.762
488,899.34,1.469
490,901.43,0.21
492,903.55,-0.547
494,905.6,-1.325
496,907.75,-2.252
498,909.78,-1.354
500,911.87,-0.447
502,913.93,0.592
504,916.03,0.117
506,918.14,1.09
508,920.2,0.407
510,922.36,1.421
512,924.41,0.324
514,926.47,-0.35
516,928.51,-1.442
518,930.59,-2.172
520,932.67,-1.662
522,934.75,-1.07
524,936.87,-0.044
526,938.96,0.698
528,941,1.591
530,943.14,1.892
532,945.21,0.422
534,947.27,0.641
536,949.36,-0.184
538,951.47,0.605
540,953.55,-0.226
542,955.57,-0.708
544,957.68,-0.601
546,959.77,-1.714
548,961.88,-0.811
550,963.92,0.128
552,966,0.647
554,968.03,2.123
556,970.13,1.173
558,972.22,1.882
560,974.33,1.355
562,976.35,0.298
564,978.47,0.789
566,980.52,0.022
568,982.66,-0.232
570,984.69,0.41
572,986.81,0.757
574,988.86,0.281
574.5,989.39,0