File: Wood/Calibration_Data/IMT/IMT_Wood_Cone_25kW_hor_R4.csv
Time (s),Mass (g),HRR (kW/m2)
0,83.20,0.81
10,84.08,0.61
20,83.95,-0.30
30,83.94,-1.15
40,83.84,2.00
50,83.75,-0.75
60,83.95,0.65
70,83.54,1.90
80,83.35,3.73
90,83.24,3.10
100,83.14,-2.90
110,82.68,206.69
120,81.46,155.28
130,80.65,115.12
140,80.04,98.23
150,79.46,85.31
160,78.87,75.23
170,78.39,72.59
180,77.96,65.67
190,77.54,61.61
200,77.06,59.74
210,76.66,57.59
220,76.34,58.39
230,75.96,56.67
240,75.54,55.21
250,75.14,54.99
260,74.84,53.95
270,74.46,51.88
280,74.14,52.24
290,73.66,53.09
300,73.34,53.22
310,73.04,53.99
320,72.63,52.10
330,72.24,50.26
340,71.94,50.08
350,71.54,52.80
360,71.23,52.17
370,70.84,51.81
380,70.44,50.54
390,70.04,49.91
400,69.74,50.49
410,69.34,50.78
420,69.04,47.98
430,68.64,48.94
440,68.34,47.41
450,67.96,47.76
460,67.54,48.02
470,67.14,47.28
480,66.85,45.44
490,66.46,47.14
500,66.14,48.42
510,65.74,45.56
520,65.44,45.27
530,65.04,49.78
540,64.64,50.61
550,64.24,47.52
560,63.86,48.70
570,63.54,48.73
580,63.15,47.64
590,62.83,46.36
600,62.43,46.46
610,62.14,46.67
620,61.66,48.37
630,61.32,49.27
640,60.96,50.17
650,60.64,49.56
660,60.23,48.60
670,59.86,47.67
680,59.54,49.23
690,59.13,48.60
700,58.74,51.56
710,58.44,50.35
720,58.05,51.04
730,57.74,51.83
740,57.33,52.61
750,56.94,52.90
760,56.59,53.12
770,56.23,54.45
780,55.85,56.07
790,55.44,56.50
800,55.15,59.12
810,54.75,57.83
820,54.44,56.65
830,54.04,57.97
840,53.73,59.51
850,53.25,58.91
860,52.93,61.33
870,52.45,59.98
880,52.15,59.38
890,51.74,60.24
900,51.43,61.23
910,51.03,63.35
920,50.73,64.17
930,50.25,63.36
940,49.93,63.83
950,49.44,65.26
960,49.05,64.82
970,48.65,67.59
980,48.25,65.19
990,47.85,67.96
1000,47.43,65.83
1010,47.03,65.39
1020,46.63,68.08
1030,46.25,70.48
1040,45.83,69.76
1050,45.43,72.28
1060,44.84,73.22
1070,44.43,71.70
1080,44.05,74.28
1090,43.65,75.06
1100,43.15,77.79
1110,42.71,79.08
1120,42.23,78.58
1130,41.67,74.97
1140,41.23,76.77
1150,40.73,80.04
1160,40.33,79.61
1170,39.74,80.17
1180,39.33,82.55
1190,38.75,81.80
1200,38.25,82.31
1210,37.75,82.00
1220,37.33,83.17
1230,36.75,83.44
1240,36.23,84.99
1250,35.64,87.32
1260,35.14,85.04
1270,34.63,83.79
1280,34.13,86.96
1290,33.55,88.55
1300,33.04,85.22
1310,32.54,86.37
1320,32.03,82.43
1330,31.53,82.47
1340,31.02,84.02
1350,30.53,83.74
1360,30.04,85.64
1370,29.44,79.33
1380,29.04,78.87
1390,28.63,81.81
1400,28.04,80.44
1410,27.53,77.89
1420,27.13,76.78
1430,26.62,74.12
1440,26.23,72.87
1450,25.82,71.48
1460,25.34,71.48
1470,24.94,69.36
1480,24.54,64.67
1490,24.14,65.51
1500,23.84,64.10
1510,23.42,61.39
1520,23.12,57.48
1530,22.83,58.29
1540,22.52,57.37
1550,22.12,53.85
1560,21.84,54.20
1570,21.62,50.96
1580,21.32,47.66
1590,21.04,45.47
1600,20.81,44.15
1610,20.62,44.88
1620,20.34,41.18
1630,20.12,39.74
1640,19.92,37.08
1650,19.64,35.45
1660,19.52,33.30
1670,19.32,35.18
1680,19.14,33.27
1690,18.94,30.03
1700,18.82,28.49
1710,18.64,28.25
1720,18.52,27.85
1730,18.42,26.20
1740,18.32,24.86
1750,18.13,27.16
1760,17.92,25.96
1770,17.82,27.60
1780,17.72,28.28
1790,17.62,25.92
1800,17.52,23.99
1810,17.34,23.79
1820,17.32,24.48
1830,17.22,23.80
1840,17.02,22.55
1850,17.02,21.08
1860,17.00,21.76
1870,16.82,20.39
1880,16.72,20.02
1890,16.62,20.72