File: Wood/Calibration_Data/IMT/IMT_Wood_TGA_O2-20_5K_R1.csv
Time (s),Temperature (K),Mass (mg)
0,383,4.615
50,386,4.616
87,389,4.616
123,392,4.616
159,395,4.615
195,398,4.615
231,401,4.615
267,404,4.614
303,407,4.613
338,410,4.613
374,413,4.612
410,416,4.611
446,419,4.61
482,422,4.609
518,425,4.607
554,428,4.605
590,431,4.603
626,434,4.601
661,437,4.599
697,440,4.596
733,443,4.593
769,446,4.589
805,449,4.586
841,452,4.582
877,455,4.577
913,458,4.573
949,461,4.568
985,464,4.563
1021,467,4.557
1057,470,4.551
1093,473,4.544
1128,476,4.537
1164,479,4.529
1200,482,4.521
1236,485,4.512
1272,488,4.503
1308,491,4.492
1344,494,4.481
1380,497,4.469
1416,500,4.456
1452,503,4.442
1488,506,4.427
1524,509,4.41
1560,512,4.391
1596,515,4.371
1632,518,4.349
1667,521,4.326
1703,524,4.3
1739,527,4.273
1775,530,4.243
1811,533,4.212
1847,536,4.18
1883,539,4.146
1919,542,4.11
1955,545,4.072
1991,548,4.032
2027,551,3.99
2063,554,3.945
2099,557,3.898
2135,560,3.848
2171,563,3.795
2206,566,3.74
2242,569,3.678
2278,572,3.612
2314,575,3.541
2350,578,3.463
2386,581,3.379
2422,584,3.287
2458,587,3.186
2494,590,3.076
2530,593,2.954
2566,596,2.815
2602,599,2.653
2638,602,2.464
2674,605,2.251
2709,608,2.046
2745,611,1.87
2781,614,1.742
2817,617,1.655
2853,620,1.59
2889,623,1.537
2925,626,1.491
2961,629,1.451
2997,632,1.414
3033,635,1.38
3069,638,1.349
3105,641,1.319
3141,644,1.29
3177,647,1.263
3212,650,1.237
3249,653,1.21
3284,656,1.185
3320,659,1.16
3356,662,1.135
3392,665,1.111
3428,668,1.086
3464,671,1.062
3500,674,1.038
3536,677,1.013
3572,680,0.988
3608,683,0.963
3644,686,0.937
3680,689,0.911
3716,692,0.884
3751,695,0.857
3787,698,0.828
3823,701,0.798
3859,704,0.768
3895,707,0.735
3931,710,0.702
3967,713,0.667
4003,716,0.632
4039,719,0.596
4075,722,0.559
4111,725,0.522
4147,728,0.484
4183,731,0.445
4219,734,0.406
4255,737,0.365
4291,740,0.324
4327,743,0.281
4363,746,0.237
4399,749,0.191
4435,752,0.145
4471,755,0.101
4507,758,0.066
4543,761,0.045
4579,764,0.035
4615,767,0.03
4651,770,0.028
4687,773,0.028
4723,776,0.028
4759,779,0.027
4795,782,0.027
4831,785,0.027
4867,788,0.026
4903,791,0.026
4939,794,0.026
4975,797,0.025
5011,800,0.025
5047,803,0.025
5083,806,0.025
5119,809,0.025
5155,812,0.025
5191,815,0.025
5227,818,0.025
5263,821,0.025
5299,824,0.025
5335,827,0.025
5371,830,0.025
5407,833,0.025
5443,836,0.025
5479,839,0.025
5515,842,0.025
5551,845,0.025
5587,848,0.025
5623,851,0.025
5659,854,0.025
5695,857,0.024
5731,860,0.024
5767,863,0.024
5803,866,0.024
5839,869,0.024
5875,872,0.024
5911,875,0.024
5947,878,0.024
5983,881,0.024
6019,884,0.024
6055,887,0.024
6091,890,0.024
6127,893,0.024
6163,896,0.024
6199,899,0.024
6235,902,0.024
6271,905,0.023
6307,908,0.023
6343,911,0.024
6379,914,0.024
6415,917,0.024
6451,920,0.024
6487,923,0.024
6523,926,0.024
6559,929,0.024
6595,932,0.024
6631,935,0.024
6667,938,0.024
6703,941,0.024
6739,944,0.024
6775,947,0.024
6811,950,0.024
6847,953,0.024
6883,956,0.024
6919,959,0.024
6955,962,0.024
6991,965,0.024
7027,968,0.024
7063,971,0.024
7099,974,0.024
7135,977,0.024
7171,980,0.024
7207,983,0.024
7243,986,0.024
7279,989,0.024
7315,992,0.024
7351,995,0.024
7387,998,0.024
7423,1001,0.024
7459,1004,0.025
7495,1007,0.024
7531,1010,0.024
7567,1013,0.025
7603,1016,0.025
7639,1019,0.025
7675,1022,0.025
7711,1025,0.025
7747,1028,0.025
7783,1031,0.025
7819,1034,0.025
7855,1037,0.025
7891,1040,0.025
7927,1043,0.025
7963,1046,0.025
7999,1049,0.025
8035,1052,0.025
8071,1055,0.025
8107,1058,0.025
8143,1061,0.025
8179,1064,0.025
8215,1067,0.025
8251,1070,0.025
8287,1073,0.024
8323,1076,0.025
8359,1079,0.025
8395,1082,0.025
8431,1085,0.025
8467,1088,0.025
8503,1091,0.025
8539,1094,0.025
8575,1097,0.025
8611,1100,0.025
8647,1103,0.024
8683,1106,0.025
8719,1109,0.025
8755,1112,0.025
8791,1115,0.025
8827,1118,0.025
8863,1121,0.025
8899,1124,0.025
8935,1127,0.025
8971,1130,0.025
9007,1133,0.025
9043,1136,0.024
9079,1139,0.024
9115,1142,0.024
9151,1145,0.024
9187,1148,0.024
9223,1151,0.024
9259,1154,0.024
9295,1157,0.023
9331,1160,0.023
9367,1163,0.023
9403,1166,0.023
9439,1169,0.023
9475,1172,0.023
9479,1173,0.023