File: Wood/Calibration_Data/FPL/FPL_Wood_Cone_50kW_hor_R1.csv
Time (s),Mass (g),HRR (kW/m2)
0,98.95,-1.74772
6,111.711,0.789878
12,111.665,18.1715
18,111.158,164.063
24,110.445,184.343
30,109.856,155.329
36,109.31,143.834
42,108.829,123.011
48,108.415,111.941
54,108.005,101.212
60,107.632,102.499
66,107.244,96.0966
72,106.899,90.6626
78,106.5544,91.4704
84,106.224,87.6941
90,105.912,80.5207
96,105.624,80.6408
102,105.273,81.1677
108,105.018,76.8494
114,104.688,77.9064
120,104.431,76.8079
126,104.132,74.7761
132,103.882,74.6315
138,103.599,71.9222
144,103.344,70.9625
150,103.0338,72.0035
156,102.814,70.1777
162,102.497,72.1614
168,102.31,67.7505
174,101.966,70.3733
180,101.765,66.6618
186,101.482,68.0055
192,101.215,62.0653
198,100.979,64.8649
204,100.745,66.2868
210,100.462,64.0947
216,100.191,66.6335
222,99.9355,64.071
228,99.6553,65.7456
234,99.3524,66.069
240,99.0758,66.0886
246,98.8523,66.9971
252,98.5605,63.5713
258,98.2863,66.0156
264,97.9962,67.3687
270,97.7409,68.1518
276,97.463,65.6228
282,97.1692,67.4459
288,96.8641,65.2534
294,96.5719,63.9255
300,96.2887,67.8577
306,95.9841,67.9935
312,95.7109,69.4739
318,95.3692,68.9208
324,95.0924,69.6331
330,94.8084,67.2663
336,94.4946,68.0071
342,94.1843,67.1084
348,93.8933,70.3606
354,93.5911,70.4404
360,93.2514,73.1787
366,92.99,69.564
372,92.6474,72.4359
378,92.3426,69.058
384,92.0344,71.6817
390,91.7047,69.839
396,91.4178,73.9101
402,91.1013,73.6762
408,90.7968,70.1593
414,90.4909,69.1904
420,90.162,68.5549
426,89.8835,71.06
432,89.5297,69.4867
438,89.2636,68.8069
444,88.9486,68.8608
450,88.6666,72.1152
456,88.3448,69.3394
462,88.0372,70.7206
468,87.7644,67.6101
474,87.4136,69.8983
480,87.1105,68.3291
486,86.8076,70.7062
492,86.5397,71.6802
498,86.2131,72.9716
504,85.925,70.8524
510,85.5833,70.9618
516,85.3423,70.0708
522,84.9841,71.3977
528,84.7096,69.1875
534,84.40859,67.9003
540,84.1182,68.6788
546,83.8234,67.7648
552,83.5275,71.1313
558,83.22174,68.6475
564,82.9372,71.9901
570,82.6596,69.717
576,82.3373,69.9623
582,82.0639,70.5233
588,81.7345,69.6669
594,81.4242,70.1529
600,81.1505,69.1357
606,80.887,71.725
612,80.5539,68.1293
618,80.2574,71.506
624,80.0106,68.49
630,79.6941,65.8582
636,79.3782,69.2179
642,79.1715,71.1687
648,78.8292,70.395
654,78.5466,68.0231
660,78.2164,71.3392
666,77.9498,69.3788
672,77.6873,70.7237
678,77.3941,70.17
684,77.0616,69.4693
690,76.8128,71.5852
696,76.50032,69.5393
702,76.2083,69.5412
708,75.9227,73.2538
714,75.6047,70.7633
720,75.3092,70.8414
726,75.0035,70.7766
732,74.7663,71.3707
738,74.4828,71.5722
744,74.2001,72.211
750,73.8933,69.8603
756,73.5889,68.8164
762,73.3018,72.8253
768,73.0466,70.6622
774,72.7231,72.231
780,72.4402,70.4496
786,72.1824,71.9308
792,71.8543,72.2211
798,71.5748,75.2473
804,71.27978,72.9453
810,70.9736,72.3286
816,70.7526,74.1861
822,70.40383,71.4261
828,70.1637,74.7956
834,69.8691,73.4078
840,69.567,73.6635
846,69.3027,72.6477
852,68.9858,74.5568
858,68.6525,73.9728
864,68.389,77.6771
870,68.0886,76.2034
876,67.8358,77.2258
882,67.4978,73.6152
888,67.2381,75.8853
894,66.9117,77.0342
900,66.6607,76.1456
906,66.3297,79.1648
912,66.0552,74.4724
918,65.7434,78.6539
924,65.4478,77.9553
930,65.181,79.3904
936,64.8589,78.0423
942,64.5852,80.1236
948,64.2856,75.3296
954,63.9938,78.9786
960,63.6788,77.1462
966,63.4261,77.8215
972,63.0662,78.5108
978,62.79525,80.8831
984,62.43928,82.1376
990,62.1749,80.5703
996,61.8951,83.2602
1002,61.5354,83.7628
1008,61.2795,83.5818
1014,60.9596,82.1923
1020,60.6427,83.8709
1026,60.344,89.2554
1032,60.0587,88.0248
1038,59.6844,88.3853
1044,59.3858,87.0042
1050,59.0505,88.1042
1056,58.713,86.6244
1062,58.4325,88.7672
1068,58.0893,91.4545
1074,57.763,91.0976
1080,57.37124,93.2245
1086,57.0905,94.7161
1092,56.7161,95.2651
1098,56.4107,94.5716
1104,56.0392,95.3409
1110,55.6986,94.2196
1116,55.3225,95.3844
1122,54.9674,100.953
1128,54.6719,98.6296
1134,54.2372,100.56
1140,53.9201,102.672
1146,53.5301,100.952
1152,53.1954,100.734
1158,52.8359,100.878
1164,52.4509,103.337
1170,52.0343,102.898
1176,51.671,101.986
1182,51.2844,107.34
1188,50.9617,103.158
1194,50.5689,102.909
1200,50.1557,101.069
1206,49.8103,104.774
1212,49.3469,103.205
1218,49.033,104.935
1224,48.6363,105.903
1230,48.2409,107.448
1236,47.8557,104.556
1242,47.443,106.18
1248,47.0362,109.796
1254,46.6226,107.337
1260,46.2169,106.627
1266,45.8692,111.144
1272,45.4815,113.635
1278,45.0618,108.976
1284,44.6415,107.883
1290,44.2579,108.57
1296,43.83051,111.573
1302,43.4462,109.277
1308,43.0575,109.715
1314,42.6479,110.234
1320,42.2725,111.293
1326,41.8915,109.096
1332,41.4659,107.921
1338,41.0567,113.149
1344,40.6423,108.432
1350,40.2797,112.709
1356,39.8493,111.529
1362,39.4674,111.953
1368,39.0705,110.59
1374,38.6899,110.399
1380,38.3032,110.498
1386,37.8818,109.43
1392,37.5177,107.568
1398,37.1319,108.804
1404,36.7997,108.663
1410,36.40085,103.504
1416,36.0342,99.8167
1422,35.65958,102.196
1428,35.3318,102.279
1434,35.0123,102.29
1440,34.6567,96.0021
1446,34.3241,93.4872
1452,34.0751,92.0581
1458,33.7569,91.4862
1464,33.44756,90.3481
1470,33.1587,88.1121
1476,32.8387,85.3395
1482,32.5934,81.3835
1488,32.3307,80.8001
1494,32.068,79.7612
1500,31.8596,75.7491
1506,31.5613,72.7242
1512,31.3667,72.8909
1518,31.1699,70.1441
1524,31.0003,65.6633
1530,30.795,67.097
1536,30.6114,63.6203
1542,30.4295,60.184
1548,30.2654,59.7995
1554,30.1272,56.1258
1560,30.0068,54.5808
1566,29.8451,52.5337
1572,29.73113,49.3191
1578,29.6055,48.4638
1584,29.4961,48.4169
1590,29.4536,46.4232
1596,29.3119,45.9916
1602,29.2283,44.1791
1608,29.1324,42.5155
1614,29.0191,43.6172
1620,28.9376,44.3326
1626,28.8746,42.2709
1632,28.7588,42.0607
1638,28.7072,40.9435
1644,28.5981,38.4725
1650,28.5105,42.1189
1656,28.4699,41.4601
1662,28.3552,39.8012
1668,28.2792,38.6571
1674,28.2028,38.5689
1680,28.136,38.3298
1686,28.06454,38.9742
1692,27.9757,39.6731
1698,27.9454,37.883
1704,27.8651,37.2706
1710,27.7702,37.7331
1716,27.7357,36.5965
1722,27.6601,35.4335
1728,27.5665,35.5053
1734,27.4753,34.4472
1740,27.4551,33.2803
1746,27.387,34.925
1752,27.3112,34.7079
1758,27.22873,37.0291
1764,27.1978,34.5994
1770,27.0957,32.2744
1773,27.0563,34.5798