File: Wood/Calibration_Data/FPL/FPL_Wood_Cone_50kW_hor_R6.csv
Time (s),Mass (g),HRR (kW/m2),TC Top (K),TC back 1 (K),TC back 2 (K)
0,100.1,2.13373,310.01,293.658,293.682
8,82.9666,-1.33179,525.674,293.748,293.706
16,82.25552,136.444,717.21,293.838,293.754
24,81.1307,178.895,800.317,294.286,293.883
32,80.2422,143.404,861.178,295.654,293.905
40,79.4732,122.728,883.642,298.464,294.015
48,78.8598,118.961,904.511,302.311,294.142
56,78.22227,112.356,926.262,307.832,294.293
64,77.65508,102.931,945.987,313.07,294.384
72,77.0609,97.4595,967.552,319.761,294.542
80,76.5545,95.0507,970.912,325.555,294.844
88,76.0151,89.9848,973.854,332.015,295.142
96,75.5118,88.5341,982.71,338.402,295.587
104,75.0227,89.0191,990.022,344.98,296.053
112,74.5287,84.7487,981.916,351.557,296.646
120,74.0075,83.0943,991.017,357.815,297.314
128,73.6424,78.4642,1003.859,367.001,298.206
136,73.1137,79.195,1014.189,373.373,298.983
144,72.7136,80.5697,997.159,377.854,300.08
152,72.232,79.5863,1014.94,380.835,301.15
160,71.7722,75.0973,1035.248,384.488,302.283
168,71.3255,79.7298,1013.925,388.807,303.523
176,70.88191,76.2763,1014.271,393.282,304.94
184,70.4606,80.2434,1035.882,398.122,306.383
192,70.0307,75.0227,1052.047,402.894,307.841
200,69.5835,76.2268,1035.233,408.969,309.563
208,69.1327,75.4273,1043.841,414.766,311.206
216,68.6924,80.7209,1045.811,422.124,313.07
224,68.2433,76.6711,1050.943,428.869,314.734
232,67.843,78.4625,1050.649,436.167,316.68
240,67.4204,75.6614,1059.524,444.589,318.631
248,66.95311,79.9119,1064.799,452.443,320.687
256,66.4498,75.2889,1058.776,461.008,322.715
264,66.0666,75.5757,1055.498,468.778,324.777
272,65.6374,77.0769,1064.115,477.168,327.205
280,65.192,79.2716,1056.123,484.971,329.175
288,64.7596,79.4963,1056.6,494.172,331.718
296,64.3057,75.2904,1043.562,501.584,333.946
304,63.896,77.4177,1048.647,509.67,336.418
312,63.4097,75.7815,1077.164,517.55,338.859
320,62.9734,76.3901,1048.977,525.435,341.363
328,62.5431,77.3568,1054.926,532.919,343.936
336,62.0775,76.9433,1083.712,539.536,346.333
344,61.6328,76.388,1076.551,547.417,349.144
352,61.1891,75.202,1064.476,554.153,351.601
360,60.77019,74.8983,1063.335,562.126,354.535
368,60.31456,75.2355,1075.415,568.984,357.014
376,59.8705,76.0771,1072.51,577.193,359.907
384,59.44008,77.3224,1086.259,584.153,362.265
392,58.9983,76.0326,1084.503,592.067,364.873
400,58.55652,79.1288,1074.009,599.635,367.287
408,58.0656,77.4528,1059.451,607.235,369.868
416,57.6196,79.2028,1062.135,614.314,372.426
424,57.1411,81.4807,1060.205,620.264,374.704
432,56.7433,79.625,1049.89,626.751,377.044
440,56.2601,78.8347,1060.897,632.227,378.676
448,55.8866,81.062,1064.321,638.885,380.147
456,55.4071,83.1222,1055.728,644.474,381.072
464,54.9305,78.2241,1056.686,650.496,381.941
472,54.4887,76.9341,1058.736,656.386,382.595
480,54.0243,78.5377,1060.418,662.432,383.407
488,53.6007,79.2285,1056.928,668.44,384.34
496,53.181,79.9586,1058.408,674.218,385.188
504,52.6513,79.7595,1057.189,681.303,386.459
512,52.2724,79.8812,1061.186,687.95,387.696
520,51.7691,78.0616,1063.388,696.078,389.263
528,51.3437,80.2606,1062.574,703.693,390.79
536,50.9605,81.197,1068.982,711.912,392.606
544,50.45757,78.1034,1073.012,718.665,394.434
552,50.0192,81.6491,1075.539,726.304,396.625
560,49.5723,81.2638,1073.363,733.463,398.909
568,49.1467,79.3745,1075.46,740.307,401.208
576,48.6777,77.971,1089.73,748.618,403.948
584,48.3002,81.7332,1082.476,756.146,406.565
592,47.8032,82.7079,1084.673,764.286,409.599
600,47.3484,82.7031,1090.506,770.518,412.41
608,46.9547,81.1273,1092.107,777.869,415.735
616,46.4581,80.004,1096.888,783.907,418.722
624,46.0654,82.9233,1092.298,790.495,421.951
632,45.6015,81.3089,1086.323,795.799,425.265
640,45.1501,83.7649,1087.572,801.296,428.727
648,44.7146,82.3529,1088.128,806.76,432.099
656,44.2872,81.2184,1080.542,811.587,435.252
664,43.84424,80.4012,1097.55,816.477,438.931
672,43.42082,80.0423,1107.064,820.209,442.104
680,43.0026,80.3068,1082.267,825.388,445.86
688,42.5504,83.6896,1090.076,829.678,449.091
696,42.0739,82.091,1091.582,834.369,452.849
704,41.6042,83.5996,1104.001,837.877,456.125
712,41.2438,84.2363,1094.952,842.087,459.626
720,40.7514,84.1914,1105.509,845.531,463.108
728,40.3037,84.0343,1105.574,849.233,466.386
736,39.856,84.9329,1109.085,853.939,470.196
744,39.4134,83.4227,1106.194,858.083,473.561
752,38.9892,86.8095,1105.343,862.866,477.486
760,38.5179,88.4832,1094.057,866.514,480.724
768,38.0839,87.6282,1108.184,869.556,484.493
776,37.6373,82.2066,1107.629,872.505,487.855
784,37.20575,85.5256,1111.239,875.884,491.385
792,36.7764,88.0647,1111.078,879.795,495.024
800,36.3259,88.0302,1096.826,883.653,498.709
808,35.8557,88.804,1114.859,886.799,502.175
816,35.4094,90.8982,1114.055,890.178,505.539
824,34.9535,90.1321,1105.308,893.871,509.631
832,34.4858,89.271,1113.885,896.512,512.92
840,34.0728,90.5447,1112.153,898.946,516.77
848,33.6309,90.8575,1120.509,901.33,520.176
856,33.1393,90.6489,1117.395,904.307,523.976
864,32.6581,92.7368,1117.91,906.675,527.432
872,32.1843,92.3702,1118.456,909.153,531.513
880,31.6782,95.9716,1115.625,911.31,535.151
888,31.1719,93.2975,1125.191,913.848,538.593
896,30.5951,94.6305,1124.323,917.324,542.784
904,30.0446,95.2568,1125.312,919.529,546.382
912,29.4981,97.8389,1127.136,922.779,550.746
920,29.3061,100.008,1132.374,925.486,554.448
928,28.7689,94.0509,1130.68,927.595,559.046
936,28.28045,93.9716,1129.677,929.707,562.818
944,27.783,94.5905,1122.555,932.534,567.149
952,27.2631,100.285,1126.124,934.71,571.198
960,26.78686,98.3607,1120.611,936.266,575.336
968,26.2563,99.1832,1123.729,937.267,580.002
976,25.7554,96.9733,1131.088,940.234,584.031
984,25.1517,101.313,1118.987,943.154,588.649
992,24.6625,102.77,1134.048,944.994,592.906
1000,24.0743,100.046,1136.043,947.35,597.666
1008,23.5173,99.9284,1124.759,949.25,602.078
1016,22.9244,103.117,1123.614,952.102,606.523
1024,22.51726,102.772,1129.23,953.732,611.229
1032,21.9115,101.134,1130.362,954.498,616.481
1040,21.343,103.511,1133.028,956.956,621.339
1048,20.76327,106.229,1124.654,958.454,625.871
1056,20.2168,107.271,1121.846,960.712,631.445
1064,19.7718,108.376,1125.626,962.392,635.754
1072,19.12561,107.961,1125.072,964.229,641.625
1080,18.5854,109.753,1123.735,965.53,647.293
1088,18.0342,111.79,1103.175,966.642,653.621
1096,17.5258,114.183,1097.742,968.039,659.081
1104,16.9776,111.595,1117.673,970.091,666.301
1112,16.362,109.981,1066.913,972.087,673.429
1120,15.8052,114.539,1062.528,974.367,682.217
1128,15.1715,111.607,1103.528,976.419,693.348
1136,14.5633,113.119,1056.029,976.857,711.324
1144,14.0029,113.406,1046.088,979.149,726.265
1152,13.4155,118.188,1067.996,981.482,738.677
1160,12.8151,112.641,1042.112,982.981,751.811
1168,12.1891,112.628,1020.359,984.827,767.789
1176,11.6949,112.29,1000.089,987.132,778.101
1184,11.2733,112.018,1001.894,988.956,780.021
1192,10.6921,114.513,989.447,990.743,786.174
1200,10.1343,112.097,1002.513,992.946,791.984
1208,9.600236,112.004,1004.365,993.399,795.522
1216,9.011156,111.762,1010.335,993.554,798.305
1224,8.646667,108.104,976.7,995.798,808.076
1232,8.090618,104.331,951.751,998.892,822.298
1240,7.6485,103.492,945.975,1001.15,830.223
1248,7.190535,103.903,928.502,1002.42,835.252
1256,6.708775,97.218,937.309,1005.608,835.011
1264,6.31096,93.0436,941.951,1006.72,834.294
1272,5.893848,92.9038,911.002,1007.29,831.691
1280,5.520825,86.2743,917.703,1008.544,833.873
1288,5.181109,85.8109,956.673,1008.39,836.781
1296,4.845392,79.5119,939.24,1008.965,840.221
1304,4.530967,80.7254,928.03,1009.332,842.759
1312,4.224783,73.9021,919.878,1010.519,845.578
1320,3.922631,66.8511,912.071,1011.965,849.682
1328,3.663453,62.7258,902.323,1013.529,853.054
1336,3.429526,65.0831,938.106,1014.615,857.658
1344,3.317028,60.4362,957.57,1016.132,861.3
1352,3.085209,59.425,923.023,1017.57,865.201
1360,2.876486,55.7605,959.447,1018.159,869.134
1368,2.61368,52.9695,959.509,1019.789,872.133
1376,2.40614,53.8163,932.649,1022.274,876.45
1384,2.238166,47.4733,890.166,1022.947,879.52
1392,2.047106,47.6176,889.175,1026.466,882.525
1400,1.732816,48.6438,869.375,1027.811,885.101
1408,1.597432,46.1358,923.286,1029.882,888.85
1416,1.395077,46.2453,892.281,1032.433,891.271
1424,1.277551,44.8788,937.489,1033.28,894.013
1432,1.133206,46.0106,922.749,1035.953,896.796
1440,1.073968,41.1814,924.935,1037.388,898.855
1448,0.947078,41.6642,966.27,1036.916,901.451
1456,0.832652,43.5714,955.897,1038.286,903.975
1464,0.696216,36.9592,947.259,1039.903,906.246
1472,0.569687,37.7622,950.928,1040.387,908.21
1480,0.507771,35.5726,943.705,1040.131,910.476
1488,0.410698,35.4239,900.275,1040.829,912.167
1496,0.259626,35.6953,916.121,1042.866,913.904
1504,0.137414,39.722,934.949,1042.562,915.671
1512,0.058421,40.3906,914.337,1042.169,917.469
1520,0.007969,34.7883,887.048,1043.321,918.91
1528,-0.079321,34.8838,892.747,1043.022,920.692
1536,-0.18956,33.7107,902.5,1043.272,922.468
1544,-0.258113,34.7697,875.028,1045.273,923.959
1552,-0.41827,37.2399,881.33,1041.859,925.674
1560,-0.424239,35.417,900.569,1040.966,927.132
1568,-0.569877,33.1142,866.387,1040.778,928.867
1576,-0.637201,35.2577,887.244,1038.575,930.266
1584,-0.727084,33.7726,876.224,1037.53,931.602
1592,-0.822601,34.3686,879.301,1038.226,932.913
1600,-0.88869,33.8062,876.359,1038.579,934.128
1608,-1.000121,34.9174,874.015,1037.876,935.299
1616,-1.043294,34.2344,863.49,1036.57,936.222
1620,-1.118008,31.8624,872.69,1036.412,937.07