File: Wood/Calibration_Data/FPL/FPL_Wood_Cone_50kW_hor_R5.csv
Time (s),Mass (g),HRR (kW/m2),TC Top (K),TC back 1 (K),TC back 2 (K)
0,95.96,4.18356,307.092,293.294,293.752
9,95.03799,2.84521,468.483,293.399,293.796
18,94.7694,179.094,628.508,293.65,293.834
27,93.4915,181.007,842.89,294.254,293.82
36,92.7,124.753,850.66,296.048,294.138
45,92.0998,110.184,910.51,299.969,294.254
54,91.4785,102.049,984.104,305.978,294.492
63,90.9106,98.918,986.821,312.771,294.596
72,90.2805,92.0002,972.933,320.415,294.881
81,89.7327,89.5221,972.279,328.932,295.094
90,89.1733,84.9519,973.057,337.502,295.426
99,88.7342,85.3022,980.856,345.53,296
108,88.1852,86.7681,1005.001,353.745,296.563
117,87.6722,82.6217,1005.742,362.596,297.248
126,87.203,87.9419,1018.62,371.888,298.241
135,86.7117,84.4234,1018.137,380.814,299.231
144,86.13752,85.6187,997.592,388.431,300.408
153,85.7311,83.6374,1009.141,395.92,301.758
162,85.2892,83.1606,1033.604,404.22,303.335
171,84.7241,82.4931,1029.339,412.487,304.825
180,84.2874,78.6346,1029.033,421.049,306.546
189,83.79739,75.2066,1042.783,430.578,308.431
198,83.3515,77.8303,1022.911,441.165,310.49
207,82.8767,74.8329,1045.833,449.539,312.451
216,82.4418,74.1348,1038.4,458.033,314.508
225,81.983,73.0855,1035.398,468.255,316.811
234,81.5448,73.0419,1044.141,478.861,319.202
243,81.0337,77.1018,1046.417,488.991,321.501
252,80.65876,74.008,1043.541,499.111,323.864
261,80.1732,75.4392,1058.514,510.508,326.461
270,79.7762,72.2067,1046.634,520.512,329.12
279,79.3299,70.26157,1045.023,529.816,331.767
288,78.8895,70.0921,1061.088,538.863,334.429
297,78.4913,68.3684,1067.691,548.041,337.301
306,78.054,69.7834,1056.793,557.088,340.242
315,77.5956,68.7417,1059.349,565.34,343.026
324,77.2096,68.5873,1050.043,573.675,345.95
333,76.7504,71.2477,1057.689,582.973,349.149
342,76.0308,70.8612,1047.281,592.612,352.314
351,75.653,68.4215,1058.613,601.447,355.381
360,75.2269,68.7706,1056.901,609.942,358.329
369,74.73,68.1035,1045.538,619.316,361.568
378,74.2747,67.7211,1055.263,627.03,364.867
387,73.834,65.7179,1056.09,634.934,368.221
396,73.3966,68.4218,1066.045,642.166,371.447
405,72.9364,69.2111,1062.447,649.663,374.685
414,72.5442,65.0776,1063.059,656.769,377.59
423,72.0583,65.9969,1061.745,662.291,379.756
432,71.5911,67.641,1066.934,667.137,381.378
441,71.1939,66.7761,1066.746,672.324,382.887
450,70.721,67.5892,1065.702,678.506,384.372
459,70.2774,66.9457,1067.688,684.133,385.932
468,69.8347,69.3042,1070.169,690.102,387.554
477,69.4584,71.5143,1070.176,696.202,389.618
486,68.994,67.8993,1066.096,701.28,391.937
495,68.5025,68.6374,1074.277,706.61,394.379
504,68.06029,67.985,1068.671,712.077,397.043
513,67.62186,68.6837,1060.546,717.512,400.263
522,67.1877,71.3805,1074.296,723.202,403.667
531,66.7179,71.3262,1078.837,728.862,407.047
540,66.2809,69.7929,1078.219,734.526,410.67
549,65.7645,69.5273,1085.597,740.95,414.858
558,65.366,70.0355,1075.331,747.349,419.072
567,64.8644,74.1408,1077.66,753.836,423.181
576,64.46966,73.9757,1070.986,760.137,427.402
585,63.9364,72.648,1096.199,766.924,431.956
594,63.5527,73.9611,1062.253,773.82,436.414
603,63.1164,74.4639,1085.212,781.027,440.611
612,62.6165,74.668,1079.333,788.128,444.862
621,62.1559,73.9785,1082.965,795.286,449.486
630,61.72926,71.9193,1086.553,801.843,453.967
639,61.2877,73.0582,1077.45,808.015,458.195
648,60.84,74.0528,1080.946,813.42,462.391
657,60.4201,78.0082,1078.689,819.378,467.069
666,59.9284,77.7873,1063.316,823.574,471.487
675,59.51143,75.2431,1070.042,827.544,475.661
684,59.0118,76.6257,1056.23,832.105,479.883
693,58.5751,76.8963,1093.588,836.47,484.381
702,58.1242,77.0975,1069.135,840.492,488.665
711,57.66396,75.4302,1079.014,844.641,492.777
720,57.2574,73.5848,1087.328,848.122,496.89
729,56.7991,73.477,1076.19,851.733,501.381
738,56.3254,75.1669,1048.504,854.982,505.663
747,55.8812,74.0822,1067.705,859.007,509.738
756,55.4597,72.881,1085.109,862.393,513.756
765,55.0498,72.822,1049.558,866.14,518.187
774,54.6194,79.5365,1037.698,868.928,522.334
783,54.2011,75.3673,1066.479,871.765,526.372
792,53.7715,78.7509,1051.286,874.551,530.32
801,53.3255,74.0451,1046.397,876.557,534.345
810,52.8934,77.8589,1047.35,878.523,538.706
819,52.4618,80.0506,1048.33,879.746,542.586
828,52.0266,77.0743,1022.038,881.56,546.551
837,51.5366,77.6587,1055.768,884.55,550.885
846,51.1434,77.0426,1039.839,887.622,555.16
855,50.7583,77.6426,1061.278,890.386,559.187
864,50.3105,79.9299,1053.325,892.984,563.254
873,49.8907,77.4136,1050.873,895.963,567.779
882,49.4307,80.8486,1049.229,898.152,572.119
891,49.0157,76.616,1085.437,899.171,576.251
900,48.556,77.7053,1059.91,900.245,580.371
909,48.0841,78.3256,1022.424,902.727,584.357
918,47.6653,79.4837,1064.274,904.436,588.486
927,47.1345,80.4145,1055.375,905.837,592.5
936,46.7291,85.8333,1035.87,908.169,596.5
945,46.3431,85.8626,1032.068,910.601,600.919
954,45.8882,85.6036,1030.548,912.341,605.167
963,45.4127,87.4451,1060.789,914.316,609.154
972,44.9627,84.0016,1061.456,916.128,613.179
981,44.4531,85.2135,1033.334,919.452,617.817
990,43.9925,88.2585,1050.887,922.527,622.395
999,43.5244,92.307,1044.647,924.481,626.845
1008,42.9967,93.0154,1086.196,926.745,631.646
1017,42.5325,92.0867,1056.262,926.584,637.569
1026,42.0332,93.0429,1047.469,925.915,643.241
1035,41.4316,97.9952,1098.791,926.474,648.557
1044,40.9253,95.5232,1109.388,926.606,653.969
1053,40.4313,101.286,1051.554,926.564,659.943
1062,39.8564,100.914,1129.164,925.968,665.923
1071,39.3333,97.0001,1126.772,926.779,672.446
1080,38.7549,96.5808,1126.227,927.278,678.145
1089,38.20401,104.245,1118.74,928.97,685.02
1098,37.6713,99.7183,1120.474,930.41,691.992
1107,37.0553,106.894,1082.781,930.831,698.668
1116,36.5022,107.842,1118.168,931.277,705.463
1125,35.9332,104.718,1155.837,931.998,713.702
1134,35.3486,109.504,1099.833,932.34,720.352
1143,34.7639,107.549,1083.22,933.249,726.816
1152,34.1742,104.696,1128.366,935.83,732.997
1161,33.5549,107.936,1151.969,936.394,739.874
1170,33.0011,109.918,1172.826,936.16,746.093
1179,32.37698,105.409,1137.165,937.564,752.455
1188,31.8302,107.86,1165.46,940.256,758.372
1197,31.207,109.472,1173.937,942.736,765.808
1206,30.63965,107.6,1189.091,944.597,772.157
1215,30.0078,107.144,1157.174,946.127,778.743
1224,29.4532,107.484,1159.514,949.249,785.463
1233,28.8569,107.434,1096.701,953.577,794.38
1242,28.328,108.168,1181.996,956.03,801.901
1251,27.7546,106.328,1140.665,956.676,809.017
1260,27.2266,103.769,1164.731,957.884,815.639
1269,26.6292,109.525,1166.255,958.536,822.554
1278,26.088,103.064,1082.481,960.952,828.131
1287,25.60994,100.688,1101.583,964.349,833.458
1296,25.0428,97.4125,1046.968,967.068,838.677
1305,24.5706,89.3459,1092.783,969.461,843.282
1314,24.1337,90.572,1049.016,971.186,847.401
1323,23.7341,82.7988,1073.998,972.459,851.454
1332,23.32685,80.0126,1031.577,974.587,855.706
1341,22.949,76.883,1013.226,976.735,859.373
1350,22.5315,73.6394,952.911,979.712,862.859
1359,22.2302,72.5597,1023.839,982.542,866.265
1368,21.9015,66.2791,964.152,983.307,869.936
1377,21.6113,67.2292,961.187,985.187,873.306
1386,21.2409,64.353,973.38,986.676,876.465
1395,21.0216,59.6109,932.818,988.67,879.679
1404,20.7681,58.9365,904.435,990.828,883.07
1413,20.4796,54.4385,914.597,992.326,885.922
1422,20.2516,55.5577,863.008,993.965,888.506
1431,20.0442,48.3128,862.603,996.192,891.03
1440,19.8618,49.5759,884.379,999.05,893.51
1449,19.6589,52.0132,858.164,1000.411,895.698
1458,19.52137,47.7594,860.659,1002.093,897.625
1467,19.2965,46.0304,863.555,1003.357,899.416
1476,19.1585,45.2555,846.291,1005.14,901.357
1485,18.9493,45.6665,860.399,1006.566,903.023
1494,18.787,45.5217,854.524,1007.906,904.543
1503,18.6603,43.4055,864.637,1010.443,905.903
1512,18.49648,41.9027,849.649,1011.633,907.409
1521,18.32507,38.9546,852.464,1012.947,908.78
1530,18.2232,41.7924,852.409,1014.237,910.067
1539,18.0558,39.8735,864.534,1015.038,911.345
1548,17.9403,37.579,872.513,1016.434,912.756
1557,17.82972,37.3364,844.617,1018.197,913.965
1566,17.6741,34.6277,865.493,1019.146,915.074
1575,17.5758,35.5328,869.183,1019.248,916.31
1584,17.3812,38.8121,846.325,1020.454,917.617
1593,17.3013,35.6615,854.134,1020.751,918.786
1602,17.1991,38.2928,880.21,1020.73,919.995
1611,17.0919,36.2231,871.695,1020.647,921.158
1620,16.9784,34.2725,850.512,1024.074,922.32
1629,16.9187,33.7351,849.396,1025.161,923.278
1638,16.7694,32.3976,836.338,1026.761,924.369
1647,16.7008,30.3989,844.345,1027.21,925.399
1656,16.5499,32.7847,843.644,1028.9,926.633
1665,16.5167,33.8556,849.708,1030.299,927.617
1674,16.338,33.7393,844.95,1030.936,928.656
1683,16.2854,35.1024,850.205,1031.535,929.616
1692,16.1581,29.3195,842.67,1032.302,930.627
1701,16.0744,29.5593,847.349,1032.212,931.595
1710,15.9607,32.7272,832.684,1032.606,932.546
1719,15.92609,31.9554,831.025,1036.727,933.512
1728,15.8334,31.8703,837.559,1035.474,934.625
1737,15.7066,29.5845,844.875,1035.004,935.526
1746,15.6196,27.5241,826.196,1040.471,936.387
1755,15.5818,28.5987,824.841,1039.952,937.468
1764,15.4086,29.9313,777.386,1046.404,938.657
1773,15.3503,28.3928,768.435,1048.82,939.817
1782,15.258,30.8006,780.799,1048.99,940.959
1791,15.17,30.3597,771.064,1052.457,942.233
1800,15.067,30.0408,771.297,1051.231,943.27
1809,14.99833,32.2697,807.477,1048.76,944.195
1818,14.9572,29.5876,776.289,1055.576,945.259
1825,14.8072,30.1666,766.021,1063.24,946.219