File: Wood/Calibration_Data/FPL/FPL_Wood_TGA_N2_10K_R2.csv
Time (s),Temperature (K),Mass (mg)
0,303.15,5.184297
16,313.817,5.185447
32,324.483,5.185289
48,335.15,5.181671
64,345.817,5.174377
80,356.483,5.160892
96,367.15,5.1379
112,377.817,5.1157
128,378.15,4.886738
144,378.15,4.886885
160,378.15,4.886786
176,378.15,4.886699
192,378.15,4.8866
208,378.15,4.886487
224,378.15,4.8866
240,378.15,4.886499
256,378.15,4.886499
272,378.15,4.886507
288,378.15,4.886499
304,373.358,4.886552
320,366.692,4.886458
336,360.025,4.886097
352,353.358,4.886137
368,346.692,4.88606
384,340.025,4.886024
400,333.358,4.885992
416,326.692,4.885906
432,320.025,4.885882
448,313.358,4.885799
464,306.692,4.885935
480,303.15,4.887599
496,303.15,4.887899
512,303.15,4.8879
528,303.15,4.8879
544,303.15,4.888065
560,303.15,4.888035
576,303.15,4.888178
592,303.15,4.888009
608,303.15,4.887926
624,303.15,4.887626
640,303.15,4.887799
656,303.15,4.887799
672,303.15,4.888
688,303.15,4.8881
704,303.15,4.888398
720,303.15,4.888224
736,303.15,4.8883
752,303.15,4.8883
768,303.15,4.888499
784,303.15,4.888133
800,303.15,4.8883
816,303.15,4.8883
832,303.15,4.888433
848,303.15,4.8883
864,303.15,4.8884
880,303.15,4.888409
896,303.15,4.888499
912,303.15,4.888399
928,303.15,4.888599
944,303.15,4.8887
960,303.15,4.888911
976,303.15,4.8891
992,303.15,4.889136
1008,303.15,4.889299
1024,303.15,4.889199
1040,303.15,4.889299
1056,303.15,4.889673
1072,303.15,4.889497
1088,305.733,4.890516
1104,308.4,4.890581
1120,311.067,4.890738
1136,313.733,4.890514
1152,316.4,4.890998
1168,319.067,4.890898
1184,321.733,4.890713
1200,324.4,4.890901
1216,327.067,4.891051
1232,329.733,4.891181
1248,332.4,4.891023
1264,335.067,4.891207
1280,337.733,4.891289
1296,340.4,4.89124
1312,343.067,4.891194
1328,345.733,4.891357
1344,348.4,4.891219
1360,351.067,4.891302
1376,353.733,4.89126
1392,356.4,4.891481
1408,359.067,4.891427
1424,361.733,4.891492
1440,364.4,4.891224
1456,367.067,4.89115
1472,369.733,4.891076
1488,372.4,4.890937
1504,375.067,4.890831
1520,377.733,4.890639
1536,380.4,4.890533
1552,383.067,4.89048
1568,385.733,4.89009
1584,388.4,4.890005
1600,391.067,4.889936
1616,393.733,4.889794
1632,396.4,4.889547
1648,399.067,4.889551
1664,401.733,4.88958
1680,404.4,4.889092
1696,407.067,4.889107
1712,409.733,4.88908
1728,412.4,4.888815
1744,415.067,4.888472
1760,417.733,4.888187
1776,420.4,4.888031
1792,423.067,4.887701
1808,425.733,4.887434
1824,428.4,4.887178
1840,431.067,4.886872
1856,433.733,4.886624
1872,436.4,4.886155
1888,439.067,4.885647
1904,441.733,4.885249
1920,444.4,4.884575
1936,447.067,4.884092
1952,449.733,4.883638
1968,452.4,4.883004
1984,455.067,4.881993
2000,457.733,4.881203
2016,460.4,4.880038
2032,463.067,4.878911
2048,465.733,4.877536
2064,468.4,4.875846
2080,471.067,4.873965
2096,473.733,4.87172
2112,476.4,4.869408
2128,479.067,4.866338
2144,481.733,4.863405
2160,484.4,4.860132
2176,487.067,4.856595
2192,489.733,4.852503
2208,492.4,4.848216
2224,495.067,4.843229
2240,497.733,4.838071
2256,500.4,4.832312
2272,503.067,4.826172
2288,505.733,4.819633
2304,508.4,4.811996
2320,511.067,4.80386
2336,513.733,4.795093
2352,516.4,4.785355
2368,519.067,4.77482
2384,521.733,4.763592
2400,524.4,4.751829
2416,527.067,4.739428
2432,529.733,4.726487
2448,532.4,4.712822
2464,535.067,4.697876
2480,537.733,4.682339
2496,540.4,4.665623
2512,543.067,4.647892
2528,545.733,4.629031
2544,548.4,4.608524
2560,551.067,4.587152
2576,553.733,4.564589
2592,556.4,4.539955
2608,559.067,4.514013
2624,561.733,4.486395
2640,564.4,4.45691
2656,567.067,4.425546
2672,569.733,4.392442
2688,572.4,4.356912
2704,575.067,4.319297
2720,577.733,4.278879
2736,580.4,4.236156
2752,583.067,4.189854
2768,585.733,4.140847
2784,588.4,4.088383
2800,591.067,4.032579
2816,593.733,3.972755
2832,596.4,3.910295
2848,599.067,3.844058
2864,601.733,3.774539
2880,604.4,3.702349
2896,607.067,3.627369
2912,609.733,3.549638
2928,612.4,3.469404
2944,615.067,3.386239
2960,617.733,3.299803
2976,620.4,3.209403
2992,623.067,3.114224
3008,625.733,3.012344
3024,628.4,2.903726
3040,631.067,2.786098
3056,633.733,2.659762
3072,636.4,2.525305
3088,639.067,2.38637
3104,641.733,2.249362
3120,644.4,2.122765
3136,647.067,2.01445
3152,649.733,1.929402
3168,652.4,1.867094
3184,655.067,1.823424
3200,657.733,1.79274
3216,660.4,1.769787
3232,663.067,1.751132
3248,665.733,1.734882
3264,668.4,1.719472
3280,671.067,1.705036
3296,673.733,1.690803
3312,676.4,1.676812
3328,679.067,1.663505
3344,681.733,1.650054
3360,684.4,1.636895
3376,687.067,1.623515
3392,689.733,1.610501
3408,692.4,1.597132
3424,695.067,1.584399
3440,697.733,1.571764
3456,700.4,1.559206
3472,703.067,1.546628
3488,705.733,1.534576
3504,708.4,1.522162
3520,711.067,1.510423
3536,713.733,1.498957
3552,716.4,1.48764
3568,719.067,1.476651
3584,721.733,1.465997
3600,724.4,1.455668
3616,727.067,1.445969
3632,729.733,1.436427
3648,732.4,1.427445
3664,735.067,1.418596
3680,737.733,1.410404
3696,740.4,1.402311
3712,743.067,1.39486
3728,745.733,1.387434
3744,748.4,1.380467
3760,751.067,1.373558
3776,753.733,1.366937
3792,756.4,1.360894
3808,759.067,1.354569
3824,761.733,1.348572
3840,764.4,1.342964
3856,767.067,1.33726
3872,769.733,1.331732
3888,772.4,1.326515
3904,775.067,1.32105
3920,777.733,1.315945
3936,780.4,1.311108
3952,783.067,1.30581
3968,785.733,1.301007
3984,788.4,1.296161
4000,791.067,1.29149
4016,793.733,1.286793
4032,796.4,1.282472
4048,799.067,1.277369
4064,801.733,1.273092
4080,804.4,1.269072
4096,807.067,1.265077
4112,809.733,1.260936
4128,812.4,1.256708
4144,815.067,1.252772
4160,817.733,1.248801
4176,820.4,1.244819
4192,823.067,1.241098
4208,825.733,1.237148
4224,828.4,1.233574
4240,831.067,1.229716
4256,833.733,1.226107
4272,836.4,1.222723
4288,839.067,1.219096
4304,841.733,1.215706
4320,844.4,1.212199
4336,847.067,1.209058
4352,849.733,1.20554
4368,852.4,1.202383
4384,855.067,1.199174
4400,857.733,1.195685
4416,860.4,1.192253
4432,863.067,1.189741
4448,865.733,1.186597
4464,868.4,1.18341
4480,871.067,1.180544
4496,873.733,1.177564
4512,876.4,1.174952
4528,879.067,1.171956
4544,881.733,1.169162
4560,884.4,1.166658
4576,887.067,1.164317
4592,889.733,1.162317
4608,892.4,1.159761
4612,893.067,1.159276