File: Wood/Calibration_Data/FPL/FPL_Wood_Cone_50kW_hor_R4.csv
Time (s),Mass (g),HRR (kW/m2),TC Top (K),TC back 1 (K),TC back 2 (K)
0,99.37,7.08598,32.274,20.5,20.056
8,83.8878,2.99585,239.25,20.572,20.039
16,77.7205,137.214,387.493,20.681,20.03
24,74.3298,210.786,486.115,21.096,19.946
32,69.4606,161.197,539.155,22.484,20.049
40,67.0538,124.234,584.926,25.492,19.891
48,66.2771,108.997,611.708,29.746,19.79
56,65.6709,105.384,641.483,35.554,19.864
64,65.0532,102.67,663.712,40.993,19.984
72,64.3759,93.5597,677.271,47.556,20.142
80,64.0286,92.9437,681.994,53.208,20.254
88,63.5761,85.704,688.563,59.143,20.472
96,63.1752,86.6493,702.913,65.532,20.682
104,62.8973,80.9795,696.215,71.84,20.869
112,62.5309,79.8495,706.355,77.886,21.222
120,62.1308,80.0319,707.321,83.066,21.597
128,61.7718,80.7923,717.465,89.263,22.133
136,61.3283,78.0623,708.285,94.193,22.651
144,60.8891,78.5326,713.348,99.521,23.285
152,60.4067,79.7233,718.254,104.923,24.022
160,59.8742,75.6871,718.075,110.291,24.855
168,59.5762,78.3011,727.42,115.182,25.856
176,59.0721,78.5237,736.583,120.115,26.884
184,59.1297,78.247,732.728,125.14,28.055
192,58.6706,75.6576,744.618,129.828,29.277
200,58.2319,78.8919,743.509,135.218,30.737
208,57.84685,74.024,735.115,140.029,32.093
216,57.4382,77.525,758.574,145.568,33.75
224,57.027,74.661,753.366,150.608,35.252
232,56.5029,76.4612,750.283,156.316,36.938
240,56.1004,75.0079,751.621,162.385,38.765
248,55.6609,76.5148,764.473,168.708,40.582
256,55.3162,75.9902,764.621,175.393,42.463
264,54.8752,75.1419,757.435,181.594,44.353
272,54.384,72.0455,769.4,188.74,46.62
280,53.9979,73.1067,766.831,194.675,48.597
288,53.6642,76.1533,763.161,201.634,51.037
296,53.695,78.0517,763.562,207.898,53.172
304,53.2902,74.0667,766.683,214.417,55.536
312,52.8289,77.8802,770.757,220.918,58.086
320,52.2865,75.6046,766.082,227.261,60.618
328,51.8946,76.6136,775.717,233.817,63.258
336,51.5388,77.4771,771.366,239.849,65.657
344,51.1394,73.4304,774.563,246.845,68.556
352,51.1261,75.3321,775.722,252.675,70.931
360,50.56566,74.2158,770.515,259.428,73.818
368,50.0241,74.6945,785.69,264.869,76.233
376,49.5849,76.9045,796.952,270.836,78.824
384,49.186,77.0764,784.228,276.783,81.366
392,48.6328,76.2497,790.165,282.469,83.83
400,48.113,76.484,785.981,288.107,86.227
408,47.8797,77.9346,786.59,293.393,88.37
416,47.6864,78.7753,784.077,299.5,90.824
424,47.0176,78.6045,783.032,304.831,92.749
432,46.3512,78.8459,775.405,310.692,95.103
440,45.9458,79.0636,783.033,315.766,96.877
448,45.405,80.4006,800.386,321.03,98.737
456,44.9519,80.4862,799.082,326.414,100.515
464,44.5473,77.5577,790.181,332.066,102.145
472,44.0476,78.2842,795.361,337.213,103.601
480,43.6207,78.3261,798.148,342.449,104.755
488,43.2139,75.2019,799.313,348.74,106.007
496,42.8384,76.6156,806.983,354.413,106.941
504,42.4004,79.5473,807.973,361.497,108.092
512,42.6421,77.1303,808.123,367.245,109.144
520,42.0435,79.9957,801.22,374.681,110.522
528,41.679,81.8916,788.039,381.369,111.839
536,41.10094,82.7333,821.469,388.85,113.387
544,40.585,81.6247,789.879,397.082,115.037
552,40.0268,80.5856,784.378,405.461,116.776
560,39.5932,79.0989,801.175,413.172,118.692
568,39.195,80.7642,812.312,419.797,120.474
576,38.721,82.4318,797.092,427.132,122.797
584,38.2503,79.8661,799.029,433.204,124.865
592,37.8762,80.5334,795.215,439.985,127.392
600,37.2534,82.44,799.787,445.287,129.62
608,36.9221,80.2096,817.532,451.107,132.2
616,36.4627,80.2762,806.787,457.273,134.805
624,35.9519,85.683,814.961,463.613,137.487
632,35.7386,84.1501,831.752,469.867,140.45
640,35.25447,84.5696,815.812,475.645,143.182
648,34.9787,82.3482,832.219,482.225,146.226
656,34.4088,84.3235,811.623,490.902,148.979
664,33.8734,85.3696,811.087,499.488,152.215
672,33.3741,84.3389,814.33,506.094,155.078
680,32.9189,85.0586,798.804,513.342,158.203
688,32.5346,83.0935,808.77,520.303,161.296
696,32.4802,88.0104,806.203,527.441,164.485
704,32.3277,86.8293,809.347,533.822,167.574
712,31.8212,86.1004,820.894,539.151,170.555
720,31.3677,85.8059,810.956,545.637,174.022
728,30.7805,85.9592,826.188,551.125,177.058
736,30.2686,86.4328,834.199,556.767,180.626
744,29.7555,87.7352,829.141,561.747,183.696
752,29.2579,87.5416,818.977,566.985,187.249
760,28.8309,88.3663,815.674,571.22,190.288
768,28.5045,87.2845,812.457,575.727,193.74
776,27.831,92.5638,820.077,580.101,197.08
784,27.4254,90.1955,819.847,584.485,200.211
792,27.1268,86.9227,813.855,589.915,203.821
800,26.7393,90.3768,825.881,594.192,206.982
808,26.4266,87.35066,816.221,598.862,210.675
816,25.8763,91.5073,817.323,602.518,213.905
824,25.552,90.1394,829.426,605.648,217.544
832,25.0521,92.6982,839.768,608.331,220.717
840,24.7295,91.6141,848.624,611.948,224.452
848,24.4209,90.7824,850.7,615.523,228.101
856,23.7001,92.4783,829.299,618.92,231.839
864,23.0668,94.798,832.47,621.702,235.474
872,22.5425,90.8609,839.403,624.832,238.982
880,22.0752,95.5603,829.97,628.298,242.979
888,21.6485,96.0343,828.53,630.652,246.887
896,21.2774,94.5848,832.206,633.207,251.068
904,20.7686,94.5439,822.542,635.446,254.252
912,20.2055,94.9251,837.203,638.071,257.941
920,19.8013,95.6263,830.169,640.486,261.555
928,19.3553,95.5267,810.375,643.422,265.363
936,18.8659,95.6713,812.12,645.697,269.13
944,18.3895,96.824,831.741,647.99,272.688
952,17.8881,100.901,818.463,650.351,276.933
960,17.4901,97.5199,818.157,652.494,280.683
968,16.9697,96.8544,807.588,655.089,285.118
976,16.41551,97.0663,813.014,657.008,288.915
984,15.908,99.0514,806.004,659.306,293.515
992,15.4619,100.879,810.14,660.811,297.645
1000,15.0659,102.423,793.778,662.875,302.296
1008,14.58379,105.164,804.903,665.289,306.826
1016,14.1417,102.09,796.01,666.895,311.616
1024,13.7091,102.061,797.268,668.764,316.266
1032,13.2624,102.084,802.147,670.48,320.776
1040,12.8248,106.623,796.737,673.544,325.997
1048,12.4085,108.398,792.257,675.39,330.634
1056,11.9104,106.532,796.308,677.859,336.044
1064,11.36,111.246,803.955,679.28,340.731
1072,10.7791,107.794,798.026,680.836,345.744
1080,10.2641,108.504,793.245,682.351,350.581
1088,9.739298,114.461,795.149,683.696,355.994
1096,9.176774,110.575,779.534,685.324,361.437
1104,8.655037,112.657,783.066,687.359,366.706
1112,8.085309,110.954,770.138,688.46,372.841
1120,7.604536,110.525,779.412,689.568,378.183
1128,7.125799,112.437,769.731,691.487,384.278
1136,6.524847,118,778.243,693.429,389.668
1144,6.029831,113.881,760.887,695.472,396.165
1152,5.539057,113.823,772.912,696.936,401.781
1160,5.017049,113.949,757.687,698.082,408.542
1168,4.410474,116.389,779.227,698.815,415.227
1176,3.706938,115.355,769.233,700.316,423.271
1184,2.96701,114.81,762.992,701.692,431.744
1192,2.355168,114.291,791.212,702.752,439.997
1200,1.813731,116.12,767.664,703.308,450.175
1208,1.034081,117.462,775.961,705.363,458.835
1216,0.651849,111.514,755.363,706.516,468.738
1224,0.25538,111.497,779.28,707.24,477.07
1232,-0.073479,108.576,757.119,707.905,485.5
1240,-0.332069,107.172,760.22,708.306,493.592
1248,-0.309134,107.08,761.898,709.09,501.07
1256,-0.264621,105.811,756.826,708.906,506.998
1264,-0.500017,103.444,761.796,710.129,513.125
1272,-0.953313,101.67,769.586,710.751,519.985
1280,-1.255635,94.138,769.658,711.972,525.559
1288,-1.784748,91.9591,777.49,712.72,531.968
1296,-2.477558,90.5894,753.551,713.536,536.94
1304,-2.936256,84.9798,774.744,714.526,542.122
1312,-3.432201,80.8553,782.071,715.739,546.642
1320,-4.0915,82.7818,793.237,717.912,551.741
1328,-4.592282,76.2611,803.472,720.105,556.77
1336,-5.060621,70.3275,805.415,722.11,561.957
1344,-4.687756,65.2242,812.637,723.886,567.545
1352,-5.370969,64.8239,814.457,725.929,572.004
1360,-5.910845,61.7221,817.132,727.962,577.406
1368,-6.352033,55.9844,833.261,728.842,583.069
1376,-6.859389,53.1184,842.208,729.3,589.101
1384,-6.07386,53.5768,823.143,731.032,594.406
1392,-6.173753,49.4581,842.376,732.923,600.214
1400,-6.823057,50.4748,836.861,735.835,605.108
1408,-6.977186,47.2931,821.111,737.62,609.537
1416,-7.316093,44.918,785.464,739.252,614.3
1424,-7.570654,45.6039,763.758,740.965,617.885
1432,-7.783136,43.7981,760.144,742.494,621.618
1440,-7.379411,45.7869,725.027,742.474,624.539
1448,-7.063002,46.5745,725.131,745.202,627.66
1456,-7.261781,40.2139,725.964,745.723,630.3
1464,-7.546057,40.9035,730.244,747.263,632.885
1472,-7.791676,41.9291,719.353,748.105,635.142
1480,-7.745049,39.6015,727.094,749.027,637.095
1488,-7.866958,37.2896,722.187,749.163,639.238
1496,-8.185034,37.4481,722.489,750.996,640.958
1504,-8.470581,38.175,713.157,753.023,642.852
1512,-8.773146,36.0815,690.521,754.12,644.407
1520,-9.080922,38.1414,701.549,755.136,646.006
1528,-9.317315,37.6907,691.924,755.793,647.509
1536,-9.024232,37.7429,675.747,758.913,649.042
1544,-8.730409,37.3572,673.892,757.108,650.354
1552,-9.141393,39.0113,667.045,757.386,651.452
1560,-9.511,35.3567,664.863,761.42,652.56
1568,-8.716845,35.1853,673.082,761.808,653.537
1576,-9.163395,34.1646,631.046,760.249,654.574
1584,-9.48195,32.8403,638.139,761.203,655.496
1592,-9.704773,36.4812,635.783,763.4,656.576
1600,-9.882365,33.6209,621.573,765.231,657.423
1608,-10.12753,32.4737,613.145,763.565,658.356
1616,-10.2566,32.469,607.299,763.291,659.16
1624,-10.4696,31.9332,608.479,764.044,659.918
1632,-10.5169,31.0108,609.878,763.54,660.813
1640,-9.933512,36.2424,580.306,766.214,661.551
1648,-10.1144,32.7064,609.227,766.991,662.525
1656,-9.925155,34.352,582.181,767.816,663.396
1664,-10.0609,30.255,580.594,766.216,664.373
1672,-10.3408,30.5565,580.183,769.287,665.149
1673,-10.3169,30.5265,580.737,769.494,665.285