File: Wood/Calibration_Data/FPL/FPL_Wood_Cone_50kW_hor_R3.csv
Time (s),Mass (g),HRR (kW/m2)
0,99.18926,2.17897
6,99.1465,1.51962
12,99.12956,1.81635
18,98.7418,131.792
24,97.9816,198.503
30,97.3767,157.601
36,96.8606,129.471
42,96.4126,118.138
48,95.9986,111.584
54,95.6131,109.094
60,95.22021,99.2433
66,94.8725,95.012
72,94.5359,90.5273
78,94.18207,88.4797
84,93.8375,82.9306
90,93.5699,80.2418
96,93.2738,81.1013
102,92.9808,78.5698
108,92.6952,78.3549
114,92.4118,74.1318
120,92.122,71.8244
126,91.8201,73.2921
132,91.5508,72.6358
138,91.2093,74.3139
144,90.97,72.7976
150,90.7051,69.5586
156,90.4075,69.6974
162,90.0986,68.0519
168,89.8407,66.1334
174,89.5865,67.0429
180,89.3231,65.8417
186,89.0672,66.3114
192,88.7909,66.7917
198,88.5239,65.4718
204,88.2202,67.4416
210,87.9475,66.0458
216,87.6495,67.1447
222,87.4331,66.5159
228,87.1343,65.3269
234,86.8333,65.0063
240,86.5532,67.2346
246,86.2787,66.8004
252,85.9822,65.5209
258,85.7285,63.4625
264,85.4002,66.2479
270,85.1724,65.5693
276,84.8673,63.394
282,84.5808,63.9495
288,84.27,66.4917
294,83.9901,63.9506
300,83.67159,67.2549
306,83.4165,69.1859
312,83.0929,68.8805
318,82.7996,68.4134
324,82.4758,67.9435
330,82.1239,66.9082
336,81.8698,68.6956
342,81.53329,68.185
348,81.2322,70.0489
354,80.9223,71.3109
360,80.58234,68.0089
366,80.28802,73.874
372,79.9507,72.0163
378,79.6545,72.0428
384,79.33666,75.7874
390,79.0308,71.8169
396,78.7177,74.2875
402,78.3692,72.7981
408,78.0202,75.018
414,77.7228,73.8135
420,77.4118,74.052
426,77.0508,75.1819
432,76.7727,73.6938
438,76.4119,74.4808
444,76.1719,73.2517
450,75.7851,76.1402
456,75.4492,76.3747
462,75.1902,78.4174
468,74.8286,76.9688
474,74.525,76.2113
480,74.1618,76.9015
486,73.8431,76.5509
492,73.54229,77.5576
498,73.2187,75.5112
504,72.919,78.3644
510,72.6205,77.6206
516,72.2567,76.7435
522,71.9171,75.4005
528,71.5998,77.6118
534,71.2868,77.65
540,70.97531,76.772
546,70.6705,77.2087
552,70.3308,78.3386
558,70.0325,76.8506
564,69.7358,77.4564
570,69.3599,77.6881
576,69.0168,76.5111
582,68.7231,76.8569
588,68.4077,75.9676
594,68.0983,76.4328
600,67.7544,77.2099
606,67.4721,75.4757
612,67.15478,77.2985
618,66.8003,78.5804
624,66.4991,78.2151
630,66.2007,75.0106
636,65.866,73.954
642,65.5466,72.0286
648,65.19,74.4661
654,64.9092,75.7773
660,64.587,75.9536
666,64.2931,76.4707
672,63.9681,74.1383
678,63.65123,74.958
684,63.3517,76.5732
690,63.0237,76.6882
696,62.7239,77.7348
702,62.4585,80.3442
708,62.1057,75.2845
714,61.8167,73.4326
720,61.4801,77.79
726,61.1564,76.7819
732,60.8757,75.8974
738,60.5645,78.4704
744,60.2348,76.9604
750,59.9379,76.0604
756,59.6568,77.1695
762,59.33533,75.6471
768,59.0035,77.5034
774,58.714,71.457
780,58.4079,77.147
786,58.067,77.7523
792,57.7516,77.5699
798,57.4398,77.5036
804,57.1425,80.5584
810,56.8076,81.6675
816,56.5119,81.3265
822,56.1997,79.4924
828,55.8742,82.6024
834,55.5842,82.0458
840,55.2456,80.5831
846,54.9461,80.9575
852,54.5966,84.3453
858,54.29319,83.0371
864,53.9688,82.5809
870,53.6443,85.7629
876,53.2957,84.6495
882,52.9715,85.8583
888,52.6402,85.3176
894,52.3337,88.4844
900,51.9849,88.9331
906,51.6267,89.4073
912,51.294,91.2178
918,50.9507,89.9965
924,50.62848,91.9555
930,50.3065,89.9319
936,49.942,85.9635
942,49.5786,90.9803
948,49.2198,96.7583
954,48.9027,96.3988
960,48.4937,92.8682
966,48.1527,93.9109
972,47.8181,92.4765
978,47.5139,96.3329
984,47.1313,94.2658
990,46.7457,101.068
996,46.3977,95.4779
1002,46.0029,102.051
1008,45.59977,102.312
1014,45.2614,101.72
1020,44.9124,104.493
1026,44.5233,103.618
1032,44.1344,101.236
1038,43.7168,102.298
1044,43.3507,107.233
1050,43.0014,106.448
1056,42.5719,104.705
1062,42.2588,109.039
1068,41.81107,108.772
1074,41.4391,107.882
1080,41.0115,107.937
1086,40.6359,108.598
1092,40.21199,112.101
1098,39.81,113.51
1104,39.3703,111.91
1110,39.0464,110.168
1116,38.5899,110.576
1122,38.1458,111.048
1128,37.7512,112.303
1134,37.3269,111.603
1140,36.8949,114.387
1146,36.5142,115.191
1152,36.0234,115.752
1158,35.6202,120.052
1164,35.215,120.064
1170,34.7532,119.305
1176,34.35342,115.183
1182,33.8915,116.243
1188,33.4618,115.505
1194,32.9916,115.729
1200,32.6467,118.518
1206,32.2138,119.031
1212,31.773,117.086
1218,31.3569,115.813
1224,30.8957,115.344
1230,30.4913,118.215
1236,30.0844,114.95
1242,29.6857,112.743
1248,29.2762,109.373
1254,28.9248,105.834
1260,28.5397,108.13
1266,28.1629,101.577
1272,27.761,102.153
1278,27.4387,100.958
1284,27.0716,100.475
1290,26.74172,99.1517
1296,26.4062,100.564
1302,26.0767,94.4608
1308,25.7971,95.743
1314,25.4666,93.2773
1320,25.1797,91.3531
1326,24.9009,83.102
1332,24.6332,82.258
1338,24.3817,79.4654
1344,24.1372,82.6554
1350,23.8641,75.7585
1356,23.6662,73.9306
1362,23.38735,74.1265
1368,23.2081,72.6711
1374,22.954,72.0919
1380,22.7937,69.5925
1386,22.5736,65.0693
1392,22.4168,61.7448
1398,22.1772,62.4147
1404,22.0579,58.9496
1410,21.9289,57.8458
1416,21.7666,59.3902
1422,21.5893,54.723
1428,21.4795,53.802
1434,21.3132,55.9493
1440,21.162,51.7653
1446,21.034,49.4508
1452,20.9527,49.5564
1458,20.8235,48.7858
1464,20.7007,48.4351
1470,20.5578,45.814
1476,20.4331,44.6782
1482,20.3551,47.251
1488,20.2358,43.4748
1494,20.1432,43.3106
1500,19.9905,42.9936
1506,19.9136,40.8997
1512,19.84244,41.0981
1518,19.6837,40.7388
1524,19.6227,40.1893
1530,19.5089,41.8219
1536,19.4381,40.9748
1542,19.333,38.924
1548,19.2482,38.0856
1554,19.1922,40.08
1560,19.0711,40.7375
1566,18.9805,38.2609
1572,18.9452,37.5364
1578,18.8474,36.7924
1584,18.705,35.8884
1590,18.6837,36.0861
1596,18.58071,35.2197
1602,18.4932,35.1565
1608,18.4778,35.1897
1614,18.3602,35.0809
1620,18.2485,37.4034
1626,18.2011,38.2925
1632,18.1706,35.8102
1638,18.0759,35.8389
1644,17.9846,34.7018
1650,17.9612,33.5962
1656,17.929,33.7485
1662,17.77632,31.8379
1668,17.73726,32.0781
1674,17.67618,32.65
1680,17.6432,33.6815
1686,17.533,32.8245
1692,17.4182,31.047
1698,17.369,30.195
1704,17.375,30.6772
1710,17.2501,33.8975
1716,17.2442,32.1325
1722,17.2009,32.7322
1728,17.1164,33.6637
1734,17.0506,30.6141
1740,17.0196,33.5572
1746,16.87448,31.3771
1752,16.8803,32.8014
1758,16.8443,32.4826
1764,16.7346,30.0017
1765,16.7661,29.164