File: Wood/Calibration_Data/FPL/FPL_Wood_TGA_N2_10K_R1.csv
Time (s),Temperature (K),Mass (mg)
0,303.15,6.522797
16,313.817,6.524287
32,324.483,6.524172
48,335.15,6.520642
64,345.817,6.513586
80,356.483,6.500271
96,367.15,6.47751
112,377.817,6.453579
128,378.15,6.144502
144,378.15,6.144587
160,378.15,6.144389
176,378.15,6.144402
192,378.15,6.143862
208,378.15,6.144201
224,378.15,6.144201
240,378.15,6.144201
256,378.15,6.144101
272,378.15,6.144309
288,378.15,6.144102
304,373.358,6.144275
320,366.692,6.144217
336,360.025,6.143729
352,353.358,6.143558
368,346.692,6.143364
384,340.025,6.143414
400,333.358,6.143266
416,326.692,6.14319
432,320.025,6.14311
448,313.358,6.143215
464,306.692,6.14327
480,303.15,6.145301
496,303.15,6.145701
512,303.15,6.145502
528,303.15,6.145502
544,303.15,6.145645
560,303.15,6.145586
576,303.15,6.14568
592,303.15,6.14571
608,303.15,6.145628
624,303.15,6.14528
640,303.15,6.145362
656,303.15,6.145501
672,303.15,6.145601
688,303.15,6.145798
704,303.15,6.145305
720,303.15,6.145626
736,303.15,6.145802
752,303.15,6.145802
768,303.15,6.145901
784,303.15,6.145535
800,303.15,6.145802
816,303.15,6.145902
832,303.15,6.146135
848,303.15,6.145902
864,303.15,6.146001
880,303.15,6.146001
896,303.15,6.146001
912,303.15,6.145925
928,303.15,6.145901
944,303.15,6.146072
960,303.15,6.146113
976,303.15,6.146372
992,303.15,6.146238
1008,303.15,6.146502
1024,303.15,6.146484
1040,303.15,6.146501
1056,303.15,6.146602
1072,303.15,6.146562
1088,305.733,6.147452
1104,308.4,6.147763
1120,311.067,6.147716
1136,313.733,6.147713
1152,316.4,6.148056
1168,319.067,6.147989
1184,321.733,6.148109
1200,324.4,6.14809
1216,327.067,6.14806
1232,329.733,6.148303
1248,332.4,6.148318
1264,335.067,6.148354
1280,337.733,6.148304
1296,340.4,6.148255
1312,343.067,6.148248
1328,345.733,6.148506
1344,348.4,6.148204
1360,351.067,6.148168
1376,353.733,6.148114
1392,356.4,6.148619
1408,359.067,6.148372
1424,361.733,6.14787
1440,364.4,6.148744
1456,367.067,6.148132
1472,369.733,6.148102
1488,372.4,6.14796
1504,375.067,6.147956
1520,377.733,6.147684
1536,380.4,6.147089
1552,383.067,6.147221
1568,385.733,6.147124
1584,388.4,6.146996
1600,391.067,6.146802
1616,393.733,6.14651
1632,396.4,6.146172
1648,399.067,6.146225
1664,401.733,6.146117
1680,404.4,6.145521
1696,407.067,6.14559
1712,409.733,6.145412
1728,412.4,6.145101
1744,415.067,6.144827
1760,417.733,6.144554
1776,420.4,6.144504
1792,423.067,6.143814
1808,425.733,6.143387
1824,428.4,6.143065
1840,431.067,6.1427
1856,433.733,6.142295
1872,436.4,6.141484
1888,439.067,6.141149
1904,441.733,6.140708
1920,444.4,6.139976
1936,447.067,6.139206
1952,449.733,6.138326
1968,452.4,6.137728
1984,455.067,6.136788
2000,457.733,6.135521
2016,460.4,6.134257
2032,463.067,6.132995
2048,465.733,6.131203
2064,468.4,6.129108
2080,471.067,6.127168
2096,473.733,6.124527
2112,476.4,6.121709
2128,479.067,6.118525
2144,481.733,6.114784
2160,484.4,6.111241
2176,487.067,6.107041
2192,489.733,6.101863
2208,492.4,6.096695
2224,495.067,6.090923
2240,497.733,6.08463
2256,500.4,6.077833
2272,503.067,6.070461
2288,505.733,6.062647
2304,508.4,6.053702
2320,511.067,6.043816
2336,513.733,6.033108
2352,516.4,6.021531
2368,519.067,6.008784
2384,521.733,5.995089
2400,524.4,5.98087
2416,527.067,5.965663
2432,529.733,5.949602
2448,532.4,5.932776
2464,535.067,5.914616
2480,537.733,5.895061
2496,540.4,5.874135
2512,543.067,5.852303
2528,545.733,5.828815
2544,548.4,5.803745
2560,551.067,5.776938
2576,553.733,5.749144
2592,556.4,5.718447
2608,559.067,5.686242
2624,561.733,5.652003
2640,564.4,5.615449
2656,567.067,5.576637
2672,569.733,5.535607
2688,572.4,5.491607
2704,575.067,5.444966
2720,577.733,5.394961
2736,580.4,5.341722
2752,583.067,5.284388
2768,585.733,5.22324
2784,588.4,5.157544
2800,591.067,5.088255
2816,593.733,5.01414
2832,596.4,4.935873
2848,599.067,4.85327
2864,601.733,4.766509
2880,604.4,4.675978
2896,607.067,4.581926
2912,609.733,4.484326
2928,612.4,4.383194
2944,615.067,4.278449
2960,617.733,4.168892
2976,620.4,4.054538
2992,623.067,3.933593
3008,625.733,3.804645
3024,628.4,3.666241
3040,631.067,3.516735
3056,633.733,3.356017
3072,636.4,3.185096
3088,639.067,3.009259
3104,641.733,2.836245
3120,644.4,2.677218
3136,647.067,2.542214
3152,649.733,2.437232
3168,652.4,2.360574
3184,655.067,2.306726
3200,657.733,2.268698
3216,660.4,2.239901
3232,663.067,2.216033
3248,665.733,2.195148
3264,668.4,2.175593
3280,671.067,2.156882
3296,673.733,2.138681
3312,676.4,2.121168
3328,679.067,2.103523
3344,681.733,2.0861
3360,684.4,2.069259
3376,687.067,2.052203
3392,689.733,2.035231
3408,692.4,2.018331
3424,695.067,2.001731
3440,697.733,1.985374
3456,700.4,1.969067
3472,703.067,1.953032
3488,705.733,1.937187
3504,708.4,1.921198
3520,711.067,1.906236
3536,713.733,1.891057
3552,716.4,1.876751
3568,719.067,1.862559
3584,721.733,1.848859
3600,724.4,1.835579
3616,727.067,1.822902
3632,729.733,1.81049
3648,732.4,1.799027
3664,735.067,1.787793
3680,737.733,1.77706
3696,740.4,1.766756
3712,743.067,1.757025
3728,745.733,1.74737
3744,748.4,1.738199
3760,751.067,1.729633
3776,753.733,1.720825
3792,756.4,1.712569
3808,759.067,1.704577
3824,761.733,1.69688
3840,764.4,1.689507
3856,767.067,1.682115
3872,769.733,1.674884
3888,772.4,1.668125
3904,775.067,1.661168
3920,777.733,1.6546
3936,780.4,1.648168
3952,783.067,1.641418
3968,785.733,1.634954
3984,788.4,1.628913
4000,791.067,1.622812
4016,793.733,1.61713
4032,796.4,1.611133
4048,799.067,1.604765
4064,801.733,1.599207
4080,804.4,1.594028
4096,807.067,1.588553
4112,809.733,1.583353
4128,812.4,1.578249
4144,815.067,1.572912
4160,817.733,1.56762
4176,820.4,1.562717
4192,823.067,1.557707
4208,825.733,1.552843
4224,828.4,1.548281
4240,831.067,1.543488
4256,833.733,1.538784
4272,836.4,1.534184
4288,839.067,1.529731
4304,841.733,1.525185
4320,844.4,1.520803
4336,847.067,1.516522
4352,849.733,1.512177
4368,852.4,1.508156
4384,855.067,1.503851
4400,857.733,1.499509
4416,860.4,1.495614
4432,863.067,1.491588
4448,865.733,1.487626
4464,868.4,1.483812
4480,871.067,1.480115
4496,873.733,1.47634
4512,876.4,1.472958
4528,879.067,1.469304
4544,881.733,1.465662
4560,884.4,1.462437
4576,887.067,1.459449
4592,889.733,1.456833
4608,892.4,1.453724
4612,893.067,1.453037