File: Wood/Calibration_Data/FPL/FPL_Wood_Cone_50kW_hor_R2.csv
Time (s),Mass (g),HRR (kW/m2)
0,105.22,2.49887
5,121.512,3.31999
10,121.484,2.22988
15,121.204,102.052
20,120.614,184.842
25,120.011,204.058
30,119.414,177.914
35,118.989,161.826
40,118.5,143.495
45,118.04,134.331
50,117.64,129.602
55,117.339,114.995
60,116.953,116.095
65,116.586,115.361
70,116.277,111.118
75,115.882,107.795
80,115.601,103.051
85,115.273,102.017
90,114.963,101.487
95,114.744,97.9332
100,114.416,94.9713
105,114.137,95.2696
110,113.824,98.3397
115,113.586,91.3593
120,113.278,87.9477
125,113.023,88.9485
130,112.745,85.4428
135,112.501,86.0127
140,112.241,84.7268
145,111.985,85.6288
150,111.736,83.1928
155,111.465,83.5795
160,111.221,82.9186
165,110.99,80.4862
170,110.709,79.5938
175,110.476,80.4488
180,110.236,80.0332
185,109.959,76.2701
190,109.651,77.0778
195,109.435,77.6697
200,109.216,78.0172
205,108.895,76.746
210,108.705,76.1446
215,108.444,75.5451
220,108.19,75.7566
225,107.932,76.3671
230,107.673,73.8332
235,107.399,77.0227
240,107.166,75.577
245,106.887,76.3459
250,106.647,74.4027
255,106.424,74.7318
260,106.141,74.025
265,105.874,76.2505
270,105.6,74.3096
275,105.349,73.3624
280,105.079,75.7597
285,104.867,72.9791
290,104.565,75.0337
295,104.271,77.3793
300,103.992,77.8619
305,103.732,75.4394
310,103.45,76.9938
315,103.162,77.6345
320,102.925,76.8136
325,102.685,77.7432
330,102.377,77.3157
335,102.095,76.5096
340,101.83,79.29645
345,101.54,77.2688
350,101.276,79.5606
355,101.018,76.5497
360,100.705,75.7744
365,100.456,77.3489
370,100.152,77.7564
375,99.8623,77.9665
380,99.6415,76.8245
385,99.3315,76.7958
390,99.0646,77.4127
395,98.788,76.5357
400,98.5014,77.4361
405,98.2445,75.9825
410,97.95074,79.0805
415,97.6527,77.4727
420,97.3937,78.2527
425,97.09861,77.0294
430,96.8324,75.1008
435,96.5512,78.6501
440,96.3092,78.4169
445,96.0152,78.5161
450,95.724,76.3366
455,95.4454,78.8617
460,95.1514,81.5771
465,94.8695,78.9051
470,94.592,77.9483
475,94.3288,79.0318
480,94.033,81.3774
485,93.7679,79.9464
490,93.4761,79.4182
495,93.215,80.037
500,92.8997,80.2145
505,92.6804,78.0735
510,92.3425,83.2298
515,92.09791,78.6325
520,91.7907,76.9595
525,91.5289,80.3731
530,91.22134,78.24
535,90.95918,77.5279
540,90.6507,82.382
545,90.3369,82.0262
550,90.1271,84.2026
555,89.8437,82.8935
560,89.5393,83.0076
565,89.23956,79.4215
570,88.9719,82.1477
575,88.6616,81.2507
580,88.3952,83.7915
585,88.114,83.8765
590,87.8721,79.8942
595,87.5527,85.2427
600,87.28801,83.0804
605,87.0083,80.9554
610,86.7228,79.3645
615,86.4195,82.2473
620,86.1416,81.7764
625,85.8824,81.6351
630,85.6141,81.8144
635,85.3073,83.1606
640,85.0145,83.824
645,84.76,84.0448
650,84.48304,80.8808
655,84.2082,82.469
660,83.9153,80.5682
665,83.6422,82.2127
670,83.3602,84.1577
675,83.101,86.4695
680,82.78598,87.0282
685,82.5585,86.159
690,82.2844,85.4639
695,82.0014,82.2785
700,81.6913,81.0793
705,81.424,84.4529
710,81.1665,81.4461
715,80.8792,82.6499
720,80.5812,86.7346
725,80.3343,85.1322
730,80.05013,84.5941
735,79.7518,84.3277
740,79.506,84.1345
745,79.2259,84.592
750,78.8979,86.2048
755,78.6628,86.2415
760,78.3965,86.7594
765,78.142,84.2918
770,77.8043,87.5885
775,77.5515,84.4259
780,77.2798,87.2586
785,76.9834,84.6515
790,76.7092,86.0243
795,76.4236,90.0948
800,76.1577,87.9706
805,75.8871,90.9345
810,75.6166,93.7324
815,75.3175,90.6038
820,75.0711,90.9477
825,74.7387,90.965
830,74.4746,87.1808
835,74.2256,89.5362
840,73.952,89.9378
845,73.6496,88.9704
850,73.3494,92.308
855,73.0439,93.2706
860,72.7843,88.0972
865,72.4919,91.911
870,72.22975,89.4382
875,71.90651,89.4617
880,71.625,91.9041
885,71.3373,90.1045
890,71.0624,91.9906
895,70.7727,91.7699
900,70.4939,93.2741
905,70.1825,92.8463
910,69.922,93.8811
915,69.6305,93.0717
920,69.34,95.6395
925,69.0364,96.5386
930,68.7086,94.5816
935,68.3939,94.1104
940,68.0833,96.9802
945,67.8315,96.038
950,67.5072,96.003
955,67.2341,97.3229
960,66.9199,97.7791
965,66.5896,98.8005
970,66.3238,98.9988
975,66.0549,98.2985
980,65.68802,99.3731
985,65.3521,99.1309
990,65.06647,104.885
995,64.8054,101.971
1000,64.4752,103.086
1005,64.17373,104.095
1010,63.8314,102.023
1015,63.4796,107.281
1020,63.1832,103.394
1025,62.8409,101.284
1030,62.6014,109.35
1035,62.2315,108.975
1040,61.9204,106.267
1045,61.5978,107.301
1050,61.2916,107.48
1055,60.9187,107.536
1060,60.6325,107.348
1065,60.3136,108.032
1070,59.9632,109.478
1075,59.6219,110.503
1080,59.2957,114.527
1085,58.9681,110.572
1090,58.6349,113.864
1095,58.2718,111.015
1100,57.9787,113.974
1105,57.611,112.881
1110,57.2758,108.525
1115,56.9428,113.539
1120,56.5835,112.358
1125,56.2123,113.656
1130,55.89502,111.995
1135,55.511,115.285
1140,55.2291,115.541
1145,54.8446,116.619
1150,54.4873,116.437
1155,54.147,112.729
1160,53.7696,116.726
1165,53.4067,116.185
1170,53.0375,117.837
1175,52.7034,120.289
1180,52.3588,116.051
1185,52.0203,118.92
1190,51.6535,123.187
1195,51.3271,119.013
1200,50.9567,121.77
1205,50.56646,123.355
1210,50.2097,118.899
1215,49.8368,121.743
1220,49.5218,120.761
1225,49.173,119.483
1230,48.8152,120.638
1235,48.3994,121.022
1240,48.032,120.608
1245,47.6204,118.707
1250,47.2874,118.557
1255,46.9323,120.912
1260,46.5615,120.653
1265,46.2475,121.082
1270,45.8606,121.298
1275,45.52855,117.509
1280,45.1871,117.385
1285,44.8025,118.904
1290,44.3936,119.602
1295,44.077,120.435
1300,43.73476,117.768
1305,43.3729,115.973
1310,43.0555,118.112
1315,42.7086,120.08
1320,42.4045,117.846
1325,42.0819,112.032
1330,41.7272,113.91
1335,41.4193,109.699
1340,41.0957,106.585
1345,40.8316,107.648
1350,40.4891,103.84
1355,40.2377,100.741
1360,39.9561,105.505
1365,39.6492,100.207
1370,39.3754,96.7729
1375,39.1192,99.2999
1380,38.86226,94.7194
1385,38.6026,91.4463
1390,38.3381,90.5813
1395,38.1066,89.3074
1400,37.9174,91.6359
1405,37.7022,92.5397
1410,34.8962,90.2412