File: PMMA/Calibration_Data/NIST/NIST_Cone_25kW_3.csv
Time,Mass,HRR
[s],[g],[kW/m2]
0,160.569,2.088128
3,160.628,2.418713
6,160.693,1.172552
9,160.685,0.39606
12,160.821,-0.24532
15,160.784,-0.251545
18,160.558,1.266802
21,160.956,0.784348
24,161.033,-0.58965
27,160.903,-2.024904
30,160.846,-0.124717
33,160.681,1.483866
36,161.08,-0.870424
39,160.971,-0.341798
42,160.722,0.079798
45,160.675,-0.400038
48,160.937,-2.299528
51,160.797,-0.481062
54,160.763,-0.370262
57,160.797,-0.458864
60,160.886,-0.133143
63,160.915,-0.317679
66,160.686,0.598518
69,161.018,1.082834
72,160.841,2.60582
75,160.517,1.003103
78,160.721,-0.893903
81,160.678,1.654359
84,160.847,0.524922
87,161.024,-0.090507
90,160.724,2.5319
93,160.821,1.673732
96,160.669,-0.550454
99,160.727,-1.290204
102,160.67,0.426694
105,160.546,-0.590169
108,160.522,9.599345
111,160.467,50.1929
114,160.258,139.82
117,159.844,178.883
120,159.682,236.781
123,159.354,307.854
126,159.088,335.379
129,158.532,374.376
132,157.988,384.189
135,157.383,399.509
138,157.036,391.065
141,156.446,401.037
144,156.004,403.196
147,155.446,401.584
150,155.119,408.709
153,154.517,411.112
156,154.147,419.948
159,153.466,419.364
162,152.797,416.543
165,152.508,424.317
168,152.117,425.116
171,151.446,433.415
174,150.98,429.269
177,150.427,428.144
180,149.936,442.6
183,149.132,444.848
186,148.689,426.624
189,148.059,446.25
192,147.598,436.792
195,146.95,448.405
198,146.558,448.804
201,145.884,447.71
204,145.349,462.724
207,144.908,464.088
210,144.283,465.139
213,143.683,472.186
216,142.841,474.394
219,142.398,475.263
222,141.964,488.36
225,141.316,482.138
228,140.671,490.753
231,140.116,494.547
234,139.386,495.866
237,138.768,510.718
240,138.174,513.381
243,137.431,509.861
246,136.85,514.629
249,136.376,526.927
252,135.465,530.298
255,134.843,535.907
258,134.332,535.437
261,133.528,544.732
264,132.85,552.315
267,132.276,563.062
270,131.561,550.913
273,130.901,555.429
276,130.186,564.362
279,129.387,572.997
282,128.628,568.515
285,127.987,574.33
288,127.157,592.255
291,126.592,588.814
294,125.79,592.16
297,125.108,602.496
300,124.423,613.469
303,123.521,609.115
306,122.894,599.714
309,121.995,595.241
312,121.179,606.677
315,120.507,619.589
318,119.742,618.088
321,118.976,622.711
324,118.076,626.238
327,117.31,622.023
330,116.781,628.312
333,115.87,620.737
336,114.989,652.874
339,114.182,660.053
342,113.31,648.418
345,112.61,663.442
348,111.798,671.812
351,111.093,670.727
354,110.121,676.473
357,109.408,679.732
360,108.679,682.599
363,107.473,694.386
366,106.738,699.865
369,105.95,705.282
372,105.002,683.958
375,104.176,699.488
378,103.303,685.76
381,102.466,708.646
384,101.525,720.646
387,100.583,710.597
390,99.6389,705.125
393,98.9092,711.452
396,98.1038,706.131
399,97.1652,702.887
402,96.2849,696.727
405,95.4059,673.34
408,94.6472,652.64
411,93.8303,634.164
414,93.0075,626.379
417,92.461,619.473
420,91.6332,591.745
423,90.8335,590.649
426,90.2303,577.079
429,89.5323,535.222
432,88.9918,502.57
435,88.3671,450.682
438,87.9701,373.428
441,87.4975,298.114
444,87.131,240.802
447,86.9242,183.932
450,86.8197,122.893
453,86.6382,83.9969
456,86.6739,52.2276
459,86.5989,14.79
462,86.6815,-0.277904
465,86.7709,2.771044
468,86.6263,-2.711742
471,86.5999,-2.927059
474,86.6583,-0.97201
477,86.7239,-1.051076
480,86.5811,-2.627834
483,86.6365,-1.847568
486,86.6639,-2.821883
489,86.5874,-0.017419
492,86.7107,0.324472
495,86.5872,0.466434
498,86.7479,0.193794
501,86.6135,-1.284459
504,86.5754,1.162678
507,86.7281,-3.367719
510,86.716,-0.095898
513,86.6394,-1.777693
516,86.7617,-0.153802
519,86.7402,-0.781411
522,86.6445,1.350366
525,86.5228,0.185744
528,86.9242,-0.278955
531,86.6077,0.871779
534,86.5991,1.172069
537,86.5717,-0.537654
540,86.7003,-0.357078
543,86.6639,1.60733
546,86.7459,0.749904
549,86.51,0.496715
552,86.7185,0.278265
555,86.5251,-0.84823
558,86.593,0.753883
561,86.6764,9.863171
564,86.7091,-2.789882
567,86.5372,-0.985044
570,86.6434,0.385933
573,86.7645,0.472627
576,86.5612,1.171332
579,86.6992,0.424646
582,86.6396,-0.744747
585,86.6215,0.244545
588,86.5865,0.52325
591,86.606,0.286516
594,86.698,-1.790149
597,86.6921,-1.567578
600,86.8427,0.661885