File: PMMA/Calibration_Data/NIST/NIST_MCC_N2_60K_1.csv
Time,Temperature,HRR
[s],[K],[W/g]
0.000,373.798,0.000
1.500,375.039,-0.091
3.000,376.314,-0.006
4.500,377.636,0.037
6.000,378.968,-0.096
7.500,380.324,-0.139
9.000,381.634,-0.216
10.500,383.071,-0.285
12.000,384.488,-0.200
13.500,385.919,-0.096
15.000,387.348,-0.216
16.500,388.79,0.083
18.000,390.256,0.174
19.500,391.737,0.437
21.000,393.248,0.394
22.500,394.751,0.316
24.000,396.264,0.582
25.500,397.818,0.419
27.000,399.365,0.547
28.500,400.876,0.728
30.000,402.445,0.878
31.500,404.027,0.883
33.000,405.638,1.162
34.500,407.27,1.275
36.000,408.82,1.376
37.500,410.417,1.597
39.000,412.04,1.817
40.500,413.644,1.849
42.000,415.3,2.059
43.500,416.975,2.113
45.000,418.571,2.406
46.500,420.183,2.576
48.000,421.818,2.560
49.500,423.471,2.964
51.000,425.106,3.360
52.500,426.723,3.512
54.000,428.363,3.880
55.500,430.046,4.270
57.000,431.676,4.698
58.500,433.328,5.023
60.000,434.971,5.658
61.500,436.623,6.233
63.000,438.24,7.047
64.500,439.882,7.689
66.000,441.537,8.762
67.500,443.156,9.552
69.000,444.787,10.422
70.500,446.459,11.477
72.000,448.108,12.530
73.500,449.746,13.567
75.000,451.363,14.665
76.500,452.975,15.599
78.000,454.588,16.470
79.500,456.189,17.234
81.000,457.819,18.021
82.500,459.444,18.385
84.000,461.054,19.038
85.500,462.64,19.305
87.000,464.273,19.371
88.500,465.854,19.233
90.000,467.449,19.104
91.500,469.056,18.724
93.000,470.638,18.096
94.500,472.203,17.762
96.000,473.78,17.041
97.500,475.4,16.574
99.000,476.962,16.078
100.500,478.535,15.763
102.000,480.149,15.364
103.500,481.686,15.290
105.000,483.273,15.203
106.500,484.867,15.360
108.000,486.424,15.635
109.500,487.949,15.651
111.000,489.577,15.571
112.500,491.148,15.585
114.000,492.656,15.633
115.500,494.215,14.946
117.000,495.735,14.372
118.500,497.291,13.519
120.000,498.784,12.389
121.500,500.334,11.049
123.000,501.853,9.622
124.500,503.35,8.234
126.000,504.896,6.759
127.500,506.426,5.586
129.000,507.955,4.579
130.500,509.427,3.871
132.000,510.917,3.297
133.500,512.385,2.548
135.000,513.898,2.385
136.500,515.369,2.270
138.000,516.886,2.053
139.500,518.344,2.051
141.000,519.845,2.047
142.500,521.353,2.243
144.000,522.844,2.138
145.500,524.297,2.099
147.000,525.792,2.432
148.500,527.281,2.415
150.000,528.731,2.608
151.500,530.227,2.828
153.000,531.72,3.019
154.500,533.214,3.118
156.000,534.674,3.402
157.500,536.14,3.774
159.000,537.601,3.978
160.500,539.063,4.474
162.000,540.518,4.807
163.500,542.015,5.136
165.000,543.508,5.604
166.500,544.971,6.254
168.000,546.48,6.552
169.500,547.884,7.062
171.000,549.337,7.663
172.500,550.823,8.177
174.000,552.366,9.075
175.500,553.809,9.776
177.000,555.254,10.691
178.500,556.708,11.791
180.000,558.219,12.615
181.500,559.667,13.821
183.000,561.125,15.329
184.500,562.611,16.212
186.000,564.123,17.337
187.500,565.535,18.672
189.000,567.002,19.670
190.500,568.5,20.930
192.000,569.962,21.999
193.500,571.392,23.421
195.000,572.939,24.509
196.500,574.377,25.606
198.000,575.883,26.760
199.500,577.343,27.695
201.000,578.809,28.358
202.500,580.235,29.249
204.000,581.755,30.013
205.500,583.229,30.858
207.000,584.713,31.793
208.500,586.184,32.809
210.000,587.656,33.800
211.500,589.136,35.093
213.000,590.612,36.230
214.500,592.116,38.058
216.000,593.551,39.849
217.500,595.059,42.071
219.000,596.537,44.494
220.500,598.057,47.252
222.000,599.527,50.332
223.500,601.034,53.933
225.000,602.478,57.676
226.500,604.054,62.131
228.000,605.501,66.649
229.500,606.963,71.737
231.000,608.497,77.384
232.500,609.917,83.280
234.000,611.478,89.357
235.500,613.009,96.139
237.000,614.531,103.188
238.500,616.005,111.133
240.000,617.5,118.852
241.500,618.991,127.309
243.000,620.457,136.095
244.500,621.969,145.022
246.000,623.477,154.123
247.500,624.962,163.471
249.000,626.441,172.946
250.500,627.909,182.594
252.000,629.433,191.893
253.500,630.905,201.284
255.000,632.389,210.605
256.500,633.823,220.466
258.000,635.29,229.674
259.500,636.754,238.965
261.000,638.277,248.106
262.500,639.718,257.561
264.000,641.203,267.507
265.500,642.65,277.502
267.000,644.16,288.003
268.500,645.608,297.966
270.000,647.074,306.740
271.500,648.532,314.797
273.000,650.025,321.438
274.500,651.536,327.303
276.000,653.006,333.966
277.500,654.505,338.745
279.000,655.947,340.285
280.500,657.429,341.498
282.000,658.897,341.688
283.500,660.387,339.562
285.000,661.894,335.694
286.500,663.355,329.634
288.000,664.895,321.935
289.500,666.4,314.440
291.000,667.876,305.861
292.500,669.388,295.444
294.000,670.919,284.641
295.500,672.438,272.968
297.000,673.943,260.975
298.500,675.442,248.625
300.000,676.994,236.391
301.500,678.577,224.221
303.000,680.109,211.704
304.500,681.676,199.192
306.000,683.236,185.750
307.500,684.792,171.345
309.000,686.366,157.456
310.500,687.931,143.842
312.000,689.508,130.844
313.500,691.082,118.342
315.000,692.612,106.931
316.500,694.255,96.273
318.000,695.811,86.562
319.500,697.379,77.487
321.000,698.933,69.121
322.500,700.473,61.500
324.000,702.08,54.486
325.500,703.623,48.136
327.000,705.182,42.502
328.500,706.744,37.371
330.000,708.275,33.001
331.500,709.811,29.007
333.000,711.38,25.260
334.500,712.864,21.965
336.000,714.475,19.049
337.500,715.998,16.608
339.000,717.55,14.435
340.500,719.05,12.383
342.000,720.569,10.698
343.500,722.057,9.156
345.000,723.598,7.324
346.500,725.103,5.535
348.000,726.612,4.058
349.500,728.081,2.756
351.000,729.602,1.880
352.500,731.058,1.154
354.000,732.531,0.585
355.500,734.029,0.407
357.000,735.545,0.108
358.500,736.998,0.074
360.000,738.417,0.076
361.500,739.974,0.072
363.000,741.403,0.121
364.500,742.881,-0.026
366.000,744.326,-0.053
367.500,745.813,-0.115
369.000,747.27,-0.165
370.500,748.729,-0.102
372.000,750.201,-0.034
373.500,751.699,-0.284
375.000,753.105,-0.131
376.500,754.565,-0.232
378.000,756.004,-0.091
379.500,757.458,0.005
381.000,758.905,0.035
382.500,760.375,0.043
384.000,761.821,-0.085
385.500,763.315,-0.183
387.000,764.772,-0.169
388.500,766.266,-0.261
390.000,767.727,-0.159
391.500,769.2,-0.009
393.000,770.652,-0.058
394.500,772.144,-0.109
396.000,773.629,-0.129
397.500,775.129,-0.223
399.000,776.598,-0.171
400.500,778.082,-0.141
402.000,779.546,-0.056
403.500,781.019,-0.038
405.000,782.507,-0.127
406.500,783.982,-0.093
408.000,785.439,-0.218
409.500,786.924,-0.046
411.000,788.437,-0.140
412.500,789.883,-0.171
414.000,791.357,-0.266
415.500,792.875,-0.317
417.000,794.369,-0.141
418.500,795.841,-0.126
420.000,797.335,-0.051
421.500,798.842,-0.121
423.000,800.375,-0.128
424.500,801.871,-0.038
426.000,803.382,0.048
427.500,804.878,-0.242
429.000,806.391,-0.047
430.500,807.903,-0.159
432.000,809.416,0.037
433.500,810.947,0.206
435.000,812.408,0.018
436.500,813.959,0.114
438.000,815.488,0.081
439.500,817.017,-0.090
441.000,818.518,0.090
442.500,820.057,0.168
444.000,821.567,0.047
445.500,823.066,0.009
447.000,824.564,0.000