File: PMMA/Calibration_Data/NIST/NIST_DSC_N2_10K_4.csv
Time,Temperature,Heat Flow
[s],[K],[mW/mg]
0,301.925,-0.001045311
77.0814,304.925,0.10858
95.8746,307.925,0.18584
110.3316,310.925,0.25253
123.0258,313.925,0.30664
134.8986,316.925,0.34687
146.445,319.925,0.37442
157.9584,322.925,0.38993
169.6932,325.925,0.39475
181.8324,328.925,0.3912
194.5326,331.925,0.3811
207.9216,334.925,0.36672
222.081,337.925,0.3507
237.003,340.925,0.33429
252.6072,343.925,0.31502
268.7598,346.925,0.29484
285.2742,349.925,0.27962
302.0046,352.925,0.27146
318.8772,355.925,0.26749
335.853,358.925,0.26605
352.9254,361.925,0.26581
370.137,364.925,0.266
387.5154,367.925,0.26646
405.1104,370.925,0.2661
422.91,373.925,0.26528
440.8992,376.925,0.265
459.0306,379.925,0.26571
477.2442,382.925,0.26814
495.5046,385.925,0.27182
513.7578,388.925,0.27785
531.9552,391.925,0.28699
550.0848,394.925,0.29868
568.164,397.925,0.31078
586.1658,400.925,0.32022
604.1232,403.925,0.32527
622.0398,406.925,0.32761
639.948,409.925,0.32944
657.8538,412.925,0.33158
675.7476,415.925,0.33392
693.639,418.925,0.3363
711.5376,421.925,0.33879
729.4398,424.925,0.34164
747.3594,427.925,0.34502
765.2958,430.925,0.34912
783.261,433.925,0.35372
801.2556,436.925,0.35988
819.2682,439.925,0.36757
837.309,442.925,0.37689
855.3654,445.925,0.38637
873.426,448.925,0.39309
891.4794,451.925,0.40063
909.5274,454.925,0.40765
927.57,457.925,0.41175
945.597,460.925,0.41277
963.651,463.925,0.41054
981.7098,466.925,0.4055
999.7872,469.925,0.39942
1017.82,472.925,0.39508
1035.85,475.925,0.39343
1053.86,478.925,0.394
1071.888,481.925,0.39351
1089.93,484.925,0.39022
1107.993,487.925,0.38498
1126.05,490.925,0.37906
1144.13,493.925,0.3749
1162.197,496.925,0.37291
1180.27,499.925,0.37261
1198.34,502.925,0.37324
1216.41,505.925,0.37538
1234.49,508.925,0.3777
1252.58,511.925,0.37907
1270.67,514.925,0.38068
1288.75,517.925,0.38293
1306.809,520.925,0.38553
1324.87,523.925,0.38901
1342.95,526.925,0.39281
1361.01,529.925,0.39675
1379.08,532.925,0.40161
1397.14,535.925,0.40651
1415.2,538.925,0.41293
1433.24,541.925,0.41982
1451.283,544.925,0.42796
1469.32,547.925,0.43645
1487.34,550.925,0.44718
1505.37,553.925,0.45851
1523.406,556.925,0.47051
1541.43,559.925,0.48287
1559.47,562.925,0.49498
1577.49,565.925,0.50693
1595.54,568.925,0.51759
1613.59,571.925,0.52797
1631.65,574.925,0.53829
1649.69,577.925,0.55004
1667.709,580.925,0.56426
1685.74,583.925,0.58294
1703.76,586.925,0.60968
1721.784,589.925,0.64538
1739.82,592.925,0.69007
1757.86,595.925,0.74415
1775.92,598.925,0.80823
1794,601.925,0.88507
1812.1,604.925,0.97799
1830.22,607.925,1.08969
1848.33,610.925,1.2222
1866.432,613.925,1.37704
1884.53,616.925,1.55313
1902.64,619.925,1.75049
1920.74,622.925,1.95519
1938.816,625.925,2.16491
1956.89,628.925,2.36392
1974.93,631.925,2.54518
1992.924,634.925,2.68815
2010.879,637.925,2.75644
2028.77,640.925,2.77629
2046.64,643.925,2.71625
2064.51,646.925,2.7215
2082.366,649.925,2.6191
2100.162,652.925,2.4122
2117.92,655.925,2.15328
2135.69,658.925,1.87522
2153.49,661.925,1.5921
2171.34,664.925,1.32527
2189.28,667.925,1.07896
2207.29,670.925,0.86457
2225.36,673.925,0.6717
2243.49,676.925,0.511
2261.66,679.925,0.38312
2279.85,682.925,0.28409
2298.018,685.925,0.20935
2316.2,688.925,0.15205
2334.35,691.925,0.10962
2352.47,694.925,0.07874025
2370.54,697.925,0.05799683
2388.61,700.925,0.04252028
2406.68,703.925,0.03163154
2424.72,706.925,0.02291766
2442.73,709.925,0.01699658
2460.62,712.925,0.0368869
2478.72,715.925,-0.01782858
2496.813,718.925,-0.01298551
2514.87,721.925,-0.009329762
2532.906,724.925,-0.006014509
2550.92,727.925,-0.003851476
2568.91,730.925,-0.003383141
2586.9,733.925,-0.003488919
2604.89,736.925,-0.004013688
2622.89,739.925,-0.004849335
2640.88,742.925,-0.004760941
2658.88,745.925,-0.005226009
2676.88,748.925,-0.004205242
2694.9,751.925,-0.0031197
2712.91,754.925,-0.00390914
2730.93,757.925,-0.005339628
2748.921,760.925,-0.00636321
2766.9,763.925,-0.007354228
2784.89,766.925,-0.007469592
2802.888,769.925,-0.007938892
2820.88,772.925,-0.008636622
2838.89,775.925,-0.007346851
2856.92,778.925,-0.005352173
2874.92,781.925,-0.003817854
2892.91,784.925,-0.004071732
2910.88,787.925,-0.004349616
2928.876,790.925,-0.005015959
2946.86,793.925,-0.005271841
2964.85,796.925,-0.005717471
2982.84,799.925,-0.006025186
3000.84,802.925,-0.00685656
3018.84,805.925,-0.007263149
3036.849,808.925,-0.007327166
3054.87,811.925,-0.007487216
3072.89,814.925,-0.008474004
3090.88,817.925,-0.008728601
3108.88,820.925,-0.008695096
3126.882,823.925,-0.008682828
3144.9,826.925,-0.008539782
3162.91,829.925,-0.008505151
3180.948,832.925,-0.009011708
3198.98,835.925,-0.008580567
3217.017,838.925,-0.008585253
3235.04,841.925,-0.008808446
3253.071,844.925,-0.008568062
3271.12,847.925,-0.008235903
3289.16,850.925,-0.008146728
3307.18,853.925,-0.008331892
3325.18,856.925,-0.008545387
3343.17,859.925,-0.008611954
3361.194,862.925,-0.008921446
3379.22,865.925,-0.009166318
3397.25,868.925,-0.009348507
3415.25,871.925,-0.009560682
3433.27,874.925,-0.009261254
3451.28,877.925,-0.009163681
3469.31,880.925,-0.009218303
3487.323,883.925,-0.009261984
3505.29,886.925,-0.008703469
3523.13,889.925,0.005482463
3541.12,892.925,0.008523636
3559.16,895.925,0.00106851
3577.19,898.925,-0.002269379
3595.21,901.925,-0.002105448
3613.2,904.925,-0.002471329
3631.18,907.925,-0.003086388
3649.15,910.925,-0.002255666
3667.15,913.925,-0.00222627
3685.17,916.925,-0.001995069
3703.22,919.925,-0.001021159
3721.27,922.925,-0.0004296193
3739.302,925.925,-0.0001924159
3757.29,928.925,-0.0001556123
3775.278,931.925,0.0006573316
3793.23,934.925,0.003553163
3811.2,937.925,0.005998261
3829.239,940.925,0.007227331
3847.269,943.925,0.007166257
3865.31,946.925,0.007654586
3883.362,949.925,0.008542538
3901.36,952.925,0.008364921
3919.374,955.925,0.008906022
3937.38,958.925,0.009121242
3955.36,961.925,0.009518556
3973.32,964.925,0.01052703
3991.33,967.925,0.01081797
4009.31,970.925,0.01207277
4027.28,973.925,0.01213565
4045.24,976.925,0.01284235
4063.2,979.925,0.01381399
4081.18,982.925,0.01483907
4099.2,985.925,0.01603442
4117.23,988.925,0.01812085
4135.27,991.925,0.02034525
4153.32,994.925,0.02203057
4171.37,997.925,0.02243957
4189.38,1000.925,0.02334735
4207.36,1003.925,0.02499741
4225.37,1006.925,0.02698151
4243.34,1009.925,0.02875013
4261.31,1012.925,0.02915381
4279.29,1015.925,0.03090447
4297.287,1018.925,0.03204198
4315.25,1021.925,0.03161593
4333.23,1024.925,0.03324262
4351.2,1027.925,0.03426644
4369.18,1030.925,0.03421954
4387.19,1033.925,0.03488681
4405.25,1036.925,0.03473633
4423.25,1039.925,0.03386576
4441.236,1042.925,0.0348686
4459.203,1045.925,0.03551163
4477.17,1048.925,0.03602113
4495.15,1051.925,0.03683452
4513.137,1054.925,0.03836545
4531.11,1057.925,0.03939488
4549.101,1060.925,0.03966091
4567.11,1063.925,0.04067542
4585.083,1066.925,0.04250005
4603.029,1069.925,0.0423502
4615.06,1071.925,0.04142606