File: PMMA/Calibration_Data/NIST/NIST_DSC_N2_10K_3.csv
Time,Temperature,Heat Flow
[s],[K],[mW/mg]
0,303.136,-0.001471111
72.0462,306.136,0.11312
91.3458,309.136,0.18259
106.3824,312.136,0.2372
119.7414,315.136,0.27859
132.3786,318.136,0.30888
144.7752,321.136,0.32853
157.2534,324.136,0.33848
170.0628,327.136,0.33975
183.3894,330.136,0.33441
197.3616,333.136,0.32455
212.0508,336.136,0.31301
227.4492,339.136,0.30197
243.4164,342.136,0.29098
259.8054,345.136,0.27799
276.435,348.136,0.26604
293.1984,351.136,0.25965
310.0056,354.136,0.25697
326.8656,357.136,0.2564
343.7898,360.136,0.2563
360.8358,363.136,0.25654
378.054,366.136,0.25599
395.4672,369.136,0.25463
413.0958,372.136,0.25376
430.9236,375.136,0.2534
448.9104,378.136,0.25324
467.0076,381.136,0.255
485.16,384.136,0.25811
503.3262,387.136,0.26319
521.4498,390.136,0.27068
539.5236,393.136,0.28074
557.5308,396.136,0.29304
575.5002,399.136,0.30359
593.43,402.136,0.31072
611.3394,405.136,0.31586
629.2248,408.136,0.31895
647.1102,411.136,0.32114
664.9932,414.136,0.32317
682.8906,417.136,0.32471
700.8126,420.136,0.32707
718.7304,423.136,0.32967
736.6764,426.136,0.33301
754.635,429.136,0.33648
772.6104,432.136,0.3409
790.6008,435.136,0.34625
808.611,438.136,0.35352
826.6254,441.136,0.36256
844.6422,444.136,0.37246
862.6716,447.136,0.38245
880.7298,450.136,0.39188
898.7976,453.136,0.40027
916.848,456.136,0.40664
934.9062,459.136,0.40996
952.9686,462.136,0.40963
971.0064,465.136,0.40656
989.0328,468.136,0.40119
1007.05,471.136,0.39556
1025.07,474.136,0.39284
1043.09,477.136,0.39331
1061.13,480.136,0.3952
1079.172,483.136,0.39683
1097.22,486.136,0.39516
1115.29,489.136,0.38846
1133.37,492.136,0.37946
1151.46,495.136,0.37153
1169.51,498.136,0.3664
1187.58,501.136,0.36387
1205.68,504.136,0.36274
1223.77,507.136,0.36289
1241.83,510.136,0.36388
1259.9,513.136,0.3653
1277.979,516.136,0.3669
1296.063,519.136,0.36928
1314.135,522.136,0.37191
1332.21,525.136,0.3751
1350.27,528.136,0.37886
1368.333,531.136,0.38292
1386.37,534.136,0.38804
1404.39,537.136,0.39383
1422.43,540.136,0.3994
1440.48,543.136,0.40752
1458.516,546.136,0.41791
1476.55,549.136,0.42853
1494.57,552.136,0.43966
1512.6,555.136,0.45063
1530.65,558.136,0.46148
1548.72,561.136,0.47263
1566.77,564.136,0.48383
1584.81,567.136,0.4939
1602.85,570.136,0.50303
1620.897,573.136,0.51125
1638.94,576.136,0.52016
1656.96,579.136,0.53041
1674.98,582.136,0.54388
1693.01,585.136,0.56183
1711.04,588.136,0.58616
1729.068,591.136,0.61987
1747.09,594.136,0.66389
1765.119,597.136,0.71811
1783.17,600.136,0.78503
1801.242,603.136,0.86676
1819.34,606.136,0.96616
1837.452,609.136,1.08625
1855.58,612.136,1.22799
1873.72,615.136,1.39335
1891.84,618.136,1.57992
1909.98,621.136,1.78448
1928.09,624.136,2.00028
1946.19,627.136,2.21784
1964.26,630.136,2.42174
1982.28,633.136,2.59395
2000.24,636.136,2.70489
2018.14,639.136,2.7164
2035.99,642.136,2.65683
2053.79,645.136,2.61269
2071.62,648.136,2.65376
2089.461,651.136,2.49023
2107.26,654.136,2.34013
2125.08,657.136,2.10894
2142.915,660.136,1.82401
2160.73,663.136,1.54455
2178.59,666.136,1.24947
2196.49,669.136,0.98496
2214.47,672.136,0.75998
2232.53,675.136,0.56562
2250.64,678.136,0.40504
2268.81,681.136,0.27945
2287.03,684.136,0.18615
2305.25,687.136,0.11743
2323.479,690.136,0.06606271
2341.7,693.136,0.02823055
2359.863,696.136,0.000819896
2377.95,699.136,-0.02087996
2396,702.136,-0.03865025
2413.98,705.136,-0.05103413
2431.96,708.136,-0.05785124
2449.87,711.136,-0.04685213
2467.79,714.136,-0.046675
2485.884,717.136,-0.08567742
2503.94,720.136,-0.08399118
2521.99,723.136,-0.08159257
2540.06,726.136,-0.07964419
2558.12,729.136,-0.07843456
2576.166,732.136,-0.07811353
2594.18,735.136,-0.07815949
2612.196,738.136,-0.0779766
2630.187,741.136,-0.07842405
2648.17,744.136,-0.07987428
2666.166,747.136,-0.0811219
2684.18,750.136,-0.08203832
2702.17,753.136,-0.08325365
2720.16,756.136,-0.0841594
2738.154,759.136,-0.08495854
2756.14,762.136,-0.08586192
2774.106,765.136,-0.08672092
2792.08,768.136,-0.08704633
2810.08,771.136,-0.0878043
2828.09,774.136,-0.08869318
2846.11,777.136,-0.08950873
2864.14,780.136,-0.09044902
2882.18,783.136,-0.09162952
2900.22,786.136,-0.09283022
2918.22,789.136,-0.09416075
2936.205,792.136,-0.09505493
2954.17,795.136,-0.09653702
2972.12,798.136,-0.09792643
2990.07,801.136,-0.09869208
3008.06,804.136,-0.09965993
3026.07,807.136,-0.10003
3044.115,810.136,-0.10055
3062.17,813.136,-0.10135
3080.2,816.136,-0.1027
3098.22,819.136,-0.10409
3116.23,822.136,-0.10568
3134.23,825.136,-0.10702
3152.24,828.136,-0.10761
3170.22,831.136,-0.10849
3188.19,834.136,-0.10986
3206.2,837.136,-0.11048
3224.217,840.136,-0.11114
3242.28,843.136,-0.11181
3260.34,846.136,-0.11234
3278.38,849.136,-0.11359
3296.41,852.136,-0.11362
3314.42,855.136,-0.1144
3332.42,858.136,-0.1155
3350.4,861.136,-0.11611
3368.376,864.136,-0.11752
3386.37,867.136,-0.11867
3404.4,870.136,-0.11939
3422.45,873.136,-0.11996
3440.51,876.136,-0.12038
3458.55,879.136,-0.12185
3476.59,882.136,-0.12294
3494.637,885.136,-0.13186
3512.56,888.136,-0.12872
3530.46,891.136,-0.12603
3548.45,894.136,-0.12699
3566.45,897.136,-0.12786
3584.45,900.136,-0.12856
3602.47,903.136,-0.12909
3620.499,906.136,-0.1297
3638.51,909.136,-0.13035
3656.45,912.136,-0.13146
3674.44,915.136,-0.13295
3692.466,918.136,-0.13416
3710.5,921.136,-0.13461
3728.52,924.136,-0.13664
3746.54,927.136,-0.13782
3764.55,930.136,-0.13843
3782.55,933.136,-0.13909
3800.55,936.136,-0.13914
3818.57,939.136,-0.14019
3836.6,942.136,-0.14157
3854.63,945.136,-0.14268
3872.65,948.136,-0.14426
3890.64,951.136,-0.14504
3908.63,954.136,-0.14653
3926.6,957.136,-0.14781
3944.56,960.136,-0.14818
3962.53,963.136,-0.14925
3980.56,966.136,-0.14933
3998.57,969.136,-0.15009
4016.59,972.136,-0.15166
4034.58,975.136,-0.15215
4052.57,978.136,-0.15372
4070.535,981.136,-0.15523
4088.514,984.136,-0.15494
4106.52,987.136,-0.15486
4124.52,990.136,-0.15475
4142.53,993.136,-0.15594
4160.52,996.136,-0.15622
4178.52,999.136,-0.15643
4196.55,1002.136,-0.1571
4214.559,1005.136,-0.15602
4232.57,1008.136,-0.15681
4250.58,1011.136,-0.15859
4268.58,1014.136,-0.15844
4286.58,1017.136,-0.15956
4304.56,1020.136,-0.16143
4322.56,1023.136,-0.16299
4340.56,1026.136,-0.16368
4358.54,1029.136,-0.16544
4376.5,1032.136,-0.16668
4394.45,1035.136,-0.16821
4412.4,1038.136,-0.17089
4430.4,1041.136,-0.17228
4448.37,1044.136,-0.17238
4466.36,1047.136,-0.17481
4484.33,1050.136,-0.17717
4502.34,1053.136,-0.18027
4520.38,1056.136,-0.18333
4538.379,1059.136,-0.18659
4556.391,1062.136,-0.18672
4574.358,1065.136,-0.18928
4592.33,1068.136,-0.19324
4610.28,1071.136,-0.19568
4616.32,1072.136,-0.19629