File: PMMA/Calibration_Data/NIST/NIST_TGA_N2_10K_1.csv
Time,Temperature,Mass
[s],[K],[mg]
0,303.147,4.99457
72.054,306.147,4.98862
91.3692,309.147,4.98871
106.4256,312.147,4.99047
119.7894,315.147,4.99398
132.4218,318.147,4.99391
144.8148,321.147,4.997
157.2972,324.147,4.99756
170.1138,327.147,4.99961
183.4434,330.147,4.99948
197.4132,333.147,5.00082
212.0958,336.147,4.99948
227.4702,339.147,5.00082
243.423,342.147,4.99948
259.8042,345.147,4.99948
276.4308,348.147,5.00048
293.199,351.147,5.00048
310.0296,354.147,5.00149
326.9184,357.147,5.00047
343.8792,360.147,5.00183
360.9438,363.147,5.00006
378.1668,366.147,5.00038
395.5698,369.147,5.00038
413.178,372.147,5.00039
430.9932,375.147,4.99904
448.9692,378.147,4.99837
467.0628,381.147,4.99904
485.199,384.147,4.99895
503.3676,387.147,4.99904
521.5104,390.147,4.99636
539.5872,393.147,4.99635
557.6046,396.147,4.99637
575.5554,399.147,4.99496
593.4966,402.147,4.99489
611.4018,405.147,4.99367
629.2914,408.147,4.99414
647.1792,411.147,4.99164
665.0646,414.147,4.99166
682.9476,417.147,4.98898
700.8462,420.147,4.98764
718.7604,423.147,4.98764
736.7148,426.147,4.98631
754.6884,429.147,4.98497
772.6818,432.147,4.98225
790.6794,435.147,4.98061
808.6722,438.147,4.97742
826.6734,441.147,4.97521
844.7082,444.147,4.97384
862.7508,447.147,4.97046
880.8102,450.147,4.9651
898.8684,453.147,4.95974
916.9158,456.147,4.95565
934.9542,459.147,4.94891
952.9998,462.147,4.93931
971.0262,465.147,4.92968
989.0586,468.147,4.92039
1007.088,471.147,4.91343
1025.12,474.147,4.90691
1043.16,477.147,4.89879
1061.24,480.147,4.89342
1079.319,483.147,4.88789
1097.39,486.147,4.87981
1115.46,489.147,4.87407
1133.51,492.147,4.86742
1151.57,495.147,4.86208
1169.63,498.147,4.85836
1187.703,501.147,4.85972
1205.77,504.147,4.85705
1223.83,507.147,4.8557
1241.883,510.147,4.85335
1259.943,513.147,4.85343
1278.006,516.147,4.85168
1296.07,519.147,4.85167
1314.123,522.147,4.84896
1332.19,525.147,4.84899
1350.25,528.147,4.84531
1368.31,531.147,4.84397
1386.37,534.147,4.841
1404.43,537.147,4.83661
1422.49,540.147,4.83392
1440.54,543.147,4.82889
1458.6,546.147,4.82488
1476.65,549.147,4.81919
1494.69,552.147,4.81248
1512.73,555.147,4.8036
1530.76,558.147,4.79484
1548.76,561.147,4.78697
1566.75,564.147,4.77429
1584.75,567.147,4.75926
1602.79,570.147,4.74628
1620.84,573.147,4.73144
1638.909,576.147,4.71508
1656.96,579.147,4.69762
1674.987,582.147,4.67916
1693.02,585.147,4.65436
1711.04,588.147,4.63303
1729.062,591.147,4.60408
1747.08,594.147,4.57078
1765.1,597.147,4.5323
1783.15,600.147,4.48635
1801.25,603.147,4.43105
1819.39,606.147,4.36379
1837.52,609.147,4.28284
1855.67,612.147,4.18813
1873.82,615.147,4.07726
1891.96,618.147,3.9425
1910.1,621.147,3.78883
1928.19,624.147,3.6137
1946.25,627.147,3.41588
1964.27,630.147,3.19462
1982.235,633.147,2.95769
2000.16,636.147,2.70075
2018.04,639.147,2.43992
2035.88,642.147,2.17009
2053.7,645.147,1.91064
2071.515,648.147,1.6466
2089.34,651.147,1.40032
2107.18,654.147,1.16667
2125.02,657.147,0.960903
2142.87,660.147,0.778733
2160.78,663.147,0.621085
2178.72,666.147,0.495246
2196.73,669.147,0.388068
2214.77,672.147,0.306822
2232.87,675.147,0.237364
2251.01,678.147,0.188795
2269.176,681.147,0.151981
2287.35,684.147,0.123377
2305.512,687.147,0.101263
2323.638,690.147,0.0882345
2341.74,693.147,0.0784516
2359.81,696.147,0.0707723
2377.84,699.147,0.066026
2395.82,702.147,0.0624102
2413.85,705.147,0.0597306
2431.93,708.147,0.0583903
2450.04,711.147,0.0573903
2468.21,714.147,0.05731993
2486.319,717.147,0.0600604
2504.36,720.147,0.0587301
2522.36,723.147,0.0580604
2540.35,726.147,0.0590604
2558.33,729.147,0.0593983
2576.328,732.147,0.0607416
2594.31,735.147,0.060796
2612.29,738.147,0.0594003
2630.27,741.147,0.0577306
2648.27,744.147,0.0577306
2666.26,747.147,0.057058
2684.262,750.147,0.0587181
2702.277,753.147,0.0600699
2720.298,756.147,0.0590704
2738.337,759.147,0.0590704
2756.33,762.147,0.0600819
2774.313,765.147,0.0590599
2792.3,768.147,0.0573953
2810.29,771.147,0.0560515
2828.28,774.147,0.0587291
2846.27,777.147,0.0594003
2864.26,780.147,0.0594003
2882.238,783.147,0.0603848
2900.229,786.147,0.0583134
2918.25,789.147,0.0583888
2936.26,792.147,0.0597301
2954.28,795.147,0.0600929
2972.271,798.147,0.0600704
2990.24,801.147,0.0580604
3008.19,804.147,0.05772412
3026.142,807.147,0.0604102
3044.13,810.147,0.0584302
3062.11,813.147,0.0567291
3080.11,816.147,0.0587306
3098.13,819.147,0.0594003
3116.17,822.147,0.0580604
3134.199,825.147,0.0560644
3152.26,828.147,0.056048
3170.3,831.147,0.0560689
3188.34,834.147,0.0587231
3206.37,837.147,0.0594003
3224.376,840.147,0.0573903
3242.4,843.147,0.0575031
3260.43,846.147,0.0585006
3278.45,849.147,0.0601802
3296.451,852.147,0.0597411
3314.44,855.147,0.05951054
3332.43,858.147,0.0598404
3350.46,861.147,0.0608504
3368.496,864.147,0.0608583
3386.5,867.147,0.0608504
3404.45,870.147,0.0601802
3422.475,873.147,0.0598928
3440.52,876.147,0.0601812
3458.574,879.147,0.0588404
3476.62,882.147,0.0594851
3494.66,885.147,0.0598089
3512.69,888.147,0.0601802
3530.71,891.147,0.0601802
3548.7,894.147,0.0591752
3566.67,897.147,0.0608504
3584.65,900.147,0.0621962
3602.56,903.147,0.0618504
3620.5,906.147,0.0578299
3638.54,909.147,0.05917122
3656.559,912.147,0.0618364
3674.59,915.147,0.06191572
3692.57,918.147,0.0618533
3710.56,921.147,0.0577775
3728.571,924.147,0.0591702
3746.55,927.147,0.0611787
3764.55,930.147,0.0623718
3782.57,933.147,0.0618494
3800.58,936.147,0.0609397
3818.61,939.147,0.0618224
3836.637,942.147,0.0626253
3854.63,945.147,0.0625235
3872.59,948.147,0.0625375
3890.6,951.147,0.0627221
3908.59,954.147,0.06152
3926.57,957.147,0.06224007
3944.58,960.147,0.0631822
3962.583,963.147,0.0631747
3980.59,966.147,0.0632006
3998.58,969.147,0.062532
4016.55,972.147,0.0638573
4034.55,975.147,0.0638703
4052.59,978.147,0.0645215
4070.62,981.147,0.0613015
4088.63,984.147,0.0638703
4106.6,987.147,0.0639756
4124.56,990.147,0.0638603
4142.54,993.147,0.0629921
4160.5,996.147,0.0638938
4166.53,997.147,0.065531