File: PMMA/Calibration_Data/NIST/NIST_Cone_25kW_2.csv
Time,Mass,HRR
[s],[g],[kW/m2]
0,154.993,-0.510215
3,155.119,0.907264
6,155.457,-0.247574
9,155.444,0.128808
12,155.308,-0.031361
15,155.557,-0.666456
18,155.228,-1.089795
21,155.254,-0.934505
24,155.234,-0.279543
27,155.289,0.410656
30,155.443,-0.140611
33,155.359,-0.5097
36,155.337,-0.528455
39,155.397,-0.993118
42,155.336,-0.383444
45,155.472,0.620615
48,155.272,1.550968
51,155.386,0.922937
54,155.231,1.166218
57,155.352,0.130161
60,155.255,0.582064
63,155.453,0.274015
66,155.212,1.169108
69,155.098,1.604375
72,155.436,0.217363
75,155.248,1.177825
78,155.132,0.658677
81,155.387,0.052596
84,155.358,-0.590223
87,155.151,0.423833
90,155.202,0.179408
93,155.352,1.244057
96,155.29,0.726629
99,155.324,-0.32527
102,155.167,1.459691
105,155.224,2.211068
108,155.129,5.596291
111,155.081,51.5596
114,154.987,116.562
117,154.47,177.236
120,154.283,225.515
123,154.159,257.309
126,153.571,327.281
129,153.202,356.224
132,152.639,377.792
135,152.242,396.093
138,151.863,408.088
141,151.239,425.141
144,150.712,414.557
147,150.235,418.634
150,149.733,418.924
153,149.253,427.622
156,148.646,423.404
159,148.206,423.762
162,147.571,426.278
165,147.193,433.729
168,146.634,434.079
171,146.12,429.94
174,145.611,428.809
177,144.942,437.14
180,144.439,440.382
183,143.881,437.923
186,143.355,452.253
189,142.811,450.989
192,142.227,452.635
195,141.468,465.981
198,141.108,464.281
201,140.445,471.9
204,139.877,475.691
207,139.381,473.319
210,138.727,496.841
213,138.11,490.887
216,137.568,494.584
219,136.815,501.019
222,136.336,519.379
225,135.587,518.045
228,134.949,511.02
231,134.438,525.912
234,133.616,533.209
237,133.219,535.979
240,132.353,546.623
243,131.62,548.627
246,131.069,546.864
249,130.295,552.061
252,129.637,565.31
255,128.977,572.318
258,128.245,582.335
261,127.607,579.179
264,126.726,593.193
267,126.076,597.668
270,125.26,594.998
273,124.608,605.3336
276,123.889,607.855
279,123.328,610.555
282,122.389,622.248
285,121.424,610.334
288,120.583,612.976
291,120.062,612.228
294,119.358,605.458
297,118.401,623.678
300,117.774,631.677
303,117.216,617.081
306,116.322,630.175
309,115.536,643.875
312,114.671,639.933
315,113.846,646.55
318,113.066,645.054
321,112.369,646.5995
324,111.708,656.416
327,110.617,649.25
330,109.8,649.198
333,109.081,652.137
336,108.483,651.234
339,107.424,654.424
342,106.744,668.419
345,105.801,683.141
348,104.972,692.725
351,104.199,713.544
354,103.184,706.015
357,102.368,694.653
360,101.476,695.455
363,100.731,704.514
366,99.8059,705.703
369,98.9161,707.745
372,98.0201,718.257
375,97.3807,709.942
378,96.2732,709.224
381,95.5025,690.783
384,94.7417,679.496
387,93.7067,653.504
390,93.2036,630.164
393,92.4231,621.724
396,91.6512,610.477
399,90.9554,606.51
402,89.995,592.862
405,89.3176,575.141
408,88.7964,552.533
411,88.0447,500.002
414,87.5109,462.061
417,87.1168,369.779
420,86.7176,291.387
423,86.4692,232.48
426,86.3693,191.705
429,86.0546,151.609
432,85.9365,93.9031
435,85.8311,58.62855
438,85.8276,27.8339
441,85.9762,11.5044
444,85.9994,0.254516
447,85.786,-2.823761
450,85.8023,-2.505534
453,85.8087,-1.43777
456,85.9764,-0.189459
459,85.9543,0.10691
462,85.8993,1.165028
465,85.7339,1.244035
468,85.99,0.865289
471,85.8347,1.293887
474,85.7427,0.416004
477,85.8573,0.208811
480,86.0578,-0.717371
483,86.0147,1.050368
486,85.9557,-0.827151
489,85.8351,1.665973
492,85.9095,-0.573165
495,85.727,-0.11841
498,85.7997,0.46263
501,85.8355,0.087469
504,85.8033,-1.622386
507,85.9618,-2.108449
510,85.9994,2.531994
513,85.9503,0.624221
516,85.8474,0.306587
519,85.9168,-0.308453
522,85.8825,0.738126
525,85.9352,0.404338
528,85.8236,2.101232
531,85.9118,0.859273
534,85.8842,-1.348879
537,86.0661,0.804842
540,85.7828,0.78456
543,85.8372,0.967197
546,85.8497,0.416724
549,85.8884,1.150921
552,85.8547,2.746534
555,85.825,5.957042
558,85.8518,2.293431
561,85.8033,0.421954
564,85.8297,1.822919
567,85.9074,1.624176
570,85.8382,2.098709
573,85.9766,1.719624
576,85.7998,1.265472
579,85.7699,1.444538
582,85.9009,0.297707
585,85.8725,-1.303099
588,85.8023,-1.717098
591,86.0586,0.333463
594,85.9175,0.985533
597,85.9495,-1.569245
600,85.9043,0.766382