File: PMMA/Calibration_Data/NIST/NIST_DSC_N2_10K_1.csv
Time,Temperature,Heat Flow
[s],[K],[mW/mg]
0,303.147,0.003923031
72.054,306.147,0.13411
91.3692,309.147,0.21848
106.4256,312.147,0.28764
119.7894,315.147,0.344
132.4218,318.147,0.38708
144.8148,321.147,0.41738
157.2972,324.147,0.43621
170.1138,327.147,0.44472
183.4434,330.147,0.4452
197.4132,333.147,0.4403
212.0958,336.147,0.43267
227.4702,339.147,0.4244
243.423,342.147,0.41563
259.8042,345.147,0.40439
276.4308,348.147,0.39438
293.199,351.147,0.39004
310.0296,354.147,0.39015
326.9184,357.147,0.39166
343.8792,360.147,0.39403
360.9438,363.147,0.39589
378.1668,366.147,0.39715
395.5698,369.147,0.39776
413.178,372.147,0.39799
430.9932,375.147,0.39814
448.9692,378.147,0.39867
467.0628,381.147,0.40091
485.199,384.147,0.40448
503.3676,387.147,0.4102
521.5104,390.147,0.41873
539.5872,393.147,0.42978
557.6046,396.147,0.44354
575.5554,399.147,0.45556
593.4966,402.147,0.46354
611.4018,405.147,0.46848
629.2914,408.147,0.47167
647.1792,411.147,0.47496
665.0646,414.147,0.47785
682.9476,417.147,0.48085
700.8462,420.147,0.4836
718.7604,423.147,0.48567
736.7148,426.147,0.48869
754.6884,429.147,0.49214
772.6818,432.147,0.49671
790.6794,435.147,0.50313
808.6722,438.147,0.51034
826.6734,441.147,0.51926
844.7082,444.147,0.52807
862.7508,447.147,0.53718
880.8102,450.147,0.54732
898.8684,453.147,0.55668
916.9158,456.147,0.56319
934.9542,459.147,0.56726
952.9998,462.147,0.56773
971.0262,465.147,0.56474
989.0586,468.147,0.55918
1007.088,471.147,0.55329
1025.12,474.147,0.55047
1043.16,477.147,0.55082
1061.24,480.147,0.55373
1079.319,483.147,0.55873
1097.39,486.147,0.56249
1115.46,489.147,0.56241
1133.51,492.147,0.55758
1151.57,495.147,0.54915
1169.63,498.147,0.53932
1187.703,501.147,0.53214
1205.77,504.147,0.52831
1223.83,507.147,0.52736
1241.883,510.147,0.52725
1259.943,513.147,0.52827
1278.006,516.147,0.53001
1296.07,519.147,0.53225
1314.123,522.147,0.53493
1332.19,525.147,0.5381
1350.25,528.147,0.54254
1368.31,531.147,0.54707
1386.37,534.147,0.55204
1404.43,537.147,0.55752
1422.49,540.147,0.56364
1440.54,543.147,0.57097
1458.6,546.147,0.57879
1476.65,549.147,0.5883
1494.69,552.147,0.59863
1512.73,555.147,0.61116
1530.76,558.147,0.62406
1548.76,561.147,0.63829
1566.75,564.147,0.65557
1584.75,567.147,0.67243
1602.79,570.147,0.68753
1620.84,573.147,0.70034
1638.909,576.147,0.7129
1656.96,579.147,0.72721
1674.987,582.147,0.74371
1693.02,585.147,0.76632
1711.04,588.147,0.79884
1729.062,591.147,0.84332
1747.08,594.147,0.90023
1765.1,597.147,0.96659
1783.15,600.147,1.04334
1801.25,603.147,1.13446
1819.39,606.147,1.24251
1837.52,609.147,1.36989
1855.67,612.147,1.51784
1873.82,615.147,1.68664
1891.96,618.147,1.87356
1910.1,621.147,2.07389
1928.19,624.147,2.28029
1946.25,627.147,2.48343
1964.27,630.147,2.67133
1982.235,633.147,2.82712
2000.16,636.147,2.93542
2018.04,639.147,2.96872
2035.88,642.147,2.95167
2053.7,645.147,2.88561
2071.515,648.147,2.82
2089.34,651.147,2.66115
2107.18,654.147,2.42469
2125.02,657.147,2.1504
2142.87,660.147,1.85577
2160.78,663.147,1.58226
2178.72,666.147,1.31863
2196.73,669.147,1.08859
2214.77,672.147,0.89221
2232.87,675.147,0.72324
2251.01,678.147,0.58313
2269.176,681.147,0.47092
2287.35,684.147,0.38593
2305.512,687.147,0.32247
2323.638,690.147,0.27635
2341.74,693.147,0.24436
2359.81,696.147,0.22368
2377.84,699.147,0.21709
2395.82,702.147,0.23407
2413.85,705.147,0.24559
2431.93,708.147,0.24001
2450.04,711.147,0.21822
2468.21,714.147,0.17107
2486.319,717.147,0.16611
2504.36,720.147,0.16529
2522.36,723.147,0.16671
2540.35,726.147,0.16767
2558.33,729.147,0.1682
2576.328,732.147,0.16861
2594.31,735.147,0.16957
2612.29,738.147,0.17091
2630.27,741.147,0.17244
2648.27,744.147,0.1736
2666.26,747.147,0.17559
2684.262,750.147,0.18082
2702.277,753.147,0.18382
2720.298,756.147,0.18611
2738.337,759.147,0.18757
2756.33,762.147,0.18868
2774.313,765.147,0.18943
2792.3,768.147,0.19057
2810.29,771.147,0.19168
2828.28,774.147,0.19259
2846.27,777.147,0.1934
2864.26,780.147,0.19403
2882.238,783.147,0.19545
2900.229,786.147,0.19675
2918.25,789.147,0.19818
2936.26,792.147,0.20022
2954.28,795.147,0.20173
2972.271,798.147,0.20333
2990.24,801.147,0.20503
3008.19,804.147,0.20612
3026.142,807.147,0.20799
3044.13,810.147,0.20932
3062.11,813.147,0.21028
3080.11,816.147,0.21019
3098.13,819.147,0.21179
3116.17,822.147,0.21314
3134.199,825.147,0.21538
3152.26,828.147,0.21771
3170.3,831.147,0.22059
3188.34,834.147,0.22345
3206.37,837.147,0.22623
3224.376,840.147,0.22777
3242.4,843.147,0.22862
3260.43,846.147,0.23074
3278.45,849.147,0.23265
3296.451,852.147,0.23532
3314.44,855.147,0.23782
3332.43,858.147,0.24099
3350.46,861.147,0.2436
3368.496,864.147,0.24642
3386.5,867.147,0.25716
3404.45,870.147,0.26803
3422.475,873.147,0.27159
3440.52,876.147,0.27473
3458.574,879.147,0.27805
3476.62,882.147,0.28117
3494.66,885.147,0.26659
3512.69,888.147,0.26969
3530.71,891.147,0.27228
3548.7,894.147,0.27589
3566.67,897.147,0.27837
3584.65,900.147,0.28192
3602.56,903.147,0.28586
3620.5,906.147,0.28733
3638.54,909.147,0.28979
3656.559,912.147,0.29228
3674.59,915.147,0.29544
3692.57,918.147,0.29791
3710.56,921.147,0.303
3728.571,924.147,0.30638
3746.55,927.147,0.30934
3764.55,930.147,0.31294
3782.57,933.147,0.31591
3800.58,936.147,0.31911
3818.61,939.147,0.32108
3836.637,942.147,0.32349
3854.63,945.147,0.32551
3872.59,948.147,0.3272
3890.6,951.147,0.33014
3908.59,954.147,0.33236
3926.57,957.147,0.33479
3944.58,960.147,0.3373
3962.583,963.147,0.33956
3980.59,966.147,0.34187
3998.58,969.147,0.34469
4016.55,972.147,0.34681
4034.55,975.147,0.34948
4052.59,978.147,0.35121
4070.62,981.147,0.35459
4088.63,984.147,0.35774
4106.6,987.147,0.36028
4124.56,990.147,0.36325
4142.54,993.147,0.36516
4160.5,996.147,0.36789
4166.53,997.147,0.36842