File: PMMA/Calibration_Data/NIST/NIST_Cone_25kW_1.csv
Time,Mass,HRR
[s],[g],[kW/m2]
0,154.469,-0.55203
3,154.563,-0.541368
6,154.61,0.109556
9,154.684,0.980472
12,154.854,1.048585
15,154.642,0.834373
18,154.924,0.510337
21,154.855,-2.354841
24,154.672,-0.542516
27,154.74,-1.434644
30,154.952,-0.333682
33,154.712,-0.251793
36,154.78,1.103895
39,154.93,-0.883153
42,154.602,-1.899572
45,155.008,1.03206
48,154.878,-2.640001
51,154.82,-0.068504
54,154.67,-0.234629
57,154.871,-1.146841
60,154.674,-0.789248
63,154.902,-1.96342
66,154.744,-1.362888
69,154.762,-0.809146
72,154.795,-0.677217
75,154.776,-0.670119
78,154.63,0.448648
81,154.766,-1.141037
84,155.006,-0.873577
87,154.617,-0.780647
90,154.672,0.124806
93,154.849,-3.230504
96,154.813,-3.992947
99,154.634,-3.867577
102,154.574,-2.388224
105,154.776,-1.266243
108,154.807,-0.142156
111,154.562,1.941822
114,154.493,29.7825
117,154.472,99.1259
120,154.18,169.396
123,153.787,232.662
126,153.527,272.424
129,152.946,316.667
132,152.633,366.233
135,152.224,380.512
138,151.668,404.188
141,151.241,407.751
144,150.646,417.529
147,150.272,417.95
150,149.797,424.071
153,149.029,422.478
156,148.631,431.977
159,148.218,436.072
162,147.405,430.457
165,147.086,435.779
168,146.444,436.48
171,145.959,432.414
174,145.467,429.421
177,144.761,435.192
180,144.538,443.842
183,143.691,449.16
186,143.318,445.567
189,142.695,448.518
192,142.162,450.448
195,141.441,452.896
198,140.901,458.322
201,140.334,462.986
204,139.936,465.177
207,139.33,477.205
210,138.701,474.903
213,138.262,481.479
216,137.458,488.284
219,136.973,493.424
222,136.341,499.795
225,135.63,512.15
228,135.04,506.281
231,134.257,514.001
234,133.7,519.815
237,133.009,519.963
240,132.402,534.921
243,131.711,539.995
246,131.296,553.12
249,130.403,548.158
252,129.576,557.946
255,128.938,562.878
258,128.267,570.431
261,127.523,584.12
264,126.773,581.242
267,125.943,588.044
270,125.333,594.24
273,124.628,601.113
276,123.923,607.689
279,123.223,609.173
282,122.416,609.168
285,121.688,603.44
288,120.756,620.767
291,120.322,622.306
294,119.435,616.446
297,118.555,624.611
300,117.789,625.771
303,117.08,626.645
306,116.345,632.462
309,115.594,643.4
312,114.576,641.708
315,113.999,651.401
318,113.129,656.254
321,112.249,651.883
324,111.596,664.026
327,110.74,649.079
330,109.798,652.951
333,109.081,663.458
336,108.154,665.955
339,107.419,689.59
342,106.709,680.508
345,105.742,693.03
348,104.944,694.737
351,104.097,685.898
354,103.019,702.146
357,102.382,695.621
360,101.438,705.842
363,100.674,709.158
366,99.8509,705.665
369,98.8998,710.725
372,98.0967,700.347
375,97.2227,690.285
378,96.3437,671.325
381,95.5937,661.689
384,94.6996,654.713
387,93.8687,654.547
390,93.3228,633.522
393,92.355,626.905
396,91.5431,603.178
399,90.8561,608.21
402,90.0937,616.008
405,89.2823,573.222
408,88.7924,518.729
411,88.4096,485.929
414,87.6832,439.844
417,87.3376,363.909
420,86.7641,302.084
423,86.643,263.322
426,86.2472,165.574
429,86.1912,121.564
432,85.9497,71.4121
435,86.1414,40.5164
438,85.9963,9.965688
441,86.0421,0.790968
444,85.9806,-5.04446
447,86.1679,-5.300482
450,85.9699,-2.469567
453,85.9127,-2.392389
456,85.9357,-1.272422
459,85.9791,-2.052912
462,86.1412,-1.40023
465,85.8966,-1.845134
468,86.0791,-1.828704
471,85.9837,-1.60485
474,85.9202,-1.216724
477,86.1054,-0.703771
480,86.0011,-0.86343
483,85.9885,-0.867209
486,85.8715,-1.339412
489,85.8449,1.723263
492,86.058,-0.640874
495,85.9982,0.240419
498,86.0954,-0.640687
501,86.0046,-3.548235
504,86.0638,-2.399661
507,85.8541,-13.6336
510,86.0546,-2.77527
513,85.9825,0.068591
516,85.8947,0.927051
519,86.1656,-0.390215
522,86.0283,-0.050669
525,85.8135,-0.027387
528,86.0253,-0.923104
531,86.0155,-1.748386
534,86.1341,-1.149104
537,85.9446,-2.487662
540,86.0421,-4.077169
543,85.9702,-3.969027
546,86.2093,-1.409898
549,86.0155,0.461826
552,86.0831,1.037942
555,86.1157,-3.112369
558,85.7558,-3.027231
561,86.0724,-0.88142
564,86.0668,-1.636193
567,86.0617,-2.459656
570,85.9104,-0.070985
573,85.948,-0.449065
576,86.0063,-1.204197
579,85.8092,0.113938
582,86.0632,0.373521
585,85.9503,-0.593357
588,85.8903,-2.393957
591,85.9045,-0.416445
594,86.021,-0.271747
597,85.8681,-0.186844
600,86.0111,0.491866