File: PMMA/Calibration_Data/NIST/NIST_DSC_N2_10K_5.csv
Time,Temperature,Heat Flow
[s],[K],[mW/mg]
0,303.147,0.00258562
72.0282,306.147,0.15367
91.3362,309.147,0.24543
106.3812,312.147,0.31323
119.739,315.147,0.36385
132.369,318.147,0.40116
144.7686,321.147,0.42618
157.254,324.147,0.44136
170.073,327.147,0.447
183.3948,330.147,0.44634
197.3772,333.147,0.44111
212.0556,336.147,0.43373
227.4396,339.147,0.42707
243.3954,342.147,0.41903
259.7664,345.147,0.40921
276.3972,348.147,0.40021
293.1492,351.147,0.39571
309.9648,354.147,0.39665
326.8332,357.147,0.39828
343.7856,360.147,0.39951
360.8694,363.147,0.40103
378.1206,366.147,0.40065
395.5734,369.147,0.40141
413.2188,372.147,0.40158
431.0346,375.147,0.40246
448.9944,378.147,0.40448
467.0418,381.147,0.40831
485.1852,384.147,0.41209
503.3502,387.147,0.41717
521.481,390.147,0.42553
539.5656,393.147,0.43719
557.5854,396.147,0.45052
575.5728,399.147,0.46276
593.5068,402.147,0.47088
611.4234,405.147,0.47617
629.3214,408.147,0.47989
647.1936,411.147,0.48296
665.0796,414.147,0.48515
682.9824,417.147,0.48765
700.9044,420.147,0.49
718.8132,423.147,0.4929
736.7508,426.147,0.49594
754.6956,429.147,0.4999
772.6578,432.147,0.50469
790.6542,435.147,0.51057
808.6482,438.147,0.51777
826.6692,441.147,0.52571
844.6968,444.147,0.53448
862.7484,447.147,0.54471
880.8102,450.147,0.55473
898.8666,453.147,0.56386
916.9086,456.147,0.57066
934.9512,459.147,0.57467
952.9878,462.147,0.57454
971.0202,465.147,0.57082
989.0502,468.147,0.56518
1007.09,471.147,0.55936
1025.136,474.147,0.55649
1043.19,477.147,0.55745
1061.24,480.147,0.56063
1079.292,483.147,0.56353
1097.337,486.147,0.56372
1115.4,489.147,0.55921
1133.448,492.147,0.55041
1151.51,495.147,0.54182
1169.556,498.147,0.53612
1187.63,501.147,0.53271
1205.71,504.147,0.53163
1223.81,507.147,0.53155
1241.9,510.147,0.5329
1259.991,513.147,0.5346
1278.08,516.147,0.53699
1296.168,519.147,0.5395
1314.26,522.147,0.54265
1332.321,525.147,0.54729
1350.37,528.147,0.5527
1368.39,531.147,0.55845
1386.41,534.147,0.56531
1404.42,537.147,0.57265
1422.444,540.147,0.58123
1440.48,543.147,0.59065
1458.52,546.147,0.60135
1476.58,549.147,0.61224
1494.65,552.147,0.62409
1512.72,555.147,0.6371
1530.8,558.147,0.65031
1548.86,561.147,0.66399
1566.89,564.147,0.67797
1584.92,567.147,0.69108
1602.94,570.147,0.70329
1620.97,573.147,0.71428
1639,576.147,0.72612
1657.02,579.147,0.74026
1675.04,582.147,0.7597
1693.04,585.147,0.78656
1711.04,588.147,0.82186
1729.05,591.147,0.8647
1747.08,594.147,0.91602
1765.15,597.147,0.97675
1783.24,600.147,1.04968
1801.353,603.147,1.13701
1819.5,606.147,1.24167
1837.638,609.147,1.36577
1855.77,612.147,1.5098
1873.914,615.147,1.67355
1892.046,618.147,1.85475
1910.16,621.147,2.05024
1928.24,624.147,2.25187
1946.31,627.147,2.45098
1964.34,630.147,2.63516
1982.33,633.147,2.78673
2000.283,636.147,2.88801
2018.18,639.147,2.90111
2036.03,642.147,2.87914
2053.872,645.147,2.83869
2071.704,648.147,2.80956
2089.527,651.147,2.65853
2107.33,654.147,2.47086
2125.13,657.147,2.19247
2142.95,660.147,1.91303
2160.81,663.147,1.64883
2178.71,666.147,1.36674
2196.675,669.147,1.13444
2214.72,672.147,0.93136
2232.82,675.147,0.75402
2250.94,678.147,0.60967
2269.1,681.147,0.49439
2287.29,684.147,0.40606
2305.46,687.147,0.34219
2323.587,690.147,0.29577
2341.683,693.147,0.26282
2359.77,696.147,0.23937
2377.86,699.147,0.22274
2395.95,702.147,0.21041
2413.98,705.147,0.21644
2431.97,708.147,0.23426
2450.01,711.147,0.22619
2468.14,714.147,0.17252
2486.25,717.147,0.17497
2504.29,720.147,0.18345
2522.3,723.147,0.1913
2540.301,726.147,0.19562
2558.271,729.147,0.19783
2576.24,732.147,0.20086
2594.2,735.147,0.20148
2612.14,738.147,0.20215
2630.11,741.147,0.20203
2648.09,744.147,0.20292
2666.1,747.147,0.20487
2684.13,750.147,0.20692
2702.157,753.147,0.20987
2720.19,756.147,0.21177
2738.232,759.147,0.21348
2756.26,762.147,0.2153
2774.26,765.147,0.21666
2792.26,768.147,0.21751
2810.24,771.147,0.21736
2828.19,774.147,0.21645
2846.181,777.147,0.21568
2864.17,780.147,0.21613
2882.15,783.147,0.21583
2900.12,786.147,0.21689
2918.1,789.147,0.21795
2936.121,792.147,0.21954
2954.13,795.147,0.22116
2972.15,798.147,0.22231
2990.17,801.147,0.2236
3008.16,804.147,0.22446
3026.17,807.147,0.22611
3044.166,810.147,0.2278
3062.16,813.147,0.22957
3080.151,816.147,0.23141
3098.15,819.147,0.23326
3116.187,822.147,0.23387
3134.22,825.147,0.23482
3152.25,828.147,0.23583
3170.29,831.147,0.23799
3188.337,834.147,0.23992
3206.36,837.147,0.24173
3224.38,840.147,0.24365
3242.38,843.147,0.24523
3260.39,846.147,0.24701
3278.44,849.147,0.2503
3296.5,852.147,0.2525
3314.52,855.147,0.25615
3332.54,858.147,0.25903
3350.56,861.147,0.26081
3368.6,864.147,0.26264
3386.64,867.147,0.2653
3404.66,870.147,0.26686
3422.72,873.147,0.26925
3440.75,876.147,0.27202
3458.77,879.147,0.27311
3476.76,882.147,0.27265
3494.73,885.147,0.2627
3512.73,888.147,0.26249
3530.59,891.147,0.27668
3548.57,894.147,0.28033
3566.58,897.147,0.2827
3584.58,900.147,0.28612
3602.6,903.147,0.28907
3620.63,906.147,0.29203
3638.64,909.147,0.29572
3656.631,912.147,0.2988
3674.616,915.147,0.3023
3692.55,918.147,0.30445
3710.51,921.147,0.30749
3728.52,924.147,0.31059
3746.55,927.147,0.31312
3764.604,930.147,0.31709
3782.66,933.147,0.31987
3800.66,936.147,0.32638
3818.65,939.147,0.32948
3836.652,942.147,0.33245
3854.65,945.147,0.33566
3872.64,948.147,0.33827
3890.628,951.147,0.34181
3908.619,954.147,0.34382
3926.61,957.147,0.34717
3944.64,960.147,0.35021
3962.66,963.147,0.35266
3980.66,966.147,0.35598
3998.67,969.147,0.35808
4016.619,972.147,0.36031
4034.57,975.147,0.36338
4052.56,978.147,0.36692
4070.54,981.147,0.36902
4088.51,984.147,0.3716
4106.48,987.147,0.3751
4124.47,990.147,0.37846
4142.48,993.147,0.38172
4160.52,996.147,0.38387
4178.55,999.147,0.38709
4196.61,1002.147,0.39075
4214.67,1005.147,0.39698
4232.69,1008.147,0.4005
4250.7,1011.147,0.40374
4268.73,1014.147,0.40899
4286.7,1017.147,0.41304
4304.65,1020.147,0.41843
4322.58,1023.147,0.42338
4340.56,1026.147,0.4282
4358.56,1029.147,0.43316
4376.54,1032.147,0.43754
4394.53,1035.147,0.44081
4412.53,1038.147,0.44506
4430.538,1041.147,0.45109
4448.553,1044.147,0.4551
4466.54,1047.147,0.4591
4484.48,1050.147,0.46125
4502.43,1053.147,0.46522
4520.4,1056.147,0.46887
4538.38,1059.147,0.47227
4556.38,1062.147,0.47694
4574.379,1065.147,0.48011
4592.38,1068.147,0.4822
4610.39,1071.147,0.48728
4616.397,1072.147,0.48803