File: PMMA/Calibration_Data/NIST/NIST_DSC_N2_10K_2.csv
Time,Temperature,Heat Flow
[s],[K],[mW/mg]
0,303.152,0.0007999447
71.862,306.152,0.13121
91.1388,309.152,0.20658
106.1658,312.152,0.26225
119.5344,315.152,0.3049
132.1722,318.152,0.33662
144.5928,321.152,0.35872
157.0998,324.152,0.37133
169.9542,327.152,0.376
183.3384,330.152,0.37414
197.3748,333.152,0.36753
212.1252,336.152,0.35906
227.5602,339.152,0.35101
243.564,342.152,0.34246
259.9734,345.152,0.33202
276.6126,348.152,0.32304
293.3508,351.152,0.3177
310.1616,354.152,0.31632
327.0192,357.152,0.31652
343.971,360.152,0.31634
361.0524,363.152,0.31605
378.297,366.152,0.31578
395.7348,369.152,0.31519
413.3628,372.152,0.3145
431.1702,375.152,0.31415
449.118,378.152,0.31432
467.1684,381.152,0.31576
485.2776,384.152,0.31846
503.3934,387.152,0.32267
521.4936,390.152,0.32862
539.5512,393.152,0.3367
557.5638,396.152,0.34599
575.5218,399.152,0.35405
593.4576,402.152,0.361
611.3586,405.152,0.36804
629.259,408.152,0.37332
647.1468,411.152,0.37902
665.0484,414.152,0.38423
682.9536,417.152,0.38952
700.8594,420.152,0.39447
718.779,423.152,0.39851
736.7232,426.152,0.40259
754.686,429.152,0.40738
772.6776,432.152,0.41211
790.701,435.152,0.41784
808.7208,438.152,0.42515
826.7406,441.152,0.43375
844.7658,444.152,0.44375
862.7958,447.152,0.45388
880.8342,450.152,0.46376
898.8792,453.152,0.4731
916.9344,456.152,0.48068
934.9794,459.152,0.48559
953.0214,462.152,0.4869
971.0706,465.152,0.48461
989.1318,468.152,0.47995
1007.19,471.152,0.47503
1025.23,474.152,0.47351
1043.262,477.152,0.47527
1061.3,480.152,0.48067
1079.33,483.152,0.48528
1097.36,486.152,0.48783
1115.39,489.152,0.4852
1133.44,492.152,0.47793
1151.502,495.152,0.46868
1169.57,498.152,0.46194
1187.66,501.152,0.45786
1205.76,504.152,0.45645
1223.862,507.152,0.45703
1241.92,510.152,0.45929
1259.982,513.152,0.46122
1278.04,516.152,0.46385
1296.11,519.152,0.46689
1314.17,522.152,0.47072
1332.21,525.152,0.47528
1350.28,528.152,0.47999
1368.34,531.152,0.4855
1386.4,534.152,0.49162
1404.456,537.152,0.49849
1422.49,540.152,0.50613
1440.53,543.152,0.51708
1458.57,546.152,0.5298
1476.61,549.152,0.54287
1494.65,552.152,0.5568
1512.67,555.152,0.57081
1530.72,558.152,0.58438
1548.786,561.152,0.59783
1566.85,564.152,0.61142
1584.888,567.152,0.62465
1602.93,570.152,0.63719
1620.97,573.152,0.64943
1639.005,576.152,0.66298
1657.03,579.152,0.68037
1675.02,582.152,0.70607
1692.99,585.152,0.74012
1710.97,588.152,0.78016
1728.98,591.152,0.8259
1747.05,594.152,0.8782
1765.17,597.152,0.94099
1783.29,600.152,1.01642
1801.43,603.152,1.1067
1819.57,606.152,1.21574
1837.69,609.152,1.3386
1855.812,612.152,1.48177
1873.92,615.152,1.65601
1892.046,618.152,1.83965
1910.18,621.152,2.03829
1928.28,624.152,2.24787
1946.35,627.152,2.45347
1964.37,630.152,2.6436
1982.37,633.152,2.80172
2000.34,636.152,2.89147
2018.24,639.152,2.93146
2036.08,642.152,2.81096
2053.85,645.152,2.81419
2071.66,648.152,2.67465
2089.47,651.152,2.60653
2107.27,654.152,2.40128
2125.1,657.152,2.18427
2142.94,660.152,1.91989
2160.8,663.152,1.64188
2178.71,666.152,1.36378
2196.67,669.152,1.11743
2214.69,672.152,0.91395
2232.78,675.152,0.73355
2250.91,678.152,0.58069
2269.07,681.152,0.46094
2287.24,684.152,0.36989
2305.39,687.152,0.30293
2323.536,690.152,0.25516
2341.66,693.152,0.22062
2359.75,696.152,0.19668
2377.8,699.152,0.18808
2395.77,702.152,0.20746
2413.78,705.152,0.22095
2431.89,708.152,0.20794
2450.03,711.152,0.19032
2468.2,714.152,0.14109
2486.325,717.152,0.12784
2504.36,720.152,0.12541
2522.364,723.152,0.12512
2540.36,726.152,0.12673
2558.35,729.152,0.12803
2576.34,732.152,0.12826
2594.32,735.152,0.12772
2612.32,738.152,0.12786
2630.3,741.152,0.12777
2648.29,744.152,0.12823
2666.274,747.152,0.1279
2684.27,750.152,0.12796
2702.265,753.152,0.12832
2720.26,756.152,0.12949
2738.26,759.152,0.13122
2756.26,762.152,0.1323
2774.25,765.152,0.13331
2792.232,768.152,0.13399
2810.2,771.152,0.13482
2828.17,774.152,0.13567
2846.14,777.152,0.13605
2864.14,780.152,0.13689
2882.14,783.152,0.13784
2900.16,786.152,0.13841
2918.21,789.152,0.13944
2936.24,792.152,0.13972
2954.28,795.152,0.14035
2972.3,798.152,0.14029
2990.31,801.152,0.14033
3008.32,804.152,0.14031
3026.32,807.152,0.14008
3044.3,810.152,0.13824
3062.26,813.152,0.13723
3080.223,816.152,0.13647
3098.22,819.152,0.13582
3116.22,822.152,0.13472
3134.22,825.152,0.13338
3152.25,828.152,0.13215
3170.26,831.152,0.13024
3188.27,834.152,0.1284
3206.28,837.152,0.12592
3224.31,840.152,0.12318
3242.355,843.152,0.12083
3260.4,846.152,0.11767
3278.46,849.152,0.1144
3296.48,852.152,0.11104
3314.5,855.152,0.10757
3332.499,858.152,0.10384
3350.514,861.152,0.09982523
3368.55,864.152,0.09559076
3386.57,867.152,0.09127518
3404.58,870.152,0.07760376
3422.53,873.152,0.07853508
3440.508,876.152,0.07631301
3458.52,879.152,0.07390379
3476.54,882.152,0.07102101
3494.56,885.152,0.06800547
3512.59,888.152,0.06441189
3530.64,891.152,0.06131395
3548.67,894.152,0.05808449
3566.703,897.152,0.05545765
3584.697,900.152,0.05347149
3602.69,903.152,0.05083015
3620.64,906.152,0.04803835
3638.589,909.152,0.04675064
3656.553,912.152,0.04531452
3674.54,915.152,0.04777988
3692.571,918.152,0.04895371
3710.62,921.152,0.04902403
3728.65,924.152,0.0492973
3746.66,927.152,0.04963516
3764.59,930.152,0.04901296
3782.58,933.152,0.04912193
3800.63,936.152,0.05016427
3818.67,939.152,0.05139987
3836.68,942.152,0.05269862
3854.69,945.152,0.05496144
3872.68,948.152,0.0561186
3890.66,951.152,0.05902596
3908.643,954.152,0.06172277
3926.65,957.152,0.06503745
3944.649,960.152,0.06748068
3962.66,963.152,0.07169491
3980.71,966.152,0.07540756
3998.74,969.152,0.07944134
4016.736,972.152,0.08259349
4034.71,975.152,0.08606048
4052.67,978.152,0.08992604
4070.628,981.152,0.09306701
4088.6,984.152,0.09671221
4106.59,987.152,0.10028
4124.6,990.152,0.10414
4142.63,993.152,0.10749
4160.65,996.152,0.1108
4178.69,999.152,0.11481
4196.71,1002.152,0.11725
4214.74,1005.152,0.1234
4232.76,1008.152,0.12694
4250.76,1011.152,0.13052
4268.71,1014.152,0.1335
4286.67,1017.152,0.13756
4304.61,1020.152,0.14141
4322.54,1023.152,0.14416
4340.51,1026.152,0.14709
4358.49,1029.152,0.14972
4376.52,1032.152,0.15107
4394.53,1035.152,0.1528
4412.55,1038.152,0.1527
4430.559,1041.152,0.15148
4448.58,1044.152,0.15124
4466.583,1047.152,0.15049
4484.59,1050.152,0.14783
4502.61,1053.152,0.14423
4520.6,1056.152,0.14119
4538.56,1059.152,0.14035
4556.5,1062.152,0.13703
4574.45,1065.152,0.1367
4592.38,1068.152,0.13573
4610.33,1071.152,0.13509
4616.37,1072.152,0.13448