File: PMMA/Calibration_Data/NIST/NIST_TGA_N2_10K_3.csv
Time,Temperature,Mass
[s],[K],[mg]
0,303.136,6.10978
72.0462,306.136,6.0945
91.3458,309.136,6.09661
106.3824,312.136,6.09687
119.7414,315.136,6.09604
132.3786,318.136,6.09294
144.7752,321.136,6.09374
157.2534,324.136,6.09801
170.0628,327.136,6.09848
183.3894,330.136,6.09818
197.3616,333.136,6.10012
212.0508,336.136,6.10083
227.4492,339.136,6.10118
243.4164,342.136,6.10051
259.8054,345.136,6.09917
276.435,348.136,6.10051
293.1984,351.136,6.09783
310.0056,354.136,6.10051
326.8656,357.136,6.10055
343.7898,360.136,6.09783
360.8358,363.136,6.09749
378.054,366.136,6.09516
395.4672,369.136,6.09772
413.0958,372.136,6.09604
430.9236,375.136,6.09506
448.9104,378.136,6.0937
467.0076,381.136,6.09436
485.16,384.136,6.09271
503.3262,387.136,6.09371
521.4498,390.136,6.09031
539.5236,393.136,6.09315
557.5308,396.136,6.09115
575.5002,399.136,6.09113
593.43,402.136,6.091144
611.3394,405.136,6.08879
629.2248,408.136,6.0872
647.1102,411.136,6.08508
664.9932,414.136,6.08244
682.8906,417.136,6.08209
700.8126,420.136,6.0821
718.7304,423.136,6.07808
736.6764,426.136,6.07674
754.635,429.136,6.0754
772.6104,432.136,6.07138
790.6008,435.136,6.06804
808.611,438.136,6.06803
826.6254,441.136,6.06358
844.6422,444.136,6.05997
862.6716,447.136,6.05195
880.7298,450.136,6.04559
898.7976,453.136,6.03911
916.848,456.136,6.0326
934.9062,459.136,6.02173
952.9686,462.136,6.01284
971.0064,465.136,6.00263
989.0328,468.136,5.99236
1007.05,471.136,5.98326
1025.07,474.136,5.97394
1043.09,477.136,5.96762
1061.13,480.136,5.96134
1079.172,483.136,5.95111
1097.22,486.136,5.94244
1115.29,489.136,5.93849
1133.37,492.136,5.93239
1151.46,495.136,5.93038
1169.51,498.136,5.92671
1187.58,501.136,5.92369
1205.68,504.136,5.92193
1223.77,507.136,5.922
1241.83,510.136,5.919
1259.9,513.136,5.91903
1277.979,516.136,5.91665
1296.063,519.136,5.91263
1314.135,522.136,5.91219
1332.21,525.136,5.91084
1350.27,528.136,5.90817
1368.333,531.136,5.90549
1386.37,534.136,5.9015
1404.39,537.136,5.89744
1422.43,540.136,5.89341
1440.48,543.136,5.88791
1458.516,546.136,5.87858
1476.55,549.136,5.87262
1494.57,552.136,5.86231
1512.6,555.136,5.8538
1530.65,558.136,5.84531
1548.72,561.136,5.83317
1566.77,564.136,5.81587
1584.81,567.136,5.80306
1602.85,570.136,5.78684
1620.897,573.136,5.76878
1638.94,576.136,5.75269
1656.96,579.136,5.73093
1674.98,582.136,5.71007
1693.01,585.136,5.68743
1711.04,588.136,5.6622
1729.068,591.136,5.63199
1747.09,594.136,5.59411
1765.119,597.136,5.5552
1783.17,600.136,5.50806
1801.242,603.136,5.44626
1819.34,606.136,5.3733
1837.452,609.136,5.28414
1855.58,612.136,5.17917
1873.72,615.136,5.05385
1891.84,618.136,4.90217
1909.98,621.136,4.72447
1928.09,624.136,4.52362
1946.19,627.136,4.29433
1964.26,630.136,4.03358
1982.28,633.136,3.74756
2000.24,636.136,3.44432
2018.14,639.136,3.12629
2035.99,642.136,2.80884
2053.79,645.136,2.48936
2071.62,648.136,2.17595
2089.461,651.136,1.86473
2107.26,654.136,1.57001
2125.08,657.136,1.2974
2142.915,660.136,1.0524
2160.73,663.136,0.841267
2178.59,666.136,0.665223
2196.49,669.136,0.5206254
2214.47,672.136,0.403769
2232.53,675.136,0.313692
2250.64,678.136,0.240961
2268.81,681.136,0.190551
2287.03,684.136,0.154498
2305.25,687.136,0.12082
2323.479,690.136,0.102584
2341.7,693.136,0.0881252
2359.863,696.136,0.0753764
2377.95,699.136,0.0660401
2396,702.136,0.0626301
2413.98,705.136,0.056561
2431.96,708.136,0.0531846
2449.87,711.136,0.0545758
2467.79,714.136,0.049216
2485.884,717.136,0.0508822
2503.94,720.136,0.051225
2521.99,723.136,0.0511738
2540.06,726.136,0.0502156
2558.12,729.136,0.0512689
2576.166,732.136,0.0505456
2594.18,735.136,0.05093897
2612.196,738.136,0.0499095
2630.187,741.136,0.0498759
2648.17,744.136,0.0497631
2666.166,747.136,0.0485354
2684.18,750.136,0.0488952
2702.17,753.136,0.049546
2720.16,756.136,0.0484841
2738.154,759.136,0.0502016
2756.14,762.136,0.048536
2774.106,765.136,0.0498759
2792.08,768.136,0.0492117
2810.08,771.136,0.0505462
2828.09,774.136,0.0492563
2846.11,777.136,0.0492062
2864.14,780.136,0.0492062
2882.18,783.136,0.049216
2900.22,786.136,0.0505322
2918.22,789.136,0.0478657
2936.205,792.136,0.0502144
2954.17,795.136,0.04953864
2972.12,798.136,0.0492062
2990.07,801.136,0.0492008
3008.06,804.136,0.0488757
3026.07,807.136,0.0498857
3044.115,810.136,0.0499454
3062.17,813.136,0.0500314
3080.2,816.136,0.0487659
3098.22,819.136,0.0474259
3116.23,822.136,0.0487665
3134.23,825.136,0.0487659
3152.24,828.136,0.0494356
3170.22,831.136,0.0474241
3188.19,834.136,0.0494356
3206.2,837.136,0.0494441
3224.217,840.136,0.0491007
3242.28,843.136,0.0467557
3260.34,846.136,0.0477571
3278.38,849.136,0.0470759
3296.41,852.136,0.0497655
3314.42,855.136,0.0490959
3332.42,858.136,0.0477559
3350.4,861.136,0.0474259
3368.376,864.136,0.0487659
3386.37,867.136,0.0491532
3404.4,870.136,0.0480956
3422.45,873.136,0.0474259
3440.51,876.136,0.0487671
3458.55,879.136,0.0487659
3476.59,882.136,0.0501089
3494.637,885.136,0.0501058
3512.56,888.136,0.0487659
3530.46,891.136,0.0480956
3548.45,894.136,0.0487659
3566.45,897.136,0.046036
3584.45,900.136,0.0447271
3602.47,903.136,0.0474314
3620.499,906.136,0.0501058
3638.51,909.136,0.0497631
3656.45,912.136,0.04837617
3674.44,915.136,0.049768
3692.466,918.136,0.0501058
3710.5,921.136,0.04709599
3728.52,924.136,0.0472643
3746.54,927.136,0.0465117
3764.55,930.136,0.0487677
3782.55,933.136,0.0489037
3800.55,936.136,0.0487525
3818.57,939.136,0.0466294
3836.6,942.136,0.0492191
3854.63,945.136,0.0478657
3872.65,948.136,0.0478657
3890.64,951.136,0.0465257
3908.63,954.136,0.0451858
3926.6,957.136,0.0489141
3944.56,960.136,0.0488757
3962.53,963.136,0.0476577
3980.56,966.136,0.045209
3998.57,969.136,0.0465361
4016.59,972.136,0.0468319
4034.58,975.136,0.044746
4052.57,978.136,0.0485311
4070.535,981.136,0.0486561
4088.514,984.136,0.04831579
4106.52,987.136,0.0486579
4124.52,990.136,0.0486561
4142.53,993.136,0.0473156
4160.52,996.136,0.0483255
4178.52,999.136,0.0476175
4196.55,1002.136,0.0499961
4214.559,1005.136,0.0476486
4232.57,1008.136,0.0463159
4250.58,1011.136,0.0483286
4268.58,1014.136,0.0469856
4286.58,1017.136,0.04697645
4304.56,1020.136,0.0488373
4322.56,1023.136,0.0486543
4340.56,1026.136,0.0489958
4358.54,1029.136,0.0489958
4376.5,1032.136,0.0489983
4394.45,1035.136,0.047751
4412.4,1038.136,0.0440758
4430.4,1041.136,0.0454133
4448.37,1044.136,0.0480926
4466.36,1047.136,0.0467557
4484.33,1050.136,0.0487519
4502.34,1053.136,0.0447454
4520.38,1056.136,0.0477559
4538.379,1059.136,0.046416
4556.391,1062.136,0.04575726
4574.358,1065.136,0.0467557
4592.33,1068.136,0.0454157
4610.28,1071.136,0.0467557
4616.32,1072.136,0.0481078