File: PMMA/Calibration_Data/NIST/NIST_TGA_N2_10K_2.csv
Time,Temperature,Mass
[s],[K],[mg]
0,303.152,5.86703
71.862,306.152,5.86184
91.1388,309.152,5.85701
106.1658,312.152,5.85557
119.5344,315.152,5.85468
132.1722,318.152,5.85412
144.5928,321.152,5.85341
157.0998,324.152,5.855
169.9542,327.152,5.8563
183.3384,330.152,5.85582
197.3748,333.152,5.85676
212.1252,336.152,5.85742
227.5602,339.152,5.8581
243.564,342.152,5.85877
259.9734,345.152,5.8581
276.6126,348.152,5.85874
293.3508,351.152,5.8591
310.1616,354.152,5.86078
327.0192,357.152,5.86066
343.971,360.152,5.85861
361.0524,363.152,5.859
378.297,366.152,5.85959
395.7348,369.152,5.85798
413.3628,372.152,5.8553
431.1702,375.152,5.85664
449.118,378.152,5.8553
467.1684,381.152,5.85598
485.2776,384.152,5.8553
503.3934,387.152,5.85263
521.4936,390.152,5.8523
539.5512,393.152,5.85274
557.5638,396.152,5.85547
575.5218,399.152,5.85488
593.4576,402.152,5.85407
611.3586,405.152,5.85408
629.259,408.152,5.85139
647.1468,411.152,5.8514
665.0484,414.152,5.84872
682.9536,417.152,5.84872
700.8594,420.152,5.84604
718.779,423.152,5.84333
736.7232,426.152,5.84202
754.686,429.152,5.83934
772.6776,432.152,5.8395
790.701,435.152,5.83598
808.7208,438.152,5.83186
826.7406,441.152,5.82993
844.7658,444.152,5.82516
862.7958,447.152,5.82114
880.8342,450.152,5.81578
898.8792,453.152,5.80963
916.9344,456.152,5.80105
934.9794,459.152,5.79422
953.0214,462.152,5.78347
971.0706,465.152,5.77458
989.1318,468.152,5.76555
1007.19,471.152,5.75587
1025.23,474.152,5.74952
1043.262,477.152,5.74076
1061.3,480.152,5.73467
1079.33,483.152,5.72715
1097.36,486.152,5.72048
1115.39,489.152,5.71219
1133.44,492.152,5.7057
1151.502,495.152,5.70343
1169.57,498.152,5.70169
1187.66,501.152,5.69901
1205.76,504.152,5.69767
1223.862,507.152,5.69633
1241.92,510.152,5.69432
1259.982,513.152,5.69332
1278.04,516.152,5.69231
1296.11,519.152,5.69063
1314.17,522.152,5.68796
1332.21,525.152,5.68562
1350.28,528.152,5.68428
1368.34,531.152,5.68126
1386.4,534.152,5.67724
1404.456,537.152,5.6738
1422.49,540.152,5.66919
1440.53,543.152,5.66484
1458.57,546.152,5.65742
1476.61,549.152,5.65011
1494.65,552.152,5.64156
1512.67,555.152,5.63384
1530.72,558.152,5.62271
1548.786,561.152,5.60822
1566.85,564.152,5.59571
1584.888,567.152,5.57993
1602.93,570.152,5.56401
1620.97,573.152,5.54665
1639.005,576.152,5.52506
1657.03,579.152,5.50583
1675.02,582.152,5.48212
1692.99,585.152,5.45628
1710.97,588.152,5.42886
1728.98,591.152,5.39522
1747.05,594.152,5.35897
1765.17,597.152,5.31269
1783.29,600.152,5.25749
1801.43,603.152,5.19661
1819.57,606.152,5.11743
1837.69,609.152,5.02645
1855.812,612.152,4.91549
1873.92,615.152,4.78587
1892.046,618.152,4.63107
1910.18,621.152,4.45612
1928.28,624.152,4.25066
1946.35,627.152,4.02138
1964.37,630.152,3.76886
1982.37,633.152,3.49038
2000.34,636.152,3.19852
2018.24,639.152,2.89327
2036.08,642.152,2.58853
2053.85,645.152,2.28157
2071.66,648.152,1.98609
2089.47,651.152,1.70019
2107.27,654.152,1.42108
2125.1,657.152,1.17034
2142.94,660.152,0.944578
2160.8,663.152,0.752018
2178.71,666.152,0.59095
2196.67,669.152,0.458511
2214.69,672.152,0.351222
2232.78,675.152,0.268817
2250.91,678.152,0.204311
2269.07,681.152,0.157312
2287.24,684.152,0.122215
2305.39,687.152,0.0968912
2323.536,690.152,0.0801535
2341.66,693.152,0.067704
2359.75,696.152,0.05786183
2377.8,699.152,0.0525077
2395.77,702.152,0.0471443
2413.78,705.152,0.044469
2431.89,708.152,0.0424539
2450.03,711.152,0.0421279
2468.2,714.152,0.0417849
2486.325,717.152,0.041103
2504.36,720.152,0.0425225
2522.364,723.152,0.0421279
2540.36,726.152,0.0418435
2558.35,729.152,0.0421279
2576.34,732.152,0.040118
2594.32,735.152,0.041422
2612.32,738.152,0.0421279
2630.3,741.152,0.04245797
2648.29,744.152,0.0441377
2666.274,747.152,0.0414589
2684.27,750.152,0.0424562
2702.265,753.152,0.0411189
2720.26,756.152,0.041456
2738.26,759.152,0.0414577
2756.26,762.152,0.0414736
2774.25,765.152,0.0433192
2792.232,768.152,0.0411177
2810.2,771.152,0.0414472
2828.17,774.152,0.0404481
2846.14,777.152,0.04245797
2864.14,780.152,0.04245797
2882.14,783.152,0.0411177
2900.16,786.152,0.0417878
2918.21,789.152,0.0426444
2936.24,792.152,0.0421179
2954.28,795.152,0.0421156
2972.3,798.152,0.0434582
2990.31,801.152,0.0421179
3008.32,804.152,0.0411183
3026.32,807.152,0.0434582
3044.3,810.152,0.0421179
3062.26,813.152,0.04244683
3080.223,816.152,0.0417796
3098.22,819.152,0.0420241
3116.22,822.152,0.04115228
3134.22,825.152,0.0431181
3152.25,828.152,0.042448
3170.26,831.152,0.042448
3188.27,834.152,0.0431176
3206.28,837.152,0.0431146
3224.31,840.152,0.0431205
3242.355,843.152,0.0431111
3260.4,846.152,0.0414478
3278.46,849.152,0.0431293
3296.48,852.152,0.0427922
3314.5,855.152,0.0429118
3332.499,858.152,0.04100336
3350.514,861.152,0.0423477
3368.55,864.152,0.0430085
3386.57,867.152,0.0428408
3404.58,870.152,0.0430009
3422.53,873.152,0.0443505
3440.508,876.152,0.0430079
3458.52,879.152,0.0430079
3476.54,882.152,0.04469
3494.56,885.152,0.0433544
3512.59,888.152,0.043348
3530.64,891.152,0.0440193
3548.67,894.152,0.0450277
3566.703,897.152,0.043688
3584.697,900.152,0.0436869
3602.69,903.152,0.0438938
3620.64,906.152,0.0436728
3638.589,909.152,0.0426778
3656.553,912.152,0.040284
3674.54,915.152,0.0457008
3692.571,918.152,0.0450277
3710.62,921.152,0.0439888
3728.65,924.152,0.0420077
3746.66,927.152,0.0433996
3764.59,930.152,0.0446167
3782.58,933.152,0.0446871
3800.63,936.152,0.0430179
3818.67,939.152,0.0430179
3836.68,942.152,0.0443412
3854.69,945.152,0.0421742
3872.68,948.152,0.0428484
3890.66,951.152,0.04370034
3908.643,954.152,0.0461053
3926.65,957.152,0.0434676
3944.649,960.152,0.0434682
3962.66,963.152,0.04434996
3980.71,966.152,0.0445012
3998.74,969.152,0.0460344
4016.736,972.152,0.045947
4034.71,975.152,0.04392841
4052.67,978.152,0.0446877
4070.628,981.152,0.0446953
4088.6,984.152,0.0436077
4106.59,987.152,0.0433474
4124.6,990.152,0.0456979
4142.63,993.152,0.04535781
4160.65,996.152,0.0456979
4178.69,999.152,0.0456979
4196.71,1002.152,0.0446877
4214.74,1005.152,0.0447703
4232.76,1008.152,0.0456967
4250.76,1011.152,0.0436816
4268.71,1014.152,0.0450142
4286.67,1017.152,0.0439231
4304.61,1020.152,0.04390789
4322.54,1023.152,0.0435678
4340.51,1026.152,0.0462279
4358.49,1029.152,0.0455736
4376.52,1032.152,0.0490861
4394.53,1035.152,0.04335794
4412.55,1038.152,0.0457717
4430.559,1041.152,0.0463668
4448.58,1044.152,0.0473676
4466.583,1047.152,0.04462728
4484.59,1050.152,0.0473676
4502.61,1053.152,0.0471994
4520.6,1056.152,0.04769656
4538.56,1059.152,0.0476432
4556.5,1062.152,0.0476977
4574.45,1065.152,0.0483679
4592.38,1068.152,0.048379
4610.33,1071.152,0.0507178
4616.37,1072.152,0.0493781