File: PMMA/Calibration_Data/NIST/NIST_TGA_N2_10K_4.csv
Time,Temperature,Mass
[s],[K],[mg]
0,301.925,6.34042
77.0814,304.925,6.33327
95.8746,307.925,6.33812
110.3316,310.925,6.34349
123.0258,313.925,6.34902
134.8986,316.925,6.35312
146.445,319.925,6.35593
157.9584,322.925,6.35808
169.6932,325.925,6.36117
181.8324,328.925,6.36264
194.5326,331.925,6.36264
207.9216,334.925,6.3613
222.081,337.925,6.36164
237.003,340.925,6.3613
252.6072,343.925,6.35895
268.7598,346.925,6.35627
285.2742,349.925,6.35461
302.0046,352.925,6.35426
318.8772,355.925,6.3524
335.853,358.925,6.35091
352.9254,361.925,6.35225
370.137,364.925,6.35225
387.5154,367.925,6.35091
405.1104,370.925,6.3495
422.91,373.925,6.35091
440.8992,376.925,6.34991
459.0306,379.925,6.34821
477.2442,382.925,6.34817
495.5046,385.925,6.3469
513.7578,388.925,6.34824
531.9552,391.925,6.34652
550.0848,394.925,6.34676
568.164,397.925,6.34557
586.1658,400.925,6.34422
604.1232,403.925,6.34422
622.0398,406.925,6.34288
639.948,409.925,6.34152
657.8538,412.925,6.34087
675.7476,415.925,6.33942
693.639,418.925,6.33741
711.5376,421.925,6.33607
729.4398,424.925,6.33425
747.3594,427.925,6.33238
765.2958,430.925,6.32831
783.261,433.925,6.32568
801.2556,436.925,6.32378
819.2682,439.925,6.32
837.309,442.925,6.31485
855.3654,445.925,6.31062
873.426,448.925,6.30603
891.4794,451.925,6.29854
909.5274,454.925,6.28986
927.57,457.925,6.28024
945.597,460.925,6.27098
963.651,463.925,6.26076
981.7098,466.925,6.25154
999.7872,469.925,6.24031
1017.82,472.925,6.23296
1035.85,475.925,6.22467
1053.86,478.925,6.2155
1071.888,481.925,6.20908
1089.93,484.925,6.2021
1107.993,487.925,6.19709
1126.05,490.925,6.19575
1144.13,493.925,6.19039
1162.197,496.925,6.18771
1180.27,499.925,6.18838
1198.34,502.925,6.18704
1216.41,505.925,6.18439
1234.49,508.925,6.18235
1252.58,511.925,6.18235
1270.67,514.925,6.18235
1288.75,517.925,6.17833
1306.809,520.925,6.17732
1324.87,523.925,6.17595
1342.95,526.925,6.17299
1361.01,529.925,6.17092
1379.08,532.925,6.1659
1397.14,535.925,6.16359
1415.2,538.925,6.15824
1433.24,541.925,6.1515
1451.283,544.925,6.1489
1469.32,547.925,6.14055
1487.34,550.925,6.13226
1505.37,553.925,6.12396
1523.406,556.925,6.11211
1541.43,559.925,6.0977
1559.47,562.925,6.08438
1577.49,565.925,6.06958
1595.54,568.925,6.05136
1613.59,571.925,6.03195
1631.65,574.925,6.01314
1649.69,577.925,5.99116
1667.709,580.925,5.96937
1685.74,583.925,5.94285
1703.76,586.925,5.91369
1721.784,589.925,5.88177
1739.82,592.925,5.84477
1757.86,595.925,5.8009
1775.92,598.925,5.74823
1794,601.925,5.68646
1812.1,604.925,5.61055
1830.22,607.925,5.52379
1848.33,610.925,5.41282
1866.432,613.925,5.28791
1884.53,616.925,5.13759
1902.64,619.925,4.96317
1920.74,622.925,4.76003
1938.816,625.925,4.53001
1956.89,628.925,4.27165
1974.93,631.925,3.9877
1992.924,634.925,3.68169
2010.879,637.925,3.35847
2028.77,640.925,3.03016
2046.64,643.925,2.70098
2064.51,646.925,2.36107
2082.366,649.925,2.02643
2100.162,652.925,1.70668
2117.92,655.925,1.41962
2135.69,658.925,1.16104
2153.49,661.925,0.9421
2171.34,664.925,0.752692
2189.28,667.925,0.596633
2207.29,670.925,0.46928
2225.36,673.925,0.368623
2243.49,676.925,0.288838
2261.66,679.925,0.230739
2279.85,682.925,0.18792
2298.018,685.925,0.155695
2316.2,688.925,0.13282
2334.35,691.925,0.117341
2352.47,694.925,0.104419
2370.54,697.925,0.0942886
2388.61,700.925,0.0881699
2406.68,703.925,0.0851619
2424.72,706.925,0.0812538
2442.73,709.925,0.0798122
2460.62,712.925,0.07746292
2478.72,715.925,0.0794999
2496.813,718.925,0.0781147
2514.87,721.925,0.0788038
2532.906,724.925,0.0791091
2550.92,727.925,0.0791034
2568.91,730.925,0.0784707
2586.9,733.925,0.0791427
2604.89,736.925,0.0786885
2622.89,739.925,0.0778031
2640.88,742.925,0.0781331
2658.88,745.925,0.0781331
2676.88,748.925,0.0771329
2694.9,751.925,0.0771982
2712.91,754.925,0.077145
2730.93,757.925,0.0778031
2748.921,760.925,0.0778069
2766.9,763.925,0.07714432
2784.89,766.925,0.0781331
2802.888,769.925,0.0781312
2820.88,772.925,0.0788836
2838.89,775.925,0.0777929
2856.92,778.925,0.0791326
2874.92,781.925,0.0778031
2892.91,784.925,0.0791326
2910.88,787.925,0.0791345
2928.876,790.925,0.0774914
2946.86,793.925,0.0784732
2964.85,796.925,0.0791351
2982.84,799.925,0.0794727
3000.84,802.925,0.0794733
3018.84,805.925,0.0798109
3036.849,808.925,0.0794797
3054.87,811.925,0.0791326
3072.89,814.925,0.0777967
3090.88,817.925,0.0784726
3108.88,820.925,0.0799439
3126.882,823.925,0.081136
3144.9,826.925,0.0798078
3162.91,829.925,0.0790908
3180.948,832.925,0.081796
3198.98,835.925,0.0791427
3217.017,838.925,0.0778031
3235.04,841.925,0.081143
3253.071,844.925,0.0791326
3271.12,847.925,0.0794727
3289.16,850.925,0.078522
3307.18,853.925,0.07813369
3325.18,856.925,0.0788045
3343.17,859.925,0.0801428
3361.194,862.925,0.0801428
3379.22,865.925,0.0804811
3397.25,868.925,0.0791427
3415.25,871.925,0.0804728
3433.27,874.925,0.080813
3451.28,877.925,0.0790692
3469.31,880.925,0.0797875
3487.323,883.925,0.0794727
3505.29,886.925,0.07847
3523.13,889.925,0.0784586
3541.12,892.925,0.0794727
3559.16,895.925,0.081516
3577.19,898.925,0.080813
3595.21,901.925,0.0798128
3613.2,904.925,0.0778031
3631.18,907.925,0.0798128
3649.15,910.925,0.0784707
3667.15,913.925,0.0794879
3685.17,916.925,0.0794676
3703.22,919.925,0.0781331
3721.27,922.925,0.0778031
3739.302,925.925,0.079144
3757.29,928.925,0.0798128
3775.278,931.925,0.08069516
3793.23,934.925,0.077131
3811.2,937.925,0.0788032
3829.239,940.925,0.0798046
3847.269,943.925,0.0784624
3865.31,946.925,0.0798021
3883.362,949.925,0.0788045
3901.36,952.925,0.0794727
3919.374,955.925,0.0806819
3937.38,958.925,0.0804728
3955.36,961.925,0.0791421
3973.32,964.925,0.0788032
3991.33,967.925,0.0798914
4009.31,970.925,0.0801428
4027.28,973.925,0.0788026
4045.24,976.925,0.0791427
4063.2,979.925,0.0791427
4081.18,982.925,0.0788026
4099.2,985.925,0.0798027
4117.23,988.925,0.0801428
4135.27,991.925,0.0794727
4153.32,994.925,0.0808339
4171.37,997.925,0.0778107
4189.38,1000.925,0.079474
4207.36,1003.925,0.0781331
4225.37,1006.925,0.0781331
4243.34,1009.925,0.0781426
4261.31,1012.925,0.0781166
4279.29,1015.925,0.0781046
4297.287,1018.925,0.0781426
4315.25,1021.925,0.0781432
4333.23,1024.925,0.0784257
4351.2,1027.925,0.0767928
4369.18,1030.925,0.0771228
4387.19,1033.925,0.0777929
4405.25,1036.925,0.0764526
4423.25,1039.925,0.0782129
4441.236,1042.925,0.0777929
4459.203,1045.925,0.07746292
4477.17,1048.925,0.0764526
4495.15,1051.925,0.0777929
4513.137,1054.925,0.0781432
4531.11,1057.925,0.0761226
4549.101,1060.925,0.0753423
4567.11,1063.925,0.07667497
4585.083,1066.925,0.0780228
4603.029,1069.925,0.0780228
4615.06,1071.925,0.0793625