File: PMMA/Validation_Results/NIST-FSRI/NIST-FSRI_Gasification_q50_MLR_R3.csv
Time,MLR
[s],[g/m2/s]
0,0
2,1.84754E-12
4.01,1.09305E-09
6.01,5.51514E-08
8.01,9.17386E-07
10.01,8.02996E-06
12.01,4.62307E-05
14.01,0.000198252
16.01,0.00068362
18,0.00198854
20,0.005069204
22,0.0116323
24,0.02441709
26,0.0475403
28,0.0867615
30,0.149598
32,0.245144
34,0.383447
36,0.57433
38,0.825724
40,1.14182
42,1.52156
44.01,1.96053
46.01,2.44263
48.01,2.95533
50.01,3.48341
52.01,4.0131
54.01,4.53325
56.01,5.03617
58.01,5.51656
60.01,5.97179
62.01,6.40059
64.01,6.80374
66.01,7.18227
68.01,7.53783
70.01,7.871792
72.01,8.18473
74,8.47768
76,8.75698
78,9.0177
80,9.2684
82,9.50236
84,9.72791
86,9.94053
88,10.1414
90,10.3394
92,10.5245
94,10.7002
96,10.8765
98,11.041
100,11.1987
102,11.3512
104,11.5058
106,11.6493
108,11.7882
110,11.92269
112,12.0615
114,12.1924
116,12.3177
118,12.4403
120,12.5605
122,12.6865
124,12.805
126,12.9196
128,13.0313
130,13.1423
132,13.25615
134,13.3696
136,13.4783
138,13.58455
140,13.6888
142,13.7927
144,13.90003
146,14.0096
148,14.1123
150,14.2154
152,14.31597
154,14.4157
156,14.5165
158,14.6267
160.01,14.7289
162.01,14.8293
164.01,14.9297
166.01,15.0285
168.01,15.1267
170.01,15.2279
172.01,15.3382
174.01,15.4385
176.01,15.5386
178.01,15.6393
180.01,15.7385
182.01,15.8373
184.01,15.9419
186.01,16.0519
188.01,16.1531
190.01,16.2541
192.01,16.3571
194.01,16.4581
196.01,16.5591
198.01,16.6668
200.01,16.779
202.01,16.8828
204.01,16.9859
206.01,17.0924
208.01,17.1965
210.01,17.3009
212.01,17.4119
214.01,17.5282
216.01,17.6361
218.01,17.7425
220.01,17.8535
222.01,17.962
224.01,18.0709
226.01,18.18656
228.01,18.3077
230.01,18.421
232.01,18.5322
234.01,18.6483
236.01,18.7629
238.01,18.8771
240.01,19.0005
242.01,19.1266
244.01,19.2461
246.01,19.3643
248.01,19.486
250.01,19.6087
252.01,19.7294
254.01,19.8631
256.01,19.9952
258.01,20.1221
260.01,20.2486
262.01,20.378
264.01,20.5102
266.01,20.6398
268.01,20.7846
270.01,20.92504
272.01,21.0603
274.01,21.1972
276.01,21.338
278.01,21.4794
280.01,21.6268
282.01,21.7771
284.01,21.9285
286.01,22.0738
288.01,22.2222
290.01,22.3754
292.01,22.5274
294.01,22.692
296.01,22.8513
298.01,23.0101
300.01,23.1661
302.01,23.3264
304.01,23.4888
306.01,23.6587
308.01,23.825
310.01,23.9922
312.01,24.1567
314.01,24.3183
316.01,24.4875
318.01,24.657
320.01,24.8264
322.01,24.9967
324.01,25.157
326.01,25.3195
328.01,25.482
330.01,25.644
332.01,25.8084
334.01,25.969
336.01,26.1201
338.01,26.2674
340.01,26.4179
342.01,26.56052
344.01,26.71
346.01,26.85014
348.01,26.9828
350.01,27.1096
352.01,27.2391
354.01,27.3628
356.01,27.49044
358.01,27.6063
360.01,27.717
362.01,27.8272
364.01,27.9339
366.01,28.0442
368.01,28.1489
370.01,28.2482
372.01,28.3466
374.01,28.4412
376.01,28.5401
378.01,28.6383
380.01,28.7291
382.01,28.8215
384.01,28.9135
386.01,29.0133
388.01,29.1008
390.01,29.194
392.01,29.2872
394.01,29.38005
396.01,29.4665
398.01,29.5589
400.01,29.6494
402.01,29.7334
404.01,29.8182
406.01,29.8972
408.01,29.9712
410.01,30.03715
412.01,30.0889
414.01,30.1218
416.01,30.1257
418.01,30.1012
420.01,29.9903
422.01,29.7536
424.01,29.279
426.01,28.2314
428.01,24.9318
430.01,0
432.01,0
434.01,0
436.01,0
438.01,0
440.01,0
442.01,0
444.01,0
446.01,0
448.01,0
450.01,0
452.01,0
454.01,0
456.01,0
458.01,0
460.01,0
462.01,0
464.01,0
466.01,0
468.01,0
470.01,0
472.01,0
474.01,0
476.01,0
478.01,0
480.01,0
482.01,0
484.01,0
486.01,0
488.01,0
490.01,0
492.01,0
494.01,0
496.01,0
498.01,0
500,0