File: PMMA/Validation_Results/NIST-FSRI/NIST-FSRI_Gasification_q50_MLR_R4.csv
Time,MLR
[s],[g/m2/s]
0,0
2,1.86E-12
4.01,1.10E-09
6.01,5.54E-08
8.01,9.21E-07
10.01,8.06E-06
12.01,4.64E-05
14.01,0.000198833
16.01,0.000685424
18,0.001993295
20,0.005080259
22,0.0116555
24,0.024462
26,0.04762098
28,0.0868976
30,0.149815
32,0.245472
34,0.383918
36,0.574978
38,0.826571
40,1.14287
42,1.52283
44.01,1.96198
46.01,2.444238
48.01,2.95706
50.01,3.48521
52.01,4.01493
54.01,4.53513
56.01,5.038041
58.01,5.51846
60.01,5.97361
62.01,6.40237
64.01,6.80555
66.01,7.18401
68.01,7.539607
70.01,7.87365
72.01,8.18682
74,8.47948
76,8.75894
78,9.01952
80,9.27036
82,9.50426
84,9.73033
86,9.94258
88,10.1438
90,10.342
92,10.5269
94,10.7029
96,10.8795
98,11.044
100,11.2017
102,11.35646
104,11.5095
106,11.6529
108,11.7921
110,11.9267
112,12.0667
114,12.19715
116,12.3225
118,12.4457
120,12.5665
122,12.6929
124,12.8116
126,12.926
128,13.03797
130,13.14968
132,13.2663
134,13.3779
136,13.4871
138,13.5933
140,13.6979
142,13.8027
144,13.9137
146,14.0205
148,14.1242
150,14.2268
152,14.3278
154,14.4278
156,14.5305
158,14.6412
160.01,14.7428
162.01,14.8444
164.01,14.9444
166.01,15.0436
168.01,15.1426
170.01,15.2505
172.01,15.35583
174.01,15.4559
176.01,15.5575
178.01,15.6576
180.01,15.7573
182.01,15.8567
184.01,15.9681
186.01,16.0732
188.01,16.1742
190.01,16.2774
192.01,16.3794
194.01,16.481
196.01,16.5822
198.01,16.697
200.01,16.8045
202.01,16.90788
204.01,17.0135
206.01,17.1191
208.01,17.2238
210.01,17.3284
212.01,17.4469
214.01,17.5583
216.01,17.6656
218.01,17.7739
220.01,17.8849
222.01,17.9935
224.01,18.103
226.01,18.2266
228.01,18.3428
230.01,18.4554
232.01,18.5674
234.01,18.68513
236.01,18.7993
238.01,18.9146
240.01,19.0449
242.01,19.1668
244.01,19.28601
246.01,19.4041
248.01,19.5291
250.01,19.6505
252.01,19.77269
254.01,19.9119
256.01,20.0406
258.01,20.1678
260.01,20.2946
262.01,20.4273
264.01,20.5585
266.01,20.695
268.01,20.8395
270.01,20.9766
272.01,21.1133
274.01,21.25
276.01,21.3931
278.01,21.5349
280.01,21.688
282.01,21.8397
284.01,21.9867
286.01,22.1335
288.01,22.2846
290.01,22.4372
292.01,22.5963
294.01,22.7566
296.01,22.9181
298.01,23.0756
300.01,23.231
302.01,23.3966
304.01,23.556
306.01,23.7311
308.01,23.898
310.01,24.0635
312.01,24.2262
314.01,24.3915
316.01,24.559
318.01,24.733
320.01,24.9018
322.01,25.0675
324.01,25.2302
326.01,25.3899
328.01,25.5538
330.01,25.7206
332.01,25.8784
334.01,26.03683
336.01,26.1857
338.01,26.335
340.01,26.4814
342.01,26.6324
344.01,26.7738
346.01,26.9126
348.01,27.0393
350.01,27.1714
352.01,27.29426
354.01,27.4224
356.01,27.5442
358.01,27.6578
360.01,27.76605
362.01,27.8779
364.01,27.97985
366.01,28.0952
368.01,28.194
370.01,28.2903
372.01,28.3904
374.01,28.48435
376.01,28.5893
378.01,28.6792
380.01,28.7743
382.01,28.8648
384.01,28.9608
386.01,29.0538
388.01,29.1445
390.01,29.2328
392.01,29.3306
394.01,29.4198
396.01,29.5103
398.01,29.6013
400.01,29.6862
402.01,29.7743
404.01,29.8558
406.01,29.9348
408.01,30.0031
410.01,30.0619
412.01,30.1058
414.01,30.1254
416.01,30.1261
418.01,30.0588
420.01,29.897
422.01,29.5702
424.01,28.8922
426.01,27.223
428.01,19.611
430.01,0
432.01,0
434.01,0
436.01,0
438.01,0
440.01,0
442.01,0
444.01,0
446.01,0
448.01,0
450.01,0
452.01,0
454.01,0
456.01,0
458.01,0
460.01,0
462.01,0
464.01,0
466.01,0
468.01,0
470.01,0
472.01,0
474.01,0
476.01,0
478.01,0
480.01,0
482.01,0
484.01,0
486.01,0
488.01,0
490.01,0
492.01,0
494.01,0
496.01,0
498.01,0
500,0