File: PMMA/Validation_Results/NIST-FSRI/NIST-FSRI_Gasification_q50_MLR_R5.csv
Time,MLR
[s],[g/m2/s]
0,0
2,1.6868E-12
4.01,1.01392E-09
6.01,5.17856E-08
8.01,8.6921E-07
10.01,7.66119E-06
12.01,4.43505E-05
14.01,0.000191039
16.01,0.000661189
18,0.001929263
20,0.004931139
22,0.0113415
24,0.02385467
26,0.0465287
28,0.0850532
30,0.146872
32,0.241017
34,0.377501
36,0.566164
38,0.815024
40,1.12842
42,1.50551
44.01,1.94203
46.01,2.42211
48.01,2.93322
50.01,3.46015
52.01,3.98909
54.01,4.50894
56.01,5.01144
58.01,5.49154
60.01,5.946748
62.01,6.376008
64.01,6.77916
66.01,7.15753
68.01,7.51226
70.01,7.84404
72.01,8.15713
74,8.45057
76,8.72559
78,8.98901
80,9.23375
82,9.4702
84,9.69012
86,9.90263
88,10.1034
90,10.29241
92,10.47827
94,10.6531
96,10.8189
98,10.9791
100,11.13812
102,11.2861
104,11.4278
106,11.5654
108,11.7052
110,11.8356
112,11.9602
114,12.0808
116,12.2018
118,12.3228
120,12.436
122,12.546
124,12.6524
126,12.7569
128,12.8674
130,12.9715
132,13.071
134,13.1697
136,13.2653
138,13.3593
140,13.4564
142,13.5566
144,13.6489
146,13.7396
148,13.83
150,13.9183
152,14.0056
154,14.0977
156,14.1924
158,14.2797
160.01,14.3657
162.01,14.4529
164.01,14.5378
166.01,14.6221
168.01,14.70619
170.01,14.80274
172.01,14.8895
174.01,14.9736
176.01,15.0585
178.01,15.14347
180.01,15.2271
182.01,15.3105
184.01,15.3998
186.01,15.4929
188.01,15.5784
190.01,15.6624
192.01,15.74864
194.01,15.8338
196.01,15.9184
198.01,16.0028
200.01,16.09836
202.01,16.1898
204.01,16.2764
206.01,16.3622
208.01,16.4511
210.01,16.5382
212.01,16.6253
214.01,16.7121
216.01,16.81336
218.01,16.9061
220.01,16.9952
222.01,17.0843
224.01,17.177
226.01,17.2674
228.01,17.3582
230.01,17.4492
232.01,17.5565
234.01,17.6521
236.01,17.7451
238.01,17.83873
240.01,17.9365
242.01,18.0313
244.01,18.1271
246.01,18.2315
248.01,18.3377
250.01,18.4376
252.01,18.5358
254.01,18.6367
256.01,18.7395
258.01,18.84
260.01,18.9421
262.01,19.0598
264.01,19.1677
266.01,19.2735
268.01,19.3784
270.01,19.4887
272.01,19.5976
274.01,19.70542
276.01,19.826
278.01,19.94541
280.01,20.0593
282.01,20.1729
284.01,20.2877
286.01,20.4077
288.01,20.525
290.01,20.65
292.01,20.781
294.01,20.9045
296.01,21.0281
298.01,21.1517
300.01,21.2814
302.01,21.4101
304.01,21.5463
306.01,21.685
308.01,21.8224
310.01,21.9552
312.01,22.0916
314.01,22.2324
316.01,22.3722
318.01,22.5227
320.01,22.6708
322.01,22.819
324.01,22.9646
326.01,23.1095
328.01,23.2644
330.01,23.41278
332.01,23.5773
334.01,23.7346
336.01,23.8905
338.01,24.04435
340.01,24.1994
342.01,24.3602
344.01,24.5229
346.01,24.6846
348.01,24.84819
350.01,25.0031
352.01,25.1597
354.01,25.3179
356.01,25.4736
358.01,25.6365
360.01,25.79466
362.01,25.9444
364.01,26.09035
366.01,26.2397
368.01,26.3809
370.01,26.5318
372.01,26.6721
374.01,26.8102
376.01,26.9369
378.01,27.0695
380.01,27.1928
382.01,27.3209
384.01,27.4446
386.01,27.5594
388.01,27.6686
390.01,27.7815
392.01,27.8843
394.01,27.9991
396.01,28.10096
398.01,28.19966
400.01,28.2986
402.01,28.39342
404.01,28.4906
406.01,28.5896
408.01,28.6802
410.01,28.7724
412.01,28.8632
414.01,28.96187
416.01,29.0515
418.01,29.1429
420.01,29.229
422.01,29.326
424.01,29.415
426.01,29.5051
428.01,29.5957
430.01,29.6815
432.01,29.7687
434.01,29.8522
436.01,29.9315
438.01,30.00355
440.01,30.0681
442.01,30.1182
444.01,30.14958
446.01,30.1625
448.01,30.1244
450.01,30.0064
452.01,29.7596
454.01,29.2657
456.01,28.16354
458.01,24.5787
460.01,7.61965E-10
462.01,0
464.01,0
466.01,0
468.01,0
470.01,0
472.01,0
474.01,0
476.01,0
478.01,0
480.01,0
482.01,0
484.01,0
486.01,0
488.01,0
490.01,0
492.01,0
494.01,0
496.01,0
498.01,0
500,0