File: PMMA/Calibration_Data/HKPoly/HKPolyU_Cone_25kW_2.CSV
Time,Mass,Heat release,Back surface temperature
[s],[g],[kW/m2],[K]
1,77.53,2.06,305
3,77.52,1.6,305
5,77.51,1.23,305.1
7,77.49,4.37,305.1
9,77.49,5.61,305.1
11,77.5,4.42,305.1
13,77.5,2.16,305.1
15,77.52,1.49,304.9
17,77.51,1.96,304.9
19,77.5,0.3,304.9
21,77.5,0.89,305
23,77.49,1.17,305.3
25,77.47,0.67,305.6
27,77.47,2.79,305.6
29,77.47,3.04,305.8
31,77.45,2.86,306.4
33,77.45,0.4,306.9
35,77.47,2.86,307.4
37,77.45,0.4,308
39,77.46,2.86,308.7
41,77.42,0.4,309.5
43,77.41,1.23,310.4
45,77.41,4.01,311.3
47,77.4,3.6,312.1
49,77.39,3.15,312.9
51,77.38,2.98,313.9
53,77.35,2.14,314.8
55,77.35,2.87,315.9
57,77.36,2.99,317.1
59,77.35,3.1,318.1
61,77.34,3.13,319.2
63,77.35,4.7,320.3
65,77.35,11.15,321.5
67,77.31,18.82,322.4
69,77.23,24.51,323.4
71,77.09,22.4,324.5
73,76.93,21.69,325.6
75,76.8,22.78,326.8
77,76.63,29.95,328.2
79,76.41,44.35,329.5
81,76.19,71.41,331
83,75.93,121.17,333
85,75.67,171.6,335.9
87,75.43,217.35,338.7
89,75.07,272.41,341
91,74.76,337.1,343.2
93,74.43,390.19,345.3
95,74.07,435.64,347.3
97,73.79,480.26,349
99,73.44,517.5,350.7
101,73.06,559.94,352.4
103,72.74,608.16,353.9
105,72.37,646.74,355.3
107,72.01,675.59,356.5
109,71.62,700.86,357.6
111,71.24,721.54,358.7
113,70.81,739.01,359.5
115,70.49,755.57,360.3
117,70.11,777.08,361
119,69.73,792.56,361.7
121,69.35,811.62,361.7
123,68.96,834.63,361.3
125,68.54,848.73,361.1
127,68.19,864.44,360.7
129,67.82,874.44,359.9
131,67.41,878.86,358.7
133,67.01,883.19,357.9
135,66.6,883.39,356.9
137,66.25,882.52,356.5
139,65.81,879.65,356.3
141,65.41,877.1,356.2
143,64.99,881.65,356.5
145,64.62,887.09,357.4
147,64.21,886.13,358.3
149,63.86,883.32,360
151,63.42,882.46,362
153,63,885.59,363.4
155,62.64,910.54,365.2
157,62.27,935.47,365.6
159,61.83,943.82,366.3
161,61.46,946.51,366.9
163,61.05,945.88,367.2
165,60.63,940.98,368
167,60.2,936.7,368.8
169,59.8,928.63,369.4
171,59.43,920.87,371.4
173,59.02,917.98,373.3
175,58.6,918.09,374.7
177,58.2,922.99,376.3
179,57.78,929.23,377.6
181,57.42,942.75,378.9
183,57,956.3,379.8
185,56.61,964.18,381.2
187,56.17,954.66,382.2
189,55.77,940.61,383.4
191,55.37,934.11,384.5
193,54.96,935.64,385.6
195,54.53,940.94,386.4
197,54.13,946.6,387.7
199,53.73,955.47,388.3
201,53.31,962.63,389.4
203,52.9,964.94,390.4
205,52.55,964.96,391.1
207,52.09,964.65,392.2
209,51.69,963.98,393.1
211,51.24,957.01,394.2
213,50.81,952.61,395.2
215,50.46,953.53,396.2
217,50.08,961.62,397.1
219,49.62,967.87,398.2
221,49.19,971.69,398.9
223,48.8,974.37,399.8
225,48.4,976.47,400.9
227,47.95,976.38,401.9
229,47.56,968.93,402.8
231,47.12,963.55,403.7
233,46.7,961.68,404.6
235,46.29,966.08,405.4
237,45.85,971.05,406.2
239,45.42,979.83,406.9
241,45.03,986.95,407.6
243,44.61,992.09,408.7
245,44.15,995.95,409.4
247,43.75,997.56,409.9
249,43.3,1000.37,410.7
251,42.83,1002.16,411.2
253,42.49,1002.64,411.9
255,42.02,1003.37,412.7
257,41.64,1001.28,413.7
259,41.15,998.27,414.3
261,40.77,998.7,414.7
263,40.33,999.48,415.4
265,39.93,1000.36,416.1
267,39.51,1004.38,416.8
269,39.1,1008.91,417.6
271,38.61,1015.52,418.3
273,38.15,1023,419
275,37.74,1023.87,419.6
277,37.33,1012.13,420.2
279,36.88,1001.86,420.4
281,36.45,1004.96,420.7
283,36.04,1019.99,421.4
285,35.6,1030.91,421.8
287,35.16,1034.97,422
289,34.74,1035.24,421.5
291,34.26,1031.83,421.1
293,33.85,1024.16,420.7
295,33.38,1019.38,420.4
297,32.95,1026.35,419.3
299,32.52,1032.51,417.9
301,32.09,1037.73,417
303,31.65,1047.84,417.1
305,31.24,1053.28,417.5
307,30.83,1056.24,417.8
309,30.35,1054.34,417.8
311,29.91,1047.02,417.1
313,29.45,1039.96,416.9
315,28.99,1035.58,416.5
317,28.53,1041.54,416
319,28.1,1055.12,416.2
321,27.66,1064.14,417.5
323,27.16,1070.85,418.2
325,26.77,1075.61,418.9
327,26.34,1077.2,420.4
329,25.87,1076.85,422.8
331,25.44,1076.48,426.5
333,25.03,1074.89,437.2
335,24.6,1072.15,446.3
337,24.17,1073.34,452.5
339,23.73,1073.28,458.7
341,23.31,1072.32,465.6
343,22.89,1067.17,471.3
345,22.51,1053,478.6
347,22.1,1039.28,483.1
349,21.65,1030.03,486.3
351,21.28,1016.01,490
353,20.87,1002.98,496
355,20.46,992.88,500.9
357,20.08,985.97,505.3
359,19.72,983.16,509.7
361,19.34,973.51,514.4
363,18.95,953.36,519.4
365,18.51,943.46,524.3
367,18.16,937.84,528.2
369,17.77,923.49,532.4
371,17.37,902.28,536.1
373,17.03,887.05,540.5
375,16.69,879.03,544.8
377,16.3,867.09,548.7
379,15.91,852.23,552.7
381,15.58,837.48,556.4
383,15.21,821.31,559.9
385,14.86,811.1,562.8
387,14.51,793.49,566
389,14.18,770.99,568.9
391,13.87,758.7,571.2
393,13.52,739.96,574.2
395,13.14,723.07,576.8
397,12.78,712.31,580.9
399,12.44,698.66,583.9
401,12.1,684.84,586.2
403,11.73,663.25,586.8
405,11.38,646.14,591.9
407,11.02,638.57,592.5
409,10.62,638.37,595.8
411,10.3,637.39,597.9
413,9.98,632.71,598.8
415,9.68,627.33,600.2
417,9.36,623.46,601.3
419,8.99,619.14,602.6
421,8.61,609.26,604
423,8.33,592.86,606.1
425,8.01,575.43,609.1
427,7.69,553,612.4
429,7.45,526.76,616.7
431,7.16,507.98,620.4
433,6.92,490.44,624.2
435,6.62,471.76,629.3
437,6.36,458.08,636.7
439,6.12,442.01,645.7
441,5.89,430.32,654.2
443,5.66,410.43,664.4
445,5.41,385.82,677.2
447,5.15,362.29,686.5
449,4.94,341.59,695.2
451,4.74,323.61,705.6
453,4.53,305.18,714.6
455,4.34,281.34,731.1
457,4.12,258.69,741
459,3.95,241.67,753.8
461,3.75,223.76,767.9
463,3.62,210.73,774.6
465,3.47,201.08,774
467,3.28,189.61,751.1
469,3.14,167.6,721.5
471,3.05,147.24,698.6
473,2.89,127,680.7
475,2.79,107.83,666.7
477,2.68,89.46,655.8
479,2.57,73.11,647
481,2.43,55.54,640.2
483,2.36,39.8,634.3
485,2.25,28.96,631
487,2.12,21.94,628.2
489,2.04,18.14,623.6
491,1.9,15.01,622.4
493,1.75,13.78,621.5
495,1.69,12.82,620.4
497,1.55,12.08,619.6
499,1.44,12.33,619.4
501,1.34,11.7,617.9
503,1.22,10.74,618.3
505,1.1,10.2,617.2
507,0.99,9.85,615.7
509,0.89,9.48,615