File: PMMA/Calibration_Data/UMET/UMET_TGA_N2_2K_1.csv
Time,Temperature,Mass
[s],[K],[mg]
0,313.115,4.8446
60,315.115,4.8446
120,317.115,4.8446
180,319.115,4.8446
240,321.115,4.8446
300,323.115,4.8446
360,325.115,4.8446
420,327.115,4.8446
480,329.115,4.8446
540,331.115,4.8446
600,333.115,4.8446
660,335.115,4.8446
720,337.115,4.8446
780,339.115,4.8446
840,341.115,4.8446
900,343.115,4.8446
960,345.115,4.8446
1020,347.115,4.8446
1080,349.115,4.8446
1140,351.115,4.8446
1200,353.115,4.8446
1260,355.115,4.8446
1320,357.115,4.8446
1380,359.115,4.8446
1440,361.115,4.8446
1500,363.115,4.8446
1560,365.115,4.8446
1620,367.115,4.8446
1680,369.115,4.8446
1740,371.115,4.8446
1800,373.115,4.8446
1860,375.115,4.8446
1920,377.115,4.8446
1980,379.115,4.8446
2040,381.115,4.8446
2100,383.115,4.8446
2160,385.115,4.8446
2220,387.115,4.8446
2280,389.115,4.8446
2340,391.115,4.8446
2400,393.115,4.8446
2460,395.115,4.8438
2520,397.115,4.8433
2580,399.115,4.84238
2640,401.115,4.84212
2700,403.115,4.84161
2760,405.115,4.84138
2820,407.115,4.8417
2880,409.115,4.8417
2940,411.115,4.8419
3000,413.115,4.8402
3060,415.115,4.83999
3120,417.115,4.83836
3180,419.115,4.8372
3240,421.115,4.8363
3300,423.115,4.83656
3360,425.115,4.8353
3420,427.115,4.83329
3480,429.115,4.83172
3540,431.115,4.82993
3600,433.115,4.82833
3660,435.115,4.8256
3720,437.115,4.82134
3780,439.115,4.81644
3840,441.115,4.8099
3900,443.115,4.8041
3960,445.115,4.7989
4020,447.115,4.79257
4080,449.115,4.78519
4140,451.115,4.77969
4200,453.115,4.77331
4260,455.115,4.7677
4320,457.115,4.76069
4380,459.115,4.75569
4440,461.115,4.75115
4500,463.115,4.7457
4560,465.115,4.74154
4620,467.115,4.73809
4680,469.115,4.73386
4740,471.115,4.7285
4800,473.115,4.72653
4860,475.115,4.72601
4920,477.115,4.72391
4980,479.115,4.72191
5040,481.115,4.7224
5100,483.115,4.7235
5160,485.115,4.7221
5220,487.115,4.7209
5280,489.115,4.71841
5340,491.115,4.7175
5400,493.115,4.71671
5460,495.115,4.71687
5520,497.115,4.7144
5580,499.115,4.7146
5640,501.115,4.71356
5700,503.115,4.7132
5760,505.115,4.71171
5820,507.115,4.71191
5880,509.115,4.70954
5940,511.115,4.70918
6000,513.115,4.70746
6060,515.115,4.70401
6120,517.115,4.70278
6180,519.115,4.69999
6240,521.115,4.69529
6300,523.115,4.69041
6360,525.115,4.6878
6420,527.115,4.68489
6480,529.115,4.6813
6540,531.115,4.6764
6600,533.115,4.6724
6660,535.115,4.66699
6720,537.115,4.66005
6780,539.115,4.6545
6840,541.115,4.64681
6900,543.115,4.63958
6960,545.115,4.63006
7020,547.115,4.6202
7080,549.115,4.61005
7140,551.115,4.60028
7200,553.115,4.58917
7260,555.115,4.57733
7320,557.115,4.56533
7380,559.115,4.55181
7440,561.115,4.53779
7500,563.115,4.52231
7560,565.115,4.50553
7620,567.115,4.48577
7680,569.115,4.4639
7740,571.115,4.43926
7800,573.115,4.41187
7860,575.115,4.37878
7920,577.115,4.34169
7980,579.115,4.30259
8040,581.115,4.25662
8100,583.115,4.20382
8160,585.115,4.14596
8220,587.115,4.07808
8280,589.115,4.00071
8340,591.115,3.91656
8400,593.115,3.82299
8460,595.115,3.71844
8520,597.115,3.6019
8580,599.115,3.47549
8640,601.115,3.33551
8700,603.115,3.18639
8760,605.115,3.02877
8820,607.115,2.86082
8880,609.115,2.68374
8940,611.115,2.50092
9000,613.115,2.31898
9060,615.115,2.13977
9120,617.115,1.96433
9180,619.115,1.7928
9240,621.115,1.62689
9300,623.115,1.45566
9360,625.115,1.29063
9420,627.115,1.13562
9480,629.115,0.986564
9540,631.115,0.848419
9600,633.115,0.724266
9660,635.115,0.614098
9720,637.115,0.516564
9780,639.115,0.432993
9840,641.115,0.361512
9900,643.115,0.298664
9960,645.115,0.247381
10020,647.115,0.204067
10080,649.115,0.169178
10140,651.115,0.140887
10200,653.115,0.117169
10260,655.115,0.09815741
10320,657.115,0.08295893
10380,659.115,0.069397
10440,661.115,0.0614087
10500,663.115,0.0529607
10560,665.115,0.045298
10620,667.115,0.0406016
10680,669.115,0.03799862
10740,671.115,0.0338051
10800,673.115,0.0308005
10860,675.115,0.0289135
10920,677.115,0.0296964
10980,679.115,0.0298994
11040,681.115,0.02989312
11100,683.115,0.0294745
11160,685.115,0.0298951
11220,687.115,0.0286955
11280,689.115,0.028104
11340,691.115,0.0283942
11400,693.115,0.0282067
11460,695.115,0.0278928
11520,697.115,0.0276055
11580,699.115,0.0268769
11640,701.115,0.0275498
11700,703.115,0.0285957
11760,705.115,0.0284722
11820,707.115,0.0279456
11880,709.115,0.0279926
11940,711.115,0.0306203
12000,713.115,0.0288259
12060,715.115,0.0287978
12120,717.115,0.0287018
12180,719.115,0.0268982
12240,721.115,0.02749795
12300,723.115,0.0270963
12360,725.115,0
12420,727.115,0
12480,729.115,0
12540,731.115,0
12600,733.115,0
12660,735.115,0
12720,737.115,0
12780,739.115,0
12840,741.115,0
12900,743.115,0
12960,745.115,0
13020,747.115,0
13080,749.115,0
13140,751.115,0
13200,753.115,0
13260,755.115,0
13320,757.115,0
13380,759.115,0
13440,761.115,0
13500,763.115,0
13560,765.115,0
13620,767.115,0
13680,769.115,0
13740,771.115,0
13800,773.115,0
13815,773.615,0