File: PMMA/Calibration_Data/UMET/UMET_TGA_N2_50K_1.csv
Time,Temperature,Mass
[s],[K],[mg]
0,313.115,5.9802
2.4,315.115,5.9802
4.8,317.115,5.9802
7.2,319.115,5.9802
9.6,321.115,5.9802
12,323.115,5.9802
14.4,325.115,5.9802
16.8,327.115,5.9802
19.2,329.115,5.9802
21.6,331.115,5.9802
24,333.115,5.9802
26.4,335.115,5.9802
28.8,337.115,5.9802
31.2,339.115,5.9802
33.6,341.115,5.9802
36,343.115,5.9802
38.4,345.115,5.9802
40.8,347.115,5.9802
43.2,349.115,5.9802
45.6,351.115,5.9802
48,353.115,5.9802
50.4,355.115,5.9802
52.8,357.115,5.9802
55.2,359.115,5.9802
57.6,361.115,5.9802
60,363.115,5.9802
62.4,365.115,5.9802
64.8,367.115,5.9802
67.2,369.115,5.9802
69.6,371.115,5.9802
72,373.115,5.9802
74.4,375.115,5.9802
76.8,377.115,5.9802
79.2,379.115,5.9802
81.6,381.115,5.9802
84,383.115,5.9802
86.4,385.115,5.9802
88.8,387.115,5.9802
91.2,389.115,5.9802
93.6,391.115,5.9802
96,393.115,5.9802
98.4,395.115,5.9802
100.8,397.115,5.9802
103.2,399.115,5.9802
105.6,401.115,5.9802
108,403.115,5.9802
110.4,405.115,5.9802
112.8,407.115,5.9802
115.2,409.115,5.9802
117.6,411.115,5.9802
120,413.115,5.9802
122.4,415.115,5.9802
124.8,417.115,5.9802
127.2,419.115,5.9802
129.6,421.115,5.9802
132,423.115,5.9802
134.4,425.115,5.9802
136.8,427.115,5.9802
139.2,429.115,5.9802
141.6,431.115,5.9802
144,433.115,5.9802
146.4,435.115,5.9802
148.8,437.115,5.9783
151.2,439.115,5.97699
153.6,441.115,5.97616
156,443.115,5.97552
158.4,445.115,5.97646
160.8,447.115,5.97792
163.2,449.115,5.97762
165.6,451.115,5.97503
168,453.115,5.97217
170.4,455.115,5.96944
172.8,457.115,5.96662
175.2,459.115,5.96407
177.6,461.115,5.96216
180,463.115,5.95985
182.4,465.115,5.95621
184.8,467.115,5.9518
187.2,469.115,5.94697
189.6,471.115,5.9426
192,473.115,5.93927
194.4,475.115,5.93612
196.8,477.115,5.93163
199.2,479.115,5.92706
201.6,481.115,5.92362
204,483.115,5.91912
206.4,485.115,5.91374
208.8,487.115,5.90918
211.2,489.115,5.90576
213.6,491.115,5.90168
216,493.115,5.89675
218.4,495.115,5.89134
220.8,497.115,5.8866
223.2,499.115,5.88323
225.6,501.115,5.87811
228,503.115,5.87305
230.4,505.115,5.87075
232.8,507.115,5.86867
235.2,509.115,5.86647
237.6,511.115,5.86452
240,513.115,5.86182
242.4,515.115,5.85878
244.8,517.115,5.8553
247.2,519.115,5.85123
249.6,521.115,5.84761
252,523.115,5.84546
254.4,525.115,5.84407
256.8,527.115,5.84248
259.2,529.115,5.83994
261.6,531.115,5.83612
264,533.115,5.83306
266.4,535.115,5.8312
268.8,537.115,5.831
271.2,539.115,5.83125
273.6,541.115,5.83129
276,543.115,5.83113
278.4,545.115,5.82923
280.8,547.115,5.8258
283.2,549.115,5.82194
285.6,551.115,5.81906
288,553.115,5.81783
290.4,555.115,5.81641
292.8,557.115,5.81466
295.2,559.115,5.81268
297.6,561.115,5.80988
300,563.115,5.80532
302.4,565.115,5.80046
304.8,567.115,5.79568
307.2,569.115,5.79061
309.6,571.115,5.78592
312,573.115,5.78305
314.4,575.115,5.77887
316.8,577.115,5.77172
319.2,579.115,5.76395
321.6,581.115,5.75667
324,583.115,5.74951
326.4,585.115,5.74103
328.8,587.115,5.73181
331.2,589.115,5.72209
333.6,591.115,5.69265
336,593.115,5.68152
338.4,595.115,5.67266
340.8,597.115,5.65424
343.2,599.115,5.63983
345.6,601.115,5.62378
348,603.115,5.60723
350.4,605.115,5.58984
352.8,607.115,5.56726
355.2,609.115,5.53967
357.6,611.115,5.50612
360,613.115,5.46692
362.4,615.115,5.42464
364.8,617.115,5.37961
367.2,619.115,5.32931
369.6,621.115,5.27031
372,623.115,5.20107
374.4,625.115,5.12552
376.8,627.115,5.04582
379.2,629.115,4.96042
381.6,631.115,4.86431
384,633.115,4.75021
386.4,635.115,4.62299
388.8,637.115,4.49028
391.2,639.115,4.24085
393.6,641.115,4.09689
396,643.115,3.92915
398.4,645.115,3.74723
400.8,647.115,3.54376
403.2,649.115,3.34012
405.6,651.115,3.12904
408,653.115,2.91005
410.4,655.115,2.69681
412.8,657.115,2.48991
415.2,659.115,2.27728
417.6,661.115,2.07139
420,663.115,1.87533
422.4,665.115,1.68858
424.8,667.115,1.50792
427.2,669.115,1.33334
429.6,671.115,1.16731
432,673.115,1.00946
434.4,675.115,0.86587
436.8,677.115,0.729504
439.2,679.115,0.606101
441.6,681.115,0.505338
444,683.115,0.422361
446.4,685.115,0.349832
448.8,687.115,0.28789
451.2,689.115,0.237035
453.6,691.115,0.197471
456,693.115,0.16083
458.4,695.115,0.132715
460.8,697.115,0.10988
463.2,699.115,0.0885315
465.6,701.115,0.0752166
468,703.115,0.066757
470.4,705.115,0.0610919
472.8,707.115,0.0563155
475.2,709.115,0.0533482
477.6,711.115,0.0473052
480,713.115,0.0399304
482.4,715.115,0.0382093
484.8,717.115,0.0387427
487.2,719.115,0.0387236
489.6,721.115,0.0372859
492,723.115,0.0354046
494.4,725.115,0
496.8,727.115,0
499.2,729.115,0
501.6,731.115,0
504,733.115,0
506.4,735.115,0
508.8,737.115,0
511.2,739.115,0
513.6,741.115,0
516,743.115,0
518.4,745.115,0
520.8,747.115,0
523.2,749.115,0
525.6,751.115,0
528,753.115,0
530.4,755.115,0
532.8,757.115,0
535.2,759.115,0
537.6,761.115,0
540,763.115,0
542.4,765.115,0
544.8,767.115,0
547.2,769.115,0
549.6,771.115,0
552,773.115,0
552.6,773.615,0