File: PMMA/Calibration_Data/UMET/UMET_DSC_N2_20K_2.csv
Time,Temperature,Heat Flow
[s],[K],[mW/mg]
0,273.15,0
21,304.624,-0.587286
42,294.159,-0.531149
63,284.434,-0.425888
84,275.466,-0.399291
105,267.207,-0.375787
126,259.611,-0.349059
147,252.63,-0.321804
168,246.221,-0.295459
189,240.338,-0.270322
210,234.937,-0.247674
231,229.981,-0.227019
252,225.431,-0.208158
273,221.256,-0.188698
294,217.424,-0.173279
315,213.907,-0.158257
336,210.68,-0.144199
357,207.718,-0.131475
378,204.999,-0.119768
399,202.504,-0.108668
420,200.215,-0.098914
441,198.115,-0.0896862
462,196.185,-0.0813238
483,194.357,-0.0752786
504,193.317,-0.0298905
525,193.25,-0.00891194
546,193.22,-0.00259748
567,193.207,0.000958547
588,193.2,0.00286657
609,193.196,0.00416931
630,193.195,0.00504908
651,193.194,0.00575085
672,193.193,0.00601781
693,193.192,0.00634017
714,193.192,0.00641584
735,193.192,0.00656458
756,193.193,0.00667839
777,193.192,0.00668874
798,193.192,0.00673886
819,193.192,0.00679162
840,193.192,0.00679383
861,193.193,0.00694232
882,193.193,0.0070062
903,193.191,0.00701747
924,193.192,0.00703886
945,193.192,0.00685232
966,193.192,0.00692048
987,193.192,0.00692853
1008,193.19,0.00685562
1029,193.189,0.00692555
1050,193.191,0.0069687
1071,193.192,0.0070125
1092,193.19,0.00710546
1113,193.856,-0.0351335
1134,200.422,0.249054
1155,207.33,0.256404
1176,214.276,0.262751
1197,221.253,0.270014
1218,228.241,0.278356
1239,235.241,0.287972
1260,242.244,0.298061
1281,249.249,0.309628
1302,256.254,0.322101
1323,263.259,0.33443
1344,270.264,0.348778
1365,277.269,0.363537
1386,284.272,0.380212
1407,291.277,0.39673
1428,298.283,0.413418
1449,305.287,0.429767
1470,312.292,0.445964
1491,319.3,0.45703
1512,326.309,0.465338
1533,333.315,0.472983
1554,340.323,0.479817
1575,347.33,0.48617
1596,354.338,0.492066
1617,361.35,0.497916
1638,368.36,0.503566
1659,375.368,0.510077
1680,382.369,5.19E-01
1701,389.374,0.537045
1722,396.377,0.577341
1743,403.374,0.621983
1764,410.385,0.626019
1785,417.39,0.626892
1806,424.396,0.631074
1827,431.397,0.636582
1848,433.092,0.0937682
1869,433.143,0.0799902
1890,433.176,0.0737614
1911,433.189,0.068827
1932,433.194,0.0658691
1953,433.197,0.0640953
1974,433.2,0.0620636
1995,433.195,0.0607597
2016,433.195,0.0602918
2037,433.196,0.0596125
2058,433.194,0.0588562
2079,433.192,0.0583097
2100,433.195,0.0579654
2121,433.195,0.0574546
2142,433.196,0.0569047
2163,433.194,0.0563869
2184,433.194,0.0563271
2205,433.196,0.0561001
2226,433.196,0.0556261
2247,433.198,0.0552694
2268,433.197,0.0545556
2289,433.196,0.054134
2310,433.195,0.0540554
2331,433.195,0.0537286
2352,433.194,0.0533374
2373,433.195,0.0531537
2394,433.193,0.0528498
2415,433.193,0.0529351
2436,431.857,-0.275048
2457,425.101,-0.503734
2478,418.166,-0.509499
2499,411.198,-0.513557
2520,404.215,-0.513271
2541,397.221,-0.503064
2562,390.222,-0.472357
2583,383.225,-0.445615
2604,376.23,-0.427154
2625,369.235,-0.412647
2646,362.242,-0.40205
2667,355.246,-0.393167
2688,348.251,-0.385617
2709,341.255,-0.378573
2730,334.259,-0.372424
2751,327.263,-0.365281
2772,320.267,-0.35955
2793,313.273,-0.353693
2814,306.278,-0.349253
2835,299.283,-0.344645
2856,292.286,-0.340044
2877,285.289,-0.335891
2898,278.293,-0.332178
2919,271.299,-0.328266
2940,264.305,-0.3245
2961,257.31,-0.321783
2982,250.529,-0.311861
3003,244.316,-0.284722
3024,238.624,-0.261081
3045,233.402,-0.240137
3066,228.606,-0.218521
3087,224.202,-0.201265
3108,220.16,-0.183997
3129,216.446,-0.168549
3150,213.035,-0.153948
3171,209.902,-0.140724
3192,207.028,-0.128372
3213,204.387,-0.11696
3234,201.961,-0.106497
3255,199.733,-0.0970019
3276,197.687,-0.0880596
3297,195.809,-0.0797943
3318,194.048,-0.0722771
3339,193.142,-0.0219633
3360,193.18,-0.00524661
3381,193.195,-0.00075877
3402,193.199,0.00154965
3423,193.2,0.00289292
3444,193.2,0.00380053
3465,193.199,0.00430455
3486,193.199,0.00492878
3507,193.199,0.00531202
3528,193.199,0.00562361
3549,193.198,0.00584693
3570,193.197,0.00612237
3591,193.197,0.00615691
3612,193.197,0.00639127
3633,193.197,0.00659586
3654,193.198,0.00664278
3675,193.197,0.00660312
3696,193.197,0.00679223
3717,193.196,0.00691658
3738,193.196,0.00689082
3759,193.196,0.00687523
3780,193.196,0.00689182
3801,193.195,0.0070759
3822,193.195,0.00724799
3843,193.195,0.00733855
3864,193.195,0.00738753
3885,193.194,0.00754946
3906,193.195,0.00745082
3927,196.199,0.19696
3948,203.046,0.250415
3969,209.936,0.256518
3990,216.928,0.262528
4011,223.907,0.269397
4032,230.899,0.277312
4053,237.9,0.286017
4074,244.869,0.295188
4095,251.908,0.305695
4116,258.914,0.315649
4137,265.921,0.325316
4158,272.93,0.335161
4179,279.936,0.344952
4200,286.941,0.355891
4221,293.95,0.366911
4242,300.958,0.377539
4263,307.965,0.387435
4284,314.974,0.397269
4305,321.98,0.407056
4326,328.988,0.416788
4347,335.994,0.426161
4368,343.001,0.43592
4389,350.007,0.446013
4410,357.013,0.456272
4431,364.019,0.467156
4452,371.025,0.47796
4473,378.033,0.490565
4494,385.04,0.507296
4515,392.045,0.538186
4536,399.043,0.589956
4557,406.042,0.620177
4578,413.051,0.623844
4599,420.058,0.628202
4620,427.069,0.634146
4641,432.945,0.448744
4662,433.115,0.0835605
4683,433.161,0.0774508
4704,433.185,0.0718788
4725,433.194,0.0677518
4746,433.198,0.0650869
4767,433.198,0.0631094
4788,433.197,0.0618778
4809,433.199,0.0610753
4830,433.199,0.0599677
4851,433.199,0.0590056
4872,433.196,0.0584866
4893,433.196,0.0580706
4914,433.196,0.057592
4935,433.196,0.0571515
4956,433.195,0.0566143
4977,433.195,0.056328
4998,433.194,0.0562222
5019,433.194,0.0559626
5040,433.194,0.0556719
5061,433.194,0.0554757
5082,433.193,0.0553818
5103,433.195,0.0553697
5124,433.193,0.0550708
5145,433.192,0.0549158
5166,433.194,0.0549512
5187,433.193,0.0548102
5208,433.193,0.0547303
5229,433.194,0.0547993
5250,429.36,-0.478758
5271,422.457,-0.504462
5292,415.507,-0.5098
5313,408.531,-0.512385
5334,401.544,-0.509747
5355,394.55,-0.489836
5376,387.551,-0.45984
5397,380.554,-0.436669
5418,373.557,-0.419601
5439,366.562,-0.406769
5460,359.567,-0.396842
5481,352.571,-0.388368
5502,345.575,-0.380961
5523,338.582,-0.37508
5544,331.585,-0.368443
5565,324.589,-0.361957
5586,317.595,-0.356816
5607,310.6,-0.352377
5628,303.605,-0.348295
5649,296.61,-0.344146
5670,289.615,-0.339632
5691,282.621,-0.334993
5712,275.629,-0.330335
5733,268.636,-0.325791
5754,261.638,-0.322639
5775,254.658,-0.319865
5796,248.091,-0.300108
5817,242.085,-0.274908
5838,236.576,-0.252433
5859,231.522,-0.231543
5880,226.88,-0.211984
5901,222.617,-0.193463
5922,218.703,-0.17765
5943,215.109,-0.162226
5964,211.807,-0.148356
5985,208.776,-0.135426
6006,205.992,-0.123656
6027,203.435,-0.112501
6048,201.087,-0.102446
6069,198.93,-0.0930891
6090,196.95,-0.0847418
6111,195.133,-0.0766674
6114,194.883,-0.0755312