File: PMMA/Calibration_Data/UMET/UMET_TGA_N2_10K_1.csv
Time,Temperature,Mass
[s],[K],[mg]
0,313.115,5.3388
12,315.115,5.3388
24,317.115,5.3388
36,319.115,5.32792
48,321.115,5.32772
60,323.115,5.32739
72,325.115,5.32704
84,327.115,5.3272
96,329.115,5.3268
108,331.115,5.3267
120,333.115,5.3261
132,335.115,5.32547
144,337.115,5.32563
156,339.115,5.3247
168,341.115,5.3246
180,343.115,5.3238
192,345.115,5.32351
204,347.115,5.32329
216,349.115,5.32307
228,351.115,5.32264
240,353.115,5.32241
252,355.115,5.3224
264,357.115,5.3224
276,359.115,5.3222
288,361.115,5.32232
300,363.115,5.32228
312,365.115,5.3222
324,367.115,5.32198
336,369.115,5.32206
348,371.115,5.3216
360,373.115,5.3213
372,375.115,5.3211
384,377.115,5.3209
396,379.115,5.32079
408,381.115,5.32079
420,383.115,5.3205
432,385.115,5.3199
444,387.115,5.3194
456,389.115,5.319
468,391.115,5.3185
480,393.115,5.31731
492,395.115,5.31671
504,397.115,5.3164
516,399.115,5.316
528,401.115,5.31571
540,403.115,5.31521
552,405.115,5.3145
564,407.115,5.31361
576,409.115,5.31288
588,411.115,5.31192
600,413.115,5.31121
612,415.115,5.3104
624,417.115,5.3084
636,419.115,5.30701
648,421.115,5.3062
660,423.115,5.3047
672,425.115,5.30341
684,427.115,5.3022
696,429.115,5.30142
708,431.115,5.3002
720,433.115,5.29876
732,435.115,5.29718
744,437.115,5.29501
756,439.115,5.2929
768,441.115,5.29141
780,443.115,5.28884
792,445.115,5.28583
804,447.115,5.28253
816,449.115,5.27897
828,451.115,5.27475
840,453.115,5.2696
852,455.115,5.26428
864,457.115,5.25826
876,459.115,5.25306
888,461.115,5.24446
900,463.115,5.23767
912,465.115,5.23158
924,467.115,5.22549
936,469.115,5.21929
948,471.115,5.21339
960,473.115,5.20798
972,475.115,5.20267
984,477.115,5.19775
996,479.115,5.19328
1008,481.115,5.18899
1020,483.115,5.18418
1032,485.115,5.17999
1044,487.115,5.17589
1056,489.115,5.1725
1068,491.115,5.16921
1080,493.115,5.16602
1092,495.115,5.1636
1104,497.115,5.16118
1116,499.115,5.15899
1128,501.115,5.1573
1140,503.115,5.155393
1152,505.115,5.15419
1164,507.115,5.15299
1176,509.115,5.1515
1188,511.115,5.1502
1200,513.115,5.1489
1212,515.115,5.1475
1224,517.115,5.1464
1236,519.115,5.1453
1248,521.115,5.14378
1260,523.115,5.1429
1272,525.115,5.14178
1284,527.115,5.14028
1296,529.115,5.1384
1308,531.115,5.13648
1320,533.115,5.1347
1332,535.115,5.1322
1344,537.115,5.12969
1356,539.115,5.1277
1368,541.115,5.125
1380,543.115,5.12249
1392,545.115,5.1195
1404,547.115,5.11588
1416,549.115,5.11189
1428,551.115,5.10728
1440,553.115,5.10266
1452,555.115,5.09735
1464,557.115,5.09144
1476,559.115,5.08456
1488,561.115,5.07577
1500,563.115,5.06767
1512,565.115,5.05874
1524,567.115,5.05006
1536,569.115,5.04066
1548,571.115,5.03058
1560,573.115,5.01966
1572,575.115,5.0082
1584,577.115,4.99636
1596,579.115,4.98348
1608,581.115,4.96939
1620,583.115,4.95455
1632,585.115,4.93857
1644,587.115,4.91922
1656,589.115,4.89808
1668,591.115,4.87361
1680,593.115,4.84679
1692,595.115,4.81496
1704,597.115,4.77941
1716,599.115,4.73762
1728,601.115,4.68911
1740,603.115,4.62835
1752,605.115,4.55473
1764,607.115,4.48124
1776,609.115,4.39918
1788,611.115,4.30744
1800,613.115,4.20236
1812,615.115,4.08914
1824,617.115,3.96385
1836,619.115,3.82708
1848,621.115,3.67882
1860,623.115,3.51991
1872,625.115,3.34911
1884,627.115,3.16642
1896,629.115,2.978
1908,631.115,2.78099
1920,633.115,2.58022
1932,635.115,2.38107
1944,637.115,2.18335
1956,639.115,1.98636
1968,641.115,1.79708
1980,643.115,1.61483
1992,645.115,1.44205
2004,647.115,1.27119
2016,649.115,1.10768
2028,651.115,0.956285
2040,653.115,0.815484
2052,655.115,0.687387
2064,657.115,0.575135
2076,659.115,0.477483
2088,661.115,0.393192
2100,663.115,0.325187
2112,665.115,0.271436
2124,667.115,0.218543
2136,669.115,0.176826
2148,671.115,0.139776
2160,673.115,0.109007
2172,675.115,0.084943
2184,677.115,0.0652449
2196,679.115,0.049842
2208,681.115,0.0370614
2220,683.115,0.0263705
2232,685.115,0.01962009
2244,687.115,0.0141526
2256,689.115,0.008742285
2268,691.115,0.004900166
2280,693.115,0
2292,695.115,0
2304,697.115,0
2316,699.115,0
2328,701.115,0
2340,703.115,0
2352,705.115,0
2364,707.115,0
2376,709.115,0
2388,711.115,0
2400,713.115,0
2412,715.115,0
2424,717.115,0
2436,719.115,0
2448,721.115,0
2460,723.115,0
2472,725.115,0
2484,727.115,0
2496,729.115,0
2508,731.115,0
2520,733.115,0
2532,735.115,0
2544,737.115,0
2556,739.115,0
2568,741.115,0
2580,743.115,0
2592,745.115,0
2604,747.115,0
2616,749.115,0
2628,751.115,0
2640,753.115,0
2652,755.115,0
2664,757.115,0
2676,759.115,0
2688,761.115,0
2700,763.115,0
2712,765.115,0
2724,767.115,0
2736,769.115,0
2748,771.115,0
2760,773.115,0
2763,773.615,0