File: PMMA/Calibration_Data/UMET/UMET_TGA_N2_20K_1.csv
Time,Temperature,Mass
[s],[K],[mg]
0,313.115,3.9289
6,315.115,3.9289
12,317.115,3.9289
18,319.115,3.9289
24,321.115,3.9289
30,323.115,3.9289
36,325.115,3.9289
42,327.115,3.9289
48,329.115,3.9289
54,331.115,3.9289
60,333.115,3.9289
66,335.115,3.9289
72,337.115,3.9289
78,339.115,3.9289
84,341.115,3.9289
90,343.115,3.9289
96,345.115,3.9289
102,347.115,3.9289
108,349.115,3.9289
114,351.115,3.9289
120,353.115,3.9289
126,355.115,3.9289
132,357.115,3.9289
138,359.115,3.9289
144,361.115,3.9289
150,363.115,3.9289
156,365.115,3.9289
162,367.115,3.9289
168,369.115,3.9289
174,371.115,3.9289
180,373.115,3.9289
186,375.115,3.9289
192,377.115,3.9289
198,379.115,3.9289
204,381.115,3.9289
210,383.115,3.9289
216,385.115,3.9289
222,387.115,3.9289
228,389.115,3.9289
234,391.115,3.9289
240,393.115,3.9289
246,395.115,3.9289
252,397.115,3.9289
258,399.115,3.9289
264,401.115,3.9289
270,403.115,3.9289
276,405.115,3.9289
282,407.115,3.9289
288,409.115,3.9289
294,411.115,3.9289
300,413.115,3.9289
306,415.115,3.9289
312,417.115,3.9289
318,419.115,3.9289
324,421.115,3.9289
330,423.115,3.9289
336,425.115,3.9289
342,427.115,3.9289
348,429.115,3.9289
354,431.115,3.9289
360,433.115,3.9289
366,435.115,3.9289
372,437.115,3.92788
378,439.115,3.92719
384,441.115,3.92802
390,443.115,3.92454
396,445.115,3.92279
402,447.115,3.9233
408,449.115,3.9246
414,451.115,3.92269
420,453.115,3.91909
426,455.115,3.9137
432,457.115,3.90829
438,459.115,3.90833
444,461.115,3.90908
450,463.115,3.90109
456,465.115,3.89169
462,467.115,3.89021
468,469.115,3.8903
474,471.115,3.8858
480,473.115,3.882
486,475.115,3.8803
492,477.115,3.87475
498,479.115,3.86773
504,481.115,3.8644
510,483.115,3.8621
516,485.115,3.8617
522,487.115,3.85559
528,489.115,3.8538
534,491.115,3.8512
540,493.115,3.85
546,495.115,3.8477
552,497.115,3.84118
558,499.115,3.83809
564,501.115,3.8374
570,503.115,3.8366
576,505.115,3.83261
582,507.115,3.83248
588,509.115,3.83103
594,511.115,3.82471
600,513.115,3.82509
606,515.115,3.8282
612,517.115,3.82257
618,519.115,3.8213
624,521.115,3.82415
630,523.115,3.8233
636,525.115,3.82253
642,527.115,3.81768
648,529.115,3.81683
654,531.115,3.81863
660,533.115,3.81762
666,535.115,3.8142
672,537.115,3.81521
678,539.115,3.8227
684,541.115,3.8138
690,543.115,3.80158
696,545.115,3.8052
702,547.115,3.80412
708,549.115,3.79811
714,551.115,3.80445
720,553.115,3.80609
726,555.115,3.79883
732,557.115,3.79987
738,559.115,3.79217
744,561.115,3.7891
750,563.115,3.78368
756,565.115,3.78092
762,567.115,3.7752
768,569.115,3.76897
774,571.115,3.76068
780,573.115,3.75233
786,575.115,3.75021
792,577.115,3.74756
798,579.115,3.73601
804,581.115,3.72721
810,583.115,3.71709
816,585.115,3.70945
822,587.115,3.69963
828,589.115,3.69375
834,591.115,3.68375
840,593.115,3.66879
846,595.115,3.65285
852,597.115,3.63896
858,599.115,3.62055
864,601.115,3.60068
870,603.115,3.56738
876,605.115,3.54184
882,607.115,3.49995
888,609.115,3.46341
894,611.115,3.41947
900,613.115,3.3748
906,615.115,3.32838
912,617.115,3.26657
918,619.115,3.19807
924,621.115,3.12278
930,623.115,3.03937
936,625.115,2.95171
942,627.115,2.8532
948,629.115,2.74867
954,631.115,2.63146
960,633.115,2.5101
966,635.115,2.38492
972,637.115,2.25343
978,639.115,2.10547
984,641.115,1.96768
990,643.115,1.81708
996,645.115,1.67257
1002,647.115,1.53402
1008,649.115,1.39293
1014,651.115,1.25908
1020,653.115,1.12799
1026,655.115,1.00387
1032,657.115,0.884146
1038,659.115,0.771094
1044,661.115,0.662255
1050,663.115,0.570937
1056,665.115,0.486144
1062,667.115,0.409202
1068,669.115,0.344309
1074,671.115,0.290049
1080,673.115,0.242598
1086,675.115,0.200121
1092,677.115,0.179123
1098,679.115,0.137723
1104,681.115,0.130568
1110,683.115,0.113828
1116,685.115,0.0938378
1122,687.115,0.07933392
1128,689.115,0.0638324
1134,691.115,0.052406
1140,693.115,0.0474918
1146,695.115,0.0438053
1152,697.115,0.0468345
1158,699.115,0.0445506
1164,701.115,0.0395998
1170,703.115,0.0367847
1176,705.115,0.03373275
1182,707.115,0.02782722
1188,709.115,0.0282307
1194,711.115,0.0252601
1200,713.115,0.0286975
1206,715.115,0.0302058
1212,717.115,0.0290082
1218,719.115,0.0263936
1224,721.115,0.0275919
1230,723.115,0.0265987
1236,725.115,0
1242,727.115,0
1248,729.115,0
1254,731.115,0
1260,733.115,0
1266,735.115,0
1272,737.115,0
1278,739.115,0
1284,741.115,0
1290,743.115,0
1296,745.115,0
1302,747.115,0
1308,749.115,0
1314,751.115,0
1320,753.115,0
1326,755.115,0
1332,757.115,0
1338,759.115,0
1344,761.115,0
1350,763.115,0
1356,765.115,0
1362,767.115,0
1368,769.115,0
1374,771.115,0
1380,773.115,0
1381.5,773.615,0