File: PMMA/Calibration_Data/UMET/UMET_TGA_N2_1K_1.csv
Time,Temperature,Mass
[s],[K],[mg]
0,313.115,4.3361
120,315.115,4.3361
240,317.115,4.33303
360,319.115,4.3314
480,321.115,4.33031
600,323.115,4.3293
720,325.115,4.3287
840,327.115,4.32827
960,329.115,4.32928
1080,331.115,4.32682
1200,333.115,4.32668
1320,335.115,4.32451
1440,337.115,4.32389
1560,339.115,4.32187
1680,341.115,4.32127
1800,343.115,4.32228
1920,345.115,4.32216
2040,347.115,4.32071
2160,349.115,4.32191
2280,351.115,4.3218
2400,353.115,4.32089
2520,355.115,4.32161
2640,357.115,4.32009
2760,359.115,4.32002
2880,361.115,4.31991
3000,363.115,4.32171
3120,365.115,4.32051
3240,367.115,4.32046
3360,369.115,4.32059
3480,371.115,4.31986
3600,373.115,4.31948
3720,375.115,4.31827
3840,377.115,4.31716
3960,379.115,4.31468
4080,381.115,4.31661
4200,383.115,4.31602
4320,385.115,4.31771
4440,387.115,4.3163
4560,389.115,4.3168
4680,391.115,4.31499
4800,393.115,4.31506
4920,395.115,4.31483
5040,397.115,4.31485
5160,399.115,4.31379
5280,401.115,4.31368
5400,403.115,4.31417
5520,405.115,4.31291
5640,407.115,4.31521
5760,409.115,4.3121
5880,411.115,4.31171
6000,413.115,4.31126
6120,415.115,4.31049
6240,417.115,4.30947
6360,419.115,4.31037
6480,421.115,4.30719
6600,423.115,4.30527
6720,425.115,4.3044
6840,427.115,4.3029
6960,429.115,4.30091
7080,431.115,4.29993
7200,433.115,4.29592
7320,435.115,4.29211
7440,437.115,4.2863
7560,439.115,4.28183
7680,441.115,4.27679
7800,443.115,4.27278
7920,445.115,4.26833
8040,447.115,4.26267
8160,449.115,4.2547
8280,451.115,4.25029
8400,453.115,4.2459
8520,455.115,4.2426
8640,457.115,4.23953
8760,459.115,4.2384
8880,461.115,4.23581
9000,463.115,4.23217
9120,465.115,4.22976
9240,467.115,4.22807
9360,469.115,4.22637
9480,471.115,4.22641
9600,473.115,4.22497
9720,475.115,4.22396
9840,477.115,4.2226
9960,479.115,4.22406
10080,481.115,4.22469
10200,483.115,4.22484
10320,485.115,4.22402
10440,487.115,4.22249
10560,489.115,4.22024
10680,491.115,4.2193
10800,493.115,4.22079
10920,495.115,4.21906
11040,497.115,4.21889
11160,499.115,4.21782
11280,501.115,4.2164
11400,503.115,4.2167
11520,505.115,4.21621
11640,507.115,4.21426
11760,509.115,4.21366
11880,511.115,4.21199
12000,513.115,4.20813
12120,515.115,4.2049
12240,517.115,4.20237
12360,519.115,4.20031
12480,521.115,4.19628
12600,523.115,4.19157
12720,525.115,4.18902
12840,527.115,4.18108
12960,529.115,4.17734
13080,531.115,4.16967
13200,533.115,4.16556
13320,535.115,4.1569
13440,537.115,4.1498
13560,539.115,4.1415
13680,541.115,4.13132
13800,543.115,4.12277
13920,545.115,4.11342
14040,547.115,4.1047
14160,549.115,4.09219
14280,551.115,4.08053
14400,553.115,4.06598
14520,555.115,4.05318
14640,557.115,4.03656
14760,559.115,4.02057
14880,561.115,4.00006
15000,563.115,3.97607
15120,565.115,3.95212
15240,567.115,3.92563
15360,569.115,3.89374
15480,571.115,3.85566
15600,573.115,3.81468
15720,575.115,3.76668
15840,577.115,3.71644
15960,579.115,3.65632
16080,581.115,3.59034
16200,583.115,3.51102
16320,585.115,3.42663
16440,587.115,3.33088
16560,589.115,3.2265
16680,591.115,3.1135
16800,593.115,2.98813
16920,595.115,2.85223
17040,597.115,2.7071
17160,599.115,2.55404
17280,601.115,2.39434
17400,603.115,2.2319
17520,605.115,2.0703
17640,607.115,1.906
17760,609.115,1.7444
17880,611.115,1.58534
18000,613.115,1.42675
18120,615.115,1.26905
18240,617.115,1.11497
18360,619.115,0.968797
18480,621.115,0.834969
18600,623.115,0.714415
18720,625.115,0.605875
18840,627.115,0.509511
18960,629.115,0.426788
19080,631.115,0.356714
19200,633.115,0.296297
19320,635.115,0.244338
19440,637.115,0.198866
19560,639.115,0.162834
19680,641.115,0.131007
19800,643.115,0.105049
19920,645.115,0.0847764
20040,647.115,0.06914822
20160,649.115,0.0557731
20280,651.115,0.0462922
20400,653.115,0.0369288
20520,655.115,0.02951193
20640,657.115,0.0250804
20760,659.115,0.02230143
20880,661.115,0.0201325
21000,663.115,0.0195216
21120,665.115,0.018555
21240,667.115,0.0180967
21360,669.115,0.0169442
21480,671.115,0.015407
21600,673.115,0.0132737
21720,675.115,0.0136466
21840,677.115,0.0162066
21960,679.115,0.0174489
22080,681.115,0.0177039
22200,683.115,0.0187584
22320,685.115,0.018686
22440,687.115,0.0187588
22560,689.115,0.0183842
22680,691.115,0.01888545
22800,693.115,0.018598
22920,695.115,0.0177459
23040,697.115,0.0202006
23160,699.115,0.0199912
23280,701.115,0.0196074
23400,703.115,0.0191664
23520,705.115,0.019636
23640,707.115,0.0207964
23760,709.115,0.0214156
23880,711.115,0.02168527
24000,713.115,0.0214988
24120,715.115,0.0207955
24240,717.115,0.0209941
24360,719.115,0.0210305
24480,721.115,0.0213783
24600,723.115,0.0217
24720,725.115,0
24840,727.115,0
24960,729.115,0
25080,731.115,0
25200,733.115,0
25320,735.115,0
25440,737.115,0
25560,739.115,0
25680,741.115,0
25800,743.115,0
25920,745.115,0
26040,747.115,0
26160,749.115,0
26280,751.115,0
26400,753.115,0
26520,755.115,0
26640,757.115,0
26760,759.115,0
26880,761.115,0
27000,763.115,0
27120,765.115,0
27240,767.115,0
27360,769.115,0
27480,771.115,0
27600,773.115,0
27630,773.615,0