File: PMMA/Calibration_Data/UMET/UMET_TGA_N2_5K_1.csv
Time,Temperature,Mass
[s],[K],[mg]
0,313.115,4.0931
24,315.115,4.0931
48,317.115,4.0931
72,319.115,4.0931
96,321.115,4.0931
120,323.115,4.0931
144,325.115,4.0931
168,327.115,4.0931
192,329.115,4.0931
216,331.115,4.0931
240,333.115,4.0931
264,335.115,4.0931
288,337.115,4.0931
312,339.115,4.0931
336,341.115,4.0931
360,343.115,4.0931
384,345.115,4.0931
408,347.115,4.0931
432,349.115,4.0931
456,351.115,4.0931
480,353.115,4.0931
504,355.115,4.0931
528,357.115,4.0931
552,359.115,4.0931
576,361.115,4.0931
600,363.115,4.0931
624,365.115,4.0931
648,367.115,4.0931
672,369.115,4.0931
696,371.115,4.0931
720,373.115,4.0931
744,375.115,4.0931
768,377.115,4.0931
792,379.115,4.0931
816,381.115,4.0931
840,383.115,4.0931
864,385.115,4.0931
888,387.115,4.0931
912,389.115,4.0931
936,391.115,4.0931
960,393.115,4.0931
984,395.115,4.0931
1008,397.115,4.0931
1032,399.115,4.0931
1056,401.115,4.0931
1080,403.115,4.0931
1104,405.115,4.0931
1128,407.115,4.0931
1152,409.115,4.0931
1176,411.115,4.0931
1200,413.115,4.0931
1224,415.115,4.0931
1248,417.115,4.0931
1272,419.115,4.0931
1296,421.115,4.0931
1320,423.115,4.0931
1344,425.115,4.0931
1368,427.115,4.0931
1392,429.115,4.0931
1416,431.115,4.0931
1440,433.115,4.0931
1464,435.115,4.0931
1488,437.115,4.0931
1512,439.115,4.0931
1536,441.115,4.0901
1560,443.115,4.08849
1584,445.115,4.08404
1608,447.115,4.08106
1632,449.115,4.07397
1656,451.115,4.0713
1680,453.115,4.06526
1704,455.115,4.05929
1728,457.115,4.0536
1752,459.115,4.04767
1776,461.115,4.04337
1800,463.115,4.0382
1824,465.115,4.0343
1848,467.115,4.031
1872,469.115,4.0259
1896,471.115,4.02266
1920,473.115,4.01804
1944,475.115,4.01516
1968,477.115,4.01208
1992,479.115,4.0097
2016,481.115,4.00704
2040,483.115,4.00438
2064,485.115,4.00429
2088,487.115,4.00038
2112,489.115,3.9995
2136,491.115,3.99791
2160,493.115,3.9974
2184,495.115,3.9952
2208,497.115,3.99379
2232,499.115,3.9928
2256,501.115,3.99201
2280,503.115,3.9913
2304,505.115,3.9925
2328,507.115,3.98809
2352,509.115,3.9886
2376,511.115,3.98779
2400,513.115,3.9878
2424,515.115,3.9897
2448,517.115,3.984
2472,519.115,3.98531
2496,521.115,3.98119
2520,523.115,3.9803
2544,525.115,3.97928
2568,527.115,3.97854
2592,529.115,3.9759
2616,531.115,3.97521
2640,533.115,3.9716
2664,535.115,3.9702
2688,537.115,3.96727
2712,539.115,3.96382
2736,541.115,3.9596
2760,543.115,3.95779
2784,545.115,3.9508
2808,547.115,3.94712
2832,549.115,3.9431
2856,551.115,3.93529
2880,553.115,3.93047
2904,555.115,3.9228
2928,557.115,3.91513
2952,559.115,3.90779
2976,561.115,3.89757
3000,563.115,3.88714
3024,565.115,3.88109
3048,567.115,3.8713
3072,569.115,3.86205
3096,571.115,3.8498
3120,573.115,3.8366
3144,575.115,3.82446
3168,577.115,3.80873
3192,579.115,3.79288
3216,581.115,3.77602
3240,583.115,3.75798
3264,585.115,3.73196
3288,587.115,3.70497
3312,589.115,3.67489
3336,591.115,3.64084
3360,593.115,3.59921
3384,595.115,3.55364
3408,597.115,3.49932
3432,599.115,3.44137
3456,601.115,3.3723
3480,603.115,3.29826
3504,605.115,3.21761
3528,607.115,3.12137
3552,609.115,3.01181
3576,611.115,2.89825
3600,613.115,2.77571
3624,615.115,2.63763
3648,617.115,2.50037
3672,619.115,2.35029
3696,621.115,2.19425
3720,623.115,2.04072
3744,625.115,1.88455
3768,627.115,1.72673
3792,629.115,1.57507
3816,631.115,1.4269
3840,633.115,1.28177
3864,635.115,1.14738
3888,637.115,1.01612
3912,639.115,0.882354
3936,641.115,0.769353
3960,643.115,0.657141
3984,645.115,0.544912
4008,647.115,0.459505
4032,649.115,0.381825
4056,651.115,0.31185
4080,653.115,0.250834
4104,655.115,0.196868
4128,657.115,0.153334
4152,659.115,0.113574
4176,661.115,0.0859842
4200,663.115,0.0588543
4224,665.115,0.0388513
4248,667.115,0.0216533
4272,669.115,0.0107816
4296,671.115,0
4320,673.115,0
4344,675.115,0
4368,677.115,0
4392,679.115,0
4416,681.115,0
4440,683.115,0
4464,685.115,0
4488,687.115,0
4512,689.115,0
4536,691.115,0
4560,693.115,0
4584,695.115,0
4608,697.115,0
4632,699.115,0
4656,701.115,0
4680,703.115,0
4704,705.115,0
4728,707.115,0
4752,709.115,0
4776,711.115,0
4800,713.115,0
4824,715.115,0
4848,717.115,0
4872,719.115,0
4896,721.115,0
4920,723.115,0
4944,725.115,0
4968,727.115,0
4992,729.115,0
5016,731.115,0
5040,733.115,0
5064,735.115,0
5088,737.115,0
5112,739.115,0
5136,741.115,0
5160,743.115,0
5184,745.115,0
5208,747.115,0
5232,749.115,0
5256,751.115,0
5280,753.115,0
5304,755.115,0
5328,757.115,0
5352,759.115,0
5376,761.115,0
5400,763.115,0
5424,765.115,0
5448,767.115,0
5472,769.115,0
5496,771.115,0
5520,773.115,0
5526,773.615,0