File: Wood/Calibration_Data/TUT/TUT_Wood_TGA_N2_10K_40Pa_R1.csv
Time (s),Temperature (K),Mass (mg)
0,299.5,5.0282
148,302.0,5.0296
190,304.5,5.0294
221,307.0,5.0291
248,309.5,5.0284
272,312.0,5.0278
294,314.5,5.0266
315,317.0,5.0258
335,319.5,5.0248
354,322.0,5.0243
373,324.5,5.0234
392,327.0,5.0223
410,329.5,5.0214
428,332.0,5.0204
445,334.5,5.0197
462,337.0,5.0185
479,339.5,5.0179
496,342.0,5.0169
513,344.5,5.016
530,347.0,5.0151
546,349.5,5.0143
563,352.0,5.0135
579,354.5,5.0126
596,357.0,5.0119
612,359.5,5.0108
629,362.0,5.0098
645,364.5,5.0086
661,367.0,5.0073
677,369.5,5.0059
693,372.0,5.0038
710,374.5,5.0017
726,377.0,4.9992
742,379.5,4.9965
758,382.0,4.9934
774,384.5,4.9903
790,387.0,4.9865
806,389.5,4.9823
822,392.0,4.9779
838,394.5,4.9727
854,397.0,4.9676
870,399.5,4.9622
886,402.0,4.9565
902,404.5,4.9512
918,407.0,4.9461
934,409.5,4.9414
950,412.0,4.9374
966,414.5,4.9338
982,417.0,4.9308
998,419.5,4.9279
1013,422.0,4.9251
1029,424.5,4.9226
1045,427.0,4.9198
1061,429.5,4.9172
1077,432.0,4.9142
1092,434.5,4.9115
1108,437.0,4.9087
1124,439.5,4.9056
1140,442.0,4.9023
1155,444.5,4.899
1171,447.0,4.8954
1187,449.5,4.8912
1202,452.0,4.8876
1218,454.5,4.8831
1234,457.0,4.8784
1250,459.5,4.8733
1265,462.0,4.8678
1281,464.5,4.8614
1297,467.0,4.8553
1312,469.5,4.8485
1328,472.0,4.8408
1344,474.5,4.8327
1359,477.0,4.8245
1375,479.5,4.815
1391,482.0,4.8047
1406,484.5,4.7947
1422,487.0,4.7833
1438,489.5,4.7715
1453,492.0,4.7594
1469,494.5,4.7459
1485,497.0,4.7317
1500,499.5,4.7175
1516,502.0,4.7018
1532,504.5,4.685
1547,507.0,4.6683
1563,509.5,4.6495
1578,512.0,4.631
1594,514.5,4.6105
1610,517.0,4.5886
1625,519.5,4.5677
1641,522.0,4.5439
1657,524.5,4.5198
1672,527.0,4.4965
1688,529.5,4.4711
1703,532.0,4.4463
1719,534.5,4.4194
1735,537.0,4.3918
1750,539.5,4.3648
1766,542.0,4.3348
1782,544.5,4.3038
1797,547.0,4.2734
1813,549.5,4.2396
1829,552.0,4.2041
1844,554.5,4.1694
1860,557.0,4.1306
1876,559.5,4.0896
1892,562.0,4.047
1907,564.5,4.0048
1923,567.0,3.9574
1939,569.5,3.9081
1955,572.0,3.8565
1970,574.5,3.8056
1986,577.0,3.7488
2002,579.5,3.689
2018,582.0,3.6268
2033,584.5,3.5662
2049,587.0,3.4987
2065,589.5,3.4285
2081,592.0,3.3562
2097,594.5,3.281
2112,597.0,3.2079
2128,599.5,3.1282
2144,602.0,3.0455
2160,604.5,2.9611
2176,607.0,2.8745
2192,609.5,2.7859
2207,612.0,2.7004
2223,614.5,2.6075
2239,617.0,2.5122
2255,619.5,2.4143
2271,622.0,2.3134
2287,624.5,2.2095
2303,627.0,2.102
2319,629.5,1.9901
2335,632.0,1.8754
2351,634.5,1.7564
2367,637.0,1.6345
2383,639.5,1.5105
2399,642.0,1.3855
2414,644.5,1.2698
2430,647.0,1.1505
2446,649.5,1.0393
2462,652.0,0.9397
2477,654.5,0.8605
2492,657.0,0.7981
2508,659.5,0.7504
2523,662.0,0.7212
2538,664.5,0.7025
2554,667.0,0.6893
2569,669.5,0.6788
2585,672.0,0.6687
2601,674.5,0.6589
2617,677.0,0.6498
2633,679.5,0.6409
2649,682.0,0.6319
2665,684.5,0.6237
2681,687.0,0.6152
2697,689.5,0.6071
2713,692.0,0.5992
2729,694.5,0.5915
2745,697.0,0.5837
2762,699.5,0.5759
2778,702.0,0.5679
2794,704.5,0.5608
2810,707.0,0.5542
2826,709.5,0.5475
2842,712.0,0.5413
2859,714.5,0.5346
2875,717.0,0.5287
2891,719.5,0.5233
2907,722.0,0.5177
2924,724.5,0.5123
2940,727.0,0.5073
2956,729.5,0.5026
2972,732.0,0.4983
2989,734.5,0.4936
3005,737.0,0.4894
3021,739.5,0.4857
3038,742.0,0.4817
3054,744.5,0.478
3070,747.0,0.4748
3087,749.5,0.4712
3103,752.0,0.4681
3120,754.5,0.4648
3136,757.0,0.4616
3153,759.5,0.4582
3169,762.0,0.4557
3186,764.5,0.4528
3202,767.0,0.45
3219,769.5,0.4472
3235,772.0,0.4444
3252,774.5,0.4418
3268,777.0,0.4392
3285,779.5,0.4364
3302,782.0,0.4339
3318,784.5,0.4313
3335,787.0,0.4289
3351,789.5,0.4267
3368,792.0,0.4243
3385,794.5,0.4219
3402,797.0,0.4196
3418,799.5,0.4171
3435,802.0,0.4148
3452,804.5,0.4128
3469,807.0,0.4105
3486,809.5,0.4082
3503,812.0,0.4059
3519,814.5,0.4038
3536,817.0,0.4016
3553,819.5,0.3994
3570,822.0,0.3971
3587,824.5,0.3953
3604,827.0,0.3933
3621,829.5,0.3911
3638,832.0,0.3887
3655,834.5,0.3868
3672,837.0,0.3849
3689,839.5,0.3829
3706,842.0,0.3811
3723,844.5,0.3787
3740,847.0,0.377
3757,849.5,0.3748
3774,852.0,0.3728
3791,854.5,0.3707
3808,857.0,0.3685
3825,859.5,0.3662
3842,862.0,0.3641
3859,864.5,0.3622
3876,867.0,0.3602
3893,869.5,0.3582
3910,872.0,0.3563
3927,874.5,0.3545
3945,877.0,0.3526
3962,879.5,0.3505
3979,882.0,0.3485
3996,884.5,0.3466
4013,887.0,0.3449
4030,889.5,0.3431
4047,892.0,0.3411
4064,894.5,0.3395
4082,897.0,0.3376
4099,899.5,0.336
4116,902.0,0.3341
4133,904.5,0.3325
4150,907.0,0.3309
4167,909.5,0.3294
4184,912.0,0.3277
4202,914.5,0.3262
4219,917.0,0.3244
4236,919.5,0.3231
4253,922.0,0.3217
4270,924.5,0.3199
4287,927.0,0.3184
4304,929.5,0.3171
4322,932.0,0.3157
4339,934.5,0.3142
4356,937.0,0.3128
4373,939.5,0.3111
4390,942.0,0.3099
4408,944.5,0.3087
4425,947.0,0.3076
4442,949.5,0.3062
4459,952.0,0.3051
4477,954.5,0.3037
4494,957.0,0.3028
4511,959.5,0.3014
4528,962.0,0.3002
4546,964.5,0.2987
4563,967.0,0.2973
4580,969.5,0.2962
4597,972.0,0.2948
4615,974.5,0.2938
4632,977.0,0.2927
4649,979.5,0.2916
4666,982.0,0.2903
4683,984.5,0.2891
4701,987.0,0.2882
4718,989.5,0.2869
4735,992.0,0.2858
4752,994.5,0.2847
4769,997.0,0.2837
4787,999.5,0.2828
4790,1000.0,0.2825