File: Wood/Calibration_Data/TUT/TUT_TGA_N2_10K_100kPa_R1.csv
Time (s),Temperature (K),Mass (mg)
0,299.5,5.0652
158,302.0,5.0662
197,304.5,5.0646
227,307.0,5.0626
252,309.5,5.0603
276,312.0,5.0571
298,314.5,5.054
319,317.0,5.0504
339,319.5,5.0461
358,322.0,5.0418
377,324.5,5.0372
395,327.0,5.0321
413,329.5,5.0268
431,332.0,5.0214
449,334.5,5.0158
466,337.0,5.0105
484,339.5,5.0044
501,342.0,4.999
518,344.5,4.9933
535,347.0,4.9881
551,349.5,4.9836
568,352.0,4.9792
585,354.5,4.975
601,357.0,4.9721
618,359.5,4.9692
634,362.0,4.9667
651,364.5,4.9646
667,367.0,4.9632
684,369.5,4.9619
700,372.0,4.9606
717,374.5,4.9599
733,377.0,4.9593
749,379.5,4.9585
766,382.0,4.9577
782,384.5,4.9572
798,387.0,4.9566
815,389.5,4.956
831,392.0,4.9556
848,394.5,4.955
864,397.0,4.9546
880,399.5,4.9539
897,402.0,4.9535
913,404.5,4.9525
929,407.0,4.9518
946,409.5,4.951
962,412.0,4.9504
978,414.5,4.9492
994,417.0,4.9483
1011,419.5,4.947
1027,422.0,4.9455
1043,424.5,4.9444
1059,427.0,4.943
1075,429.5,4.9414
1091,432.0,4.9397
1107,434.5,4.9375
1123,437.0,4.9352
1139,439.5,4.9331
1155,442.0,4.9303
1172,444.5,4.927
1188,447.0,4.924
1204,449.5,4.9205
1219,452.0,4.917
1235,454.5,4.9129
1251,457.0,4.9082
1267,459.5,4.9032
1283,462.0,4.898
1299,464.5,4.8924
1315,467.0,4.8861
1331,469.5,4.8797
1347,472.0,4.8728
1362,474.5,4.8663
1378,477.0,4.8591
1394,479.5,4.8515
1410,482.0,4.8439
1426,484.5,4.836
1441,487.0,4.8282
1457,489.5,4.8198
1473,492.0,4.8109
1489,494.5,4.8014
1504,497.0,4.7924
1520,499.5,4.782
1536,502.0,4.7712
1552,504.5,4.7591
1567,507.0,4.7472
1583,509.5,4.7338
1599,512.0,4.7189
1614,514.5,4.7038
1630,517.0,4.6871
1646,519.5,4.6688
1661,522.0,4.6507
1677,524.5,4.6302
1693,527.0,4.6087
1708,529.5,4.5874
1724,532.0,4.5638
1740,534.5,4.539
1755,537.0,4.5141
1771,539.5,4.4865
1786,542.0,4.4592
1802,544.5,4.4289
1817,547.0,4.3993
1833,549.5,4.366
1849,552.0,4.3312
1864,554.5,4.2975
1880,557.0,4.26
1895,559.5,4.2234
1911,562.0,4.1834
1926,564.5,4.144
1942,567.0,4.1009
1958,569.5,4.0556
1973,572.0,4.011
1989,574.5,3.9617
2004,577.0,3.9136
2020,579.5,3.8596
2035,582.0,3.8062
2051,584.5,3.7469
2066,587.0,3.6885
2082,589.5,3.6237
2097,592.0,3.5598
2113,594.5,3.489
2128,597.0,3.4201
2144,599.5,3.344
2159,602.0,3.2703
2175,604.5,3.1892
2190,607.0,3.1111
2206,609.5,3.0259
2222,612.0,2.9381
2237,614.5,2.8534
2253,617.0,2.7603
2268,619.5,2.6697
2284,622.0,2.569
2299,624.5,2.4701
2315,627.0,2.359
2330,629.5,2.2496
2346,632.0,2.1266
2361,634.5,2.0063
2376,637.0,1.8829
2392,639.5,1.7514
2407,642.0,1.6336
2422,644.5,1.5274
2437,647.0,1.439
2452,649.5,1.3733
2467,652.0,1.3292
2482,654.5,1.3017
2497,657.0,1.2841
2512,659.5,1.2718
2527,662.0,1.261
2542,664.5,1.2512
2558,667.0,1.2414
2574,669.5,1.232
2589,672.0,1.2233
2605,674.5,1.2141
2621,677.0,1.2052
2637,679.5,1.1962
2653,682.0,1.1872
2669,684.5,1.1778
2685,687.0,1.1686
2701,689.5,1.1594
2717,692.0,1.1503
2733,694.5,1.1406
2749,697.0,1.1313
2765,699.5,1.1219
2781,702.0,1.1123
2797,704.5,1.1029
2813,707.0,1.0932
2829,709.5,1.0839
2845,712.0,1.0745
2861,714.5,1.065
2877,717.0,1.0555
2893,719.5,1.046
2909,722.0,1.0366
2925,724.5,1.0268
2941,727.0,1.0171
2957,729.5,1.0074
2973,732.0,0.9976
2989,734.5,0.988
3005,737.0,0.9782
3021,739.5,0.9683
3037,742.0,0.9583
3053,744.5,0.9482
3069,747.0,0.9383
3085,749.5,0.9283
3101,752.0,0.9178
3118,754.5,0.907
3134,757.0,0.8965
3150,759.5,0.8859
3166,762.0,0.8752
3182,764.5,0.8644
3198,767.0,0.8537
3215,769.5,0.8422
3231,772.0,0.8313
3247,774.5,0.8203
3263,777.0,0.8094
3280,779.5,0.7974
3296,782.0,0.7863
3312,784.5,0.7749
3329,787.0,0.7629
3345,789.5,0.7515
3361,792.0,0.7396
3377,794.5,0.7278
3394,797.0,0.7157
3410,799.5,0.704
3426,802.0,0.6922
3443,804.5,0.6797
3459,807.0,0.6676
3475,809.5,0.6555
3491,812.0,0.6433
3508,814.5,0.6302
3524,817.0,0.618
3540,819.5,0.6055
3557,822.0,0.5927
3573,824.5,0.5801
3589,827.0,0.5676
3606,829.5,0.5544
3622,832.0,0.5415
3638,834.5,0.5291
3655,837.0,0.5158
3671,839.5,0.5033
3687,842.0,0.4906
3704,844.5,0.4768
3720,847.0,0.4643
3736,849.5,0.4517
3753,852.0,0.4382
3769,854.5,0.4256
3786,857.0,0.4121
3802,859.5,0.3994
3818,862.0,0.3867
3835,864.5,0.3733
3851,867.0,0.3607
3867,869.5,0.3481
3883,872.0,0.3357
3900,874.5,0.3221
3916,877.0,0.3098
3932,879.5,0.2975
3949,882.0,0.2842
3965,884.5,0.2722
3981,887.0,0.2602
3998,889.5,0.2476
4014,892.0,0.2356
4030,894.5,0.2241
4046,897.0,0.2129
4063,899.5,0.2011
4079,902.0,0.19
4095,904.5,0.1793
4111,907.0,0.1687
4128,909.5,0.1577
4144,912.0,0.1474
4160,914.5,0.1372
4176,917.0,0.1276
4193,919.5,0.1172
4209,922.0,0.1076
4225,924.5,0.0983
4241,927.0,0.0893
4257,929.5,0.0803
4273,932.0,0.0711
4290,934.5,0.0619
4306,937.0,0.0534
4322,939.5,0.0455
4338,942.0,0.0373
4354,944.5,0.0292
4370,947.0,0.0217
4387,949.5,0.0139
4403,952.0,0.0066
4419,954.5,-0.0005
4435,957.0,-0.0073
4451,959.5,-0.0141
4467,962.0,-0.0202
4483,964.5,-0.026
4499,967.0,-0.0309
4515,969.5,-0.0354
4531,972.0,-0.0391
4548,974.5,-0.042
4566,977.0,-0.0429
4583,979.5,-0.0429
4600,982.0,-0.043
4616,984.5,-0.0434
4633,987.0,-0.0436
4650,989.5,-0.0435
4666,992.0,-0.0437
4683,994.5,-0.044
4700,997.0,-0.0442
4717,999.5,-0.0442
4720,1000.0,-0.0444