File: Wood/Calibration_Data/TUT/TUT_TGA_N2_10K_40Pa_R1.csv
Time (s),Temperature (K),Mass (mg)
0.0,299.663,5.028187
16.0,299.68,5.028469
32.0,299.675,5.028969
48.0,299.693,5.029531
64.0,299.75,5.029719
80.0,299.866,5.029406
96.0,300.089,5.029594
112.0,300.442,5.029562
128.0,300.94,5.029687
144.0,301.59,5.029562
160.0,302.393,5.029469
176.0,303.337,5.029625
192.0,304.455,5.029438
208.0,305.697,5.029094
224.0,307.065,5.029062
240.0,308.54,5.0285
256.0,310.148,5.028344
272.0,311.837,5.027812
288.0,313.62,5.026844
304.0,315.48,5.02625
320.0,317.417,5.025562
336.0,319.424,5.024781
352.0,321.492,5.024562
368.0,323.6,5.023687
384.0,325.759,5.022844
400.0,327.964,5.022031
416.0,330.199,5.020844
432.0,332.452,5.020094
448.0,334.748,5.019563
464.0,337.07,5.018344
480.0,339.423,5.017719
496.0,341.779,5.016875
512.0,344.149,5.016
528.0,346.548,5.015187
544.0,348.954,5.014406
560.0,351.367,5.013688
576.0,353.798,5.012656
592.0,356.233,5.012063
608.0,358.678,5.011188
624.0,361.12,5.009906
640.0,363.572,5.008906
656.0,366.047,5.007781
672.0,368.515,5.006281
688.0,370.987,5.004625
704.0,373.447,5.00225
720.0,375.917,5.000312
736.0,378.407,4.997625
752.0,380.882,4.994594
768.0,383.365,4.991625
784.0,385.852,4.988062
800.0,388.347,4.983875
816.0,390.84,4.979562
832.0,393.335,4.97475
848.0,395.827,4.969594
864.0,398.323,4.96425
880.0,400.825,4.958531
896.0,403.332,4.953281
912.0,405.831,4.947969
928.0,408.346,4.943219
944.0,410.873,4.938938
960.0,413.394,4.935062
976.0,415.906,4.931812
992.0,418.437,4.928937
1008.0,420.967,4.925938
1024.0,423.497,4.92325
1040.0,426.021,4.920594
1056.0,428.55,4.918188
1072.0,431.085,4.915344
1088.0,433.62,4.912469
1104.0,436.166,4.909313
1120.0,438.707,4.906406
1136.0,441.248,4.903031
1152.0,443.796,4.899719
1168.0,446.341,4.896094
1184.0,448.893,4.891938
1200.0,451.433,4.888156
1216.0,453.979,4.883563
1232.0,456.537,4.878906
1248.0,459.079,4.873844
1264.0,461.628,4.868156
1280.0,464.177,4.861906
1296.0,466.727,4.855625
1312.0,469.275,4.848469
1328.0,471.835,4.840844
1344.0,474.378,4.832656
1360.0,476.933,4.823969
1376.0,479.489,4.814469
1392.0,482.043,4.804062
1408.0,484.603,4.793219
1424.0,487.151,4.781875
1440.0,489.705,4.769781
1456.0,492.261,4.756906
1472.0,494.812,4.743437
1488.0,497.374,4.729063
1504.0,499.923,4.713594
1520.0,502.483,4.697625
1536.0,505.041,4.680719
1552.0,507.597,4.662437
1568.0,510.166,4.643312
1584.0,512.729,4.6235
1600.0,515.292,4.602437
1616.0,517.845,4.580187
1632.0,520.406,4.5575
1648.0,522.965,4.5335
1664.0,525.524,4.508906
1680.0,528.083,4.483875
1696.0,530.635,4.458
1712.0,533.193,4.431344
1728.0,535.751,4.403906
1744.0,538.303,4.375625
1760.0,540.853,4.346094
1776.0,543.4,4.315781
1792.0,545.956,4.28375
1808.0,548.508,4.250406
1824.0,551.059,4.215281
1840.0,553.61,4.178719
1856.0,556.158,4.140406
1872.0,558.709,4.100062
1888.0,561.254,4.057625
1904.0,563.802,4.013375
1920.0,566.344,3.966594
1936.0,568.881,3.917719
1952.0,571.425,3.8665
1968.0,573.958,3.8125
1984.0,576.498,3.756
2000.0,579.032,3.696625
2016.0,581.574,3.634719
2032.0,584.11,3.570406
2048.0,586.64,3.502938
2064.0,589.172,3.433063
2080.0,591.699,3.360812
2096.0,594.236,3.285813
2112.0,596.762,3.207937
2128.0,599.286,3.128219
2144.0,601.824,3.045469
2160.0,604.362,2.961125
2176.0,606.877,2.874469
2192.0,609.402,2.785875
2208.0,611.924,2.694625
2224.0,614.45,2.601656
2240.0,616.967,2.506219
2256.0,619.483,2.408031
2272.0,621.998,2.307031
2288.0,624.509,2.202875
2304.0,627.018,2.095062
2320.0,629.517,1.983031
2336.0,632.025,1.868031
2352.0,634.53,1.748781
2368.0,637.034,1.626781
2384.0,639.537,1.502687
2400.0,642.054,1.377687
2416.0,644.567,1.254531
2432.0,647.103,1.136188
2448.0,649.652,1.026188
2464.0,652.231,0.928187
2480.0,654.826,0.8465
2496.0,657.439,0.784375
2512.0,660.062,0.741313
2528.0,662.669,0.714063
2544.0,665.258,0.697125
2560.0,667.821,0.685
2576.0,670.363,0.674156
2592.0,672.882,0.664375
2608.0,675.402,0.654688
2624.0,677.905,0.645719
2640.0,680.411,0.637031
2656.0,682.916,0.628469
2672.0,685.411,0.61975
2688.0,687.9,0.611531
2704.0,690.39,0.603594
2720.0,692.874,0.595531
2736.0,695.355,0.588
2752.0,697.84,0.5805
2768.0,700.317,0.573094
2784.0,702.792,0.565219
2800.0,705.266,0.558406
2816.0,707.746,0.551469
2832.0,710.216,0.545375
2848.0,712.693,0.538938
2864.0,715.158,0.532594
2880.0,717.619,0.526969
2896.0,720.08,0.521625
2912.0,722.543,0.516125
2928.0,725.002,0.511
2944.0,727.459,0.506281
2960.0,729.917,0.501406
2976.0,732.378,0.497187
2992.0,734.825,0.492813
3008.0,737.272,0.488687
3024.0,739.73,0.485094
3040.0,742.177,0.48125
3056.0,744.624,0.477469
3072.0,747.063,0.474375
3088.0,749.504,0.471
3104.0,751.936,0.467906
3120.0,754.369,0.464812
3136.0,756.8,0.461563
3152.0,759.229,0.458375
3168.0,761.655,0.455813
3184.0,764.077,0.453094
3200.0,766.496,0.450281
3216.0,768.92,0.4475
3232.0,771.331,0.44475
3248.0,773.742,0.442219
3264.0,776.161,0.439844
3280.0,778.578,0.437156
3296.0,780.981,0.434812
3312.0,783.395,0.432375
3328.0,785.795,0.429719
3344.0,788.201,0.427781
3360.0,790.607,0.425187
3376.0,793.008,0.423344
3392.0,795.399,0.420969
3408.0,797.783,0.418656
3424.0,800.17,0.416594
3440.0,802.55,0.414031
3456.0,804.916,0.412
3472.0,807.282,0.410156
3488.0,809.657,0.408062
3504.0,812.044,0.405813
3520.0,814.408,0.403656
3536.0,816.785,0.401625
3552.0,819.15,0.399656
3568.0,821.518,0.397469
3584.0,823.881,0.395594
3600.0,826.241,0.393375
3616.0,828.598,0.391625
3632.0,830.962,0.389625
3648.0,833.33,0.38775
3664.0,835.68,0.385812
3680.0,838.029,0.383906
3696.0,840.375,0.382156
3712.0,842.729,0.380188
3728.0,845.083,0.378094
3744.0,847.435,0.376469
3760.0,849.777,0.374531
3776.0,852.14,0.372562
3792.0,854.482,0.370531
3808.0,856.819,0.368469
3824.0,859.176,0.366344
3840.0,861.525,0.364312
3856.0,863.872,0.362625
3872.0,866.224,0.360938
3888.0,868.563,0.358906
3904.0,870.9,0.357031
3920.0,873.231,0.355156
3936.0,875.572,0.3535
3952.0,877.918,0.351563
3968.0,880.259,0.349781
3984.0,882.602,0.348062
4000.0,884.939,0.346219
4016.0,887.275,0.344656
4032.0,889.615,0.342813
4048.0,891.938,0.341
4064.0,894.271,0.339469
4080.0,896.601,0.337906
4096.0,898.939,0.33625
4112.0,901.268,0.334531
4128.0,903.602,0.332938
4144.0,905.929,0.331437
4160.0,908.259,0.330094
4176.0,910.587,0.32875
4192.0,912.918,0.327031
4208.0,915.258,0.325563
4224.0,917.59,0.324125
4240.0,919.919,0.32275
4256.0,922.254,0.321312
4272.0,924.582,0.319719
4288.0,926.915,0.318312
4304.0,929.257,0.317094
4320.0,931.589,0.315844
4336.0,933.935,0.314531
4352.0,936.278,0.313125
4368.0,938.601,0.311531
4384.0,940.93,0.31025
4400.0,943.236,0.309156
4416.0,945.551,0.308125
4432.0,947.86,0.307063
4448.0,950.171,0.305781
4464.0,952.497,0.30475
4480.0,954.813,0.303688
4496.0,957.135,0.302625
4512.0,959.461,0.301344
4528.0,961.782,0.300156
4544.0,964.1,0.298781
4560.0,966.408,0.297563
4576.0,968.72,0.296219
4592.0,971.032,0.295281
4608.0,973.357,0.294094
4624.0,975.687,0.293531
4640.0,978.008,0.292
4656.0,980.339,0.291312
4672.0,982.677,0.289969
4688.0,984.999,0.288906
4704.0,987.32,0.288125
4720.0,989.643,0.286813
4736,991.962,0.28575
4752,994.288,0.284687
4768,996.61,0.283781
4784,998.924,0.28275
4792,999.99,0.282406