File: Wood/Calibration_Data/TUT/TUT_TGA_N2_10K_40Pa_R3.csv
Time (s),Temperature (K),Mass (mg)
0.0,299.573,4.926406
16.0,299.57,4.927125
32.0,299.579,4.928406
48.0,299.59,4.928531
64.0,299.649,4.928906
80.0,299.784,4.928906
96.0,300.002,4.929
112.0,300.356,4.929313
128.0,300.849,4.929625
144.0,301.501,4.9295
160.0,302.295,4.9295
176.0,303.248,4.92975
192.0,304.338,4.9295
208.0,305.588,4.929594
224.0,306.961,4.929656
240.0,308.443,4.929187
256.0,310.025,4.929062
272.0,311.713,4.928969
288.0,313.48,4.928469
304.0,315.35,4.928625
320.0,317.276,4.928062
336.0,319.282,4.927625
352.0,321.328,4.927344
368.0,323.425,4.9265
384.0,325.564,4.926188
400.0,327.748,4.925594
416.0,329.979,4.924812
432.0,332.235,4.924406
448.0,334.524,4.923719
464.0,336.832,4.923406
480.0,339.167,4.922812
496.0,341.509,4.922281
512.0,343.88,4.921875
528.0,346.274,4.921094
544.0,348.673,4.920656
560.0,351.09,4.920031
576.0,353.5,4.919406
592.0,355.924,4.918656
608.0,358.358,4.917969
624.0,360.802,4.917031
640.0,363.248,4.916156
656.0,365.699,4.914906
672.0,368.158,4.913688
688.0,370.632,4.912094
704.0,373.098,4.910188
720.0,375.565,4.908156
736.0,378.036,4.905844
752.0,380.536,4.902969
768.0,383.002,4.900063
784.0,385.482,4.896781
800.0,387.978,4.893031
816.0,390.467,4.888875
832.0,392.95,4.884219
848.0,395.437,4.87925
864.0,397.932,4.874
880.0,400.433,4.86875
896.0,402.944,4.8635
912.0,405.449,4.858812
928.0,407.955,4.854469
944.0,410.473,4.850406
960.0,412.99,4.846562
976.0,415.496,4.843438
992.0,418.023,4.840531
1008.0,420.549,4.838
1024.0,423.077,4.83525
1040.0,425.605,4.832625
1056.0,428.135,4.83025
1072.0,430.663,4.827719
1088.0,433.198,4.824937
1104.0,435.709,4.822281
1120.0,438.253,4.81925
1136.0,440.787,4.815938
1152.0,443.318,4.812594
1168.0,445.865,4.80925
1184.0,448.418,4.805719
1200.0,450.967,4.801719
1216.0,453.5,4.7975
1232.0,456.044,4.793125
1248.0,458.599,4.788063
1264.0,461.142,4.782875
1280.0,463.698,4.777281
1296.0,466.239,4.771
1312.0,468.794,4.764281
1328.0,471.345,4.756719
1344.0,473.9,4.749
1360.0,476.447,4.740562
1376.0,479.002,4.73175
1392.0,481.551,4.72175
1408.0,484.106,4.711563
1424.0,486.667,4.700687
1440.0,489.219,4.689
1456.0,491.777,4.676625
1472.0,494.332,4.663531
1488.0,496.887,4.649813
1504.0,499.447,4.635188
1520.0,502.007,4.619844
1536.0,504.573,4.603312
1552.0,507.131,4.586031
1568.0,509.693,4.568219
1584.0,512.254,4.548844
1600.0,514.803,4.528531
1616.0,517.37,4.507406
1632.0,519.922,4.485219
1648.0,522.486,4.462094
1664.0,525.046,4.438625
1680.0,527.599,4.413844
1696.0,530.153,4.388969
1712.0,532.714,4.363031
1728.0,535.272,4.336594
1744.0,537.832,4.308969
1760.0,540.388,4.280375
1776.0,542.938,4.250688
1792.0,545.484,4.22
1808.0,548.05,4.187531
1824.0,550.592,4.154062
1840.0,553.136,4.118406
1856.0,555.684,4.081469
1872.0,558.226,4.042687
1888.0,560.767,4.001719
1904.0,563.31,3.958625
1920.0,565.846,3.913844
1936.0,568.383,3.866281
1952.0,570.929,3.816469
1968.0,573.471,3.764031
1984.0,576.01,3.709625
2000.0,578.547,3.652281
2016.0,581.094,3.591938
2032.0,583.622,3.5295
2048.0,586.157,3.464313
2064.0,588.687,3.396344
2080.0,591.224,3.325875
2096.0,593.752,3.252531
2112.0,596.271,3.177156
2128.0,598.807,3.099437
2144.0,601.342,3.019156
2160.0,603.863,2.936375
2176.0,606.402,2.851813
2192.0,608.916,2.765031
2208.0,611.439,2.676344
2224.0,613.966,2.585219
2240.0,616.492,2.491969
2256.0,619.012,2.396219
2272.0,621.529,2.297625
2288.0,624.038,2.195875
2304.0,626.55,2.090406
2320.0,629.049,1.981531
2336.0,631.545,1.869125
2352.0,634.049,1.752938
2368.0,636.557,1.633906
2384.0,639.06,1.512219
2400.0,641.583,1.389781
2416.0,644.097,1.268781
2432.0,646.633,1.151312
2448.0,649.183,1.041563
2464.0,651.746,0.943156
2480.0,654.339,0.86
2496.0,656.948,0.79525
2512.0,659.57,0.749625
2528.0,662.179,0.720688
2544.0,664.771,0.702688
2560.0,667.337,0.690281
2576.0,669.883,0.679875
2592.0,672.411,0.670344
2608.0,674.924,0.661156
2624.0,677.449,0.652156
2640.0,679.961,0.643656
2656.0,682.458,0.635344
2672.0,684.965,0.627187
2688.0,687.461,0.619313
2704.0,689.966,0.611406
2720.0,692.457,0.603375
2736.0,694.941,0.595719
2752.0,697.423,0.588375
2768.0,699.906,0.581125
2784.0,702.385,0.57375
2800.0,704.867,0.566781
2816.0,707.354,0.559875
2832.0,709.835,0.553062
2848.0,712.316,0.546375
2864.0,714.79,0.539937
2880.0,717.274,0.533594
2896.0,719.739,0.527375
2912.0,722.214,0.521344
2928.0,724.678,0.515562
2944.0,727.149,0.509687
2960.0,729.618,0.503812
2976.0,732.088,0.49825
2992.0,734.54,0.492875
3008.0,736.988,0.487781
3024.0,739.448,0.483031
3040.0,741.884,0.478156
3056.0,744.329,0.474219
3072.0,746.764,0.47025
3088.0,749.204,0.466437
3104.0,751.643,0.463281
3120.0,754.083,0.460063
3136.0,756.517,0.457344
3152.0,758.97,0.454281
3168.0,761.413,0.451813
3184.0,763.85,0.449219
3200.0,766.284,0.446406
3216.0,768.714,0.443375
3232.0,771.14,0.441219
3248.0,773.555,0.438656
3264.0,775.976,0.436406
3280.0,778.401,0.434
3296.0,780.826,0.431625
3312.0,783.243,0.429094
3328.0,785.659,0.426781
3344.0,788.073,0.424406
3360.0,790.497,0.421813
3376.0,792.914,0.419375
3392.0,795.324,0.416906
3408.0,797.721,0.414438
3424.0,800.122,0.412031
3440.0,802.526,0.409875
3456.0,804.929,0.407313
3472.0,807.345,0.404656
3488.0,809.763,0.402125
3504.0,812.183,0.3995
3520.0,814.597,0.397094
3536.0,817.006,0.394625
3552.0,819.415,0.391969
3568.0,821.823,0.389375
3584.0,824.221,0.386656
3600.0,826.635,0.383938
3616.0,829.035,0.381219
3632.0,831.442,0.378469
3648.0,833.835,0.375625
3664.0,836.225,0.372969
3680.0,838.611,0.370125
3696.0,840.986,0.367063
3712.0,843.362,0.36425
3728.0,845.729,0.361406
3744.0,848.109,0.358594
3760.0,850.482,0.355781
3776.0,852.867,0.352906
3792.0,855.244,0.350125
3808.0,857.621,0.347313
3824.0,860.009,0.34425
3840.0,862.397,0.341219
3856.0,864.771,0.338375
3872.0,867.15,0.335781
3888.0,869.525,0.332719
3904.0,871.882,0.330063
3920.0,874.236,0.327469
3936.0,876.589,0.3245
3952.0,878.947,0.32175
3968.0,881.322,0.318781
3984.0,883.7,0.316125
4000.0,886.084,0.313625
4016.0,888.465,0.310781
4032.0,890.845,0.307906
4048.0,893.222,0.305344
4064.0,895.614,0.302625
4080.0,897.978,0.299969
4096.0,900.353,0.297188
4112.0,902.721,0.294594
4128.0,905.08,0.291875
4144.0,907.437,0.289406
4160.0,909.785,0.286656
4176.0,912.144,0.284031
4192.0,914.502,0.281594
4208.0,916.847,0.279094
4224.0,919.198,0.276563
4240.0,921.548,0.273781
4256.0,923.903,0.271219
4272.0,926.269,0.268844
4288.0,928.627,0.266438
4304.0,930.977,0.263844
4320.0,933.341,0.261219
4336.0,935.695,0.258906
4352.0,938.049,0.256687
4368.0,940.414,0.253969
4384.0,942.773,0.251812
4400.0,945.121,0.249406
4416.0,947.466,0.247187
4432.0,949.806,0.244594
4448.0,952.147,0.242281
4464.0,954.473,0.239719
4480.0,956.806,0.237219
4496.0,959.139,0.234844
4512.0,961.465,0.232344
4528.0,963.797,0.22975
4544.0,966.127,0.227531
4560.0,968.451,0.225187
4576.0,970.775,0.22275
4592.0,973.095,0.22025
4608.0,975.423,0.217906
4624.0,977.749,0.215687
4640.0,980.078,0.213125
4656.0,982.426,0.210594
4672.0,984.762,0.2085
4688.0,987.105,0.206437
4704.0,989.443,0.203969
4720.0,991.764,0.201687
4736,994.077,0.199281
4752,996.372,0.197094
4768,998.659,0.194875
4778,999.996,0.193312