File: Wood/Calibration_Data/TUT/TUT_TGA_N2_10K_40Pa_R2.csv
Time (s),Temperature (K),Mass (mg)
0,299.0,5.0306
145,301.5,5.0297
187,304.0,5.0292
219,306.5,5.0291
246,309.0,5.0284
270,311.5,5.0278
293,314.0,5.027
314,316.5,5.0288
334,319.0,5.0279
354,321.5,5.0268
372,324.0,5.0258
391,326.5,5.0248
409,329.0,5.0238
427,331.5,5.0229
444,334.0,5.0216
462,336.5,5.021
479,339.0,5.0201
496,341.5,5.0192
513,344.0,5.018
530,346.5,5.0174
547,349.0,5.0167
563,351.5,5.0158
580,354.0,5.0149
596,356.5,5.0139
613,359.0,5.0128
629,361.5,5.0117
645,364.0,5.0112
662,366.5,5.0098
678,369.0,5.0081
694,371.5,5.0067
710,374.0,5.0045
726,376.5,5.002
742,379.0,4.9993
759,381.5,4.9958
775,384.0,4.9926
791,386.5,4.9887
807,389.0,4.9848
823,391.5,4.9801
839,394.0,4.9754
855,396.5,4.9703
871,399.0,4.9651
887,401.5,4.9605
903,404.0,4.9557
919,406.5,4.9513
935,409.0,4.9473
951,411.5,4.9438
967,414.0,4.9408
982,416.5,4.9381
998,419.0,4.9355
1014,421.5,4.9331
1030,424.0,4.9302
1045,426.5,4.928
1061,429.0,4.9253
1077,431.5,4.9228
1093,434.0,4.92
1109,436.5,4.9174
1124,439.0,4.9147
1140,441.5,4.9114
1156,444.0,4.9086
1172,446.5,4.9053
1187,449.0,4.902
1203,451.5,4.8982
1219,454.0,4.8943
1235,456.5,4.8902
1250,459.0,4.8859
1266,461.5,4.8807
1282,464.0,4.8755
1297,466.5,4.8702
1313,469.0,4.8639
1329,471.5,4.8574
1344,474.0,4.8505
1360,476.5,4.8429
1376,479.0,4.8347
1391,481.5,4.8265
1407,484.0,4.8173
1422,486.5,4.8076
1438,489.0,4.7971
1454,491.5,4.7857
1469,494.0,4.7749
1485,496.5,4.7623
1501,499.0,4.7491
1516,501.5,4.7361
1532,504.0,4.7214
1548,506.5,4.7055
1563,509.0,4.6899
1579,511.5,4.6721
1594,514.0,4.6549
1610,516.5,4.6357
1626,519.0,4.6159
1641,521.5,4.5963
1657,524.0,4.5748
1672,526.5,4.5539
1688,529.0,4.5314
1704,531.5,4.5082
1719,534.0,4.4858
1735,536.5,4.4612
1751,539.0,4.4358
1766,541.5,4.4108
1782,544.0,4.3829
1798,546.5,4.354
1814,549.0,4.3239
1829,551.5,4.2943
1845,554.0,4.2612
1861,556.5,4.2265
1876,559.0,4.1924
1892,561.5,4.1542
1908,564.0,4.1143
1923,566.5,4.0746
1939,569.0,4.0306
1955,571.5,3.9842
1970,574.0,3.9386
1986,576.5,3.8877
2002,579.0,3.8344
2018,581.5,3.7786
2033,584.0,3.7239
2049,586.5,3.6636
2065,589.0,3.6005
2081,591.5,3.5353
2097,594.0,3.4677
2113,596.5,3.3981
2128,599.0,3.3309
2144,601.5,3.2567
2160,604.0,3.1807
2176,606.5,3.1027
2192,609.0,3.0228
2208,611.5,2.9408
2223,614.0,2.8621
2239,616.5,2.7759
2255,619.0,2.6878
2271,621.5,2.5968
2287,624.0,2.5029
2303,626.5,2.4065
2319,629.0,2.3063
2335,631.5,2.2028
2351,634.0,2.0962
2367,636.5,1.9866
2383,639.0,1.8751
2399,641.5,1.7629
2415,644.0,1.6518
2431,646.5,1.5443
2446,649.0,1.4494
2462,651.5,1.3581
2478,654.0,1.2804
2493,656.5,1.2225
2508,659.0,1.1802
2524,661.5,1.151
2539,664.0,1.1339
2555,666.5,1.1215
2570,669.0,1.1123
2586,671.5,1.1033
2602,674.0,1.0946
2618,676.5,1.0866
2634,679.0,1.0786
2650,681.5,1.0713
2666,684.0,1.0636
2682,686.5,1.0564
2698,689.0,1.0492
2714,691.5,1.0422
2730,694.0,1.0356
2746,696.5,1.0289
2762,699.0,1.0224
2779,701.5,1.0155
2795,704.0,1.0092
2811,706.5,1.0034
2827,709.0,0.9978
2843,711.5,0.9923
2859,714.0,0.9866
2875,716.5,0.9815
2892,719.0,0.9763
2908,721.5,0.9717
2924,724.0,0.9674
2941,726.5,0.9626
2957,729.0,0.9587
2973,731.5,0.9548
2990,734.0,0.9509
3006,736.5,0.9473
3022,739.0,0.9439
3038,741.5,0.9408
3055,744.0,0.9374
3071,746.5,0.9347
3088,749.0,0.9318
3104,751.5,0.929
3121,754.0,0.9263
3137,756.5,0.9236
3154,759.0,0.9209
3170,761.5,0.9186
3187,764.0,0.9161
3203,766.5,0.9136
3220,769.0,0.9115
3237,771.5,0.9092
3253,774.0,0.907
3270,776.5,0.9049
3287,779.0,0.9025
3303,781.5,0.9002
3320,784.0,0.898
3337,786.5,0.8958
3353,789.0,0.8938
3370,791.5,0.8914
3387,794.0,0.8892
3403,796.5,0.887
3419,799.0,0.8848
3436,801.5,0.882
3452,804.0,0.8797
3468,806.5,0.8772
3485,809.0,0.8749
3501,811.5,0.8721
3517,814.0,0.8696
3534,816.5,0.8669
3550,819.0,0.8644
3567,821.5,0.8616
3584,824.0,0.8589
3600,826.5,0.8567
3617,829.0,0.8539
3634,831.5,0.851
3650,834.0,0.8486
3667,836.5,0.8458
3684,839.0,0.8432
3700,841.5,0.8405
3717,844.0,0.8376
3734,846.5,0.8345
3750,849.0,0.8319
3767,851.5,0.8289
3784,854.0,0.8262
3800,856.5,0.8235
3817,859.0,0.8206
3834,861.5,0.8176
3851,864.0,0.8149
3868,866.5,0.8121
3884,869.0,0.8093
3901,871.5,0.8066
3918,874.0,0.8037
3935,876.5,0.8008
3952,879.0,0.7981
3969,881.5,0.7954
3985,884.0,0.7928
4002,886.5,0.7901
4019,889.0,0.7874
4036,891.5,0.7845
4053,894.0,0.7819
4069,896.5,0.7791
4086,899.0,0.7763
4103,901.5,0.7734
4120,904.0,0.7706
4137,906.5,0.7678
4154,909.0,0.7649
4171,911.5,0.7621
4188,914.0,0.7597
4205,916.5,0.7569
4222,919.0,0.7542
4239,921.5,0.7513
4256,924.0,0.7485
4273,926.5,0.746
4290,929.0,0.7435
4307,931.5,0.7411
4324,934.0,0.7382
4341,936.5,0.7355
4358,939.0,0.7328
4375,941.5,0.7306
4392,944.0,0.7278
4409,946.5,0.7255
4426,949.0,0.7228
4443,951.5,0.7204
4460,954.0,0.7176
4477,956.5,0.7148
4494,959.0,0.7124
4512,961.5,0.7097
4529,964.0,0.7072
4546,966.5,0.7045
4563,969.0,0.7018
4580,971.5,0.6996
4597,974.0,0.6968
4614,976.5,0.6946
4632,979.0,0.692
4649,981.5,0.6894
4666,984.0,0.6868
4683,986.5,0.6842
4701,989.0,0.6817
4718,991.5,0.6792
4735,994.0,0.677
4753,996.5,0.6741
4770,999.0,0.6717
4777,1000.0,0.6708