File: Wood/Calibration_Data/TUT/TUT_TGA_N2_10K_100kPa_R2.csv
Time (s),Temperature (K),Mass (mg)
0.0,299.199,4.996906
16.0,299.209,4.998375
32.0,299.194,4.999125
48.0,299.207,4.999781
64.0,299.28,4.999656
80.0,299.408,4.999813
96.0,299.656,4.999625
112.0,300.02,4.999406
128.0,300.541,4.999031
144.0,301.213,4.998406
160.0,302.03,4.998188
176.0,303.016,4.997594
192.0,304.137,4.996812
208.0,305.416,4.995937
224.0,306.804,4.99475
240.0,308.331,4.993312
256.0,309.953,4.991531
272.0,311.681,4.989719
288.0,313.487,4.987281
304.0,315.367,4.984281
320.0,317.308,4.981031
336.0,319.327,4.977594
352.0,321.384,4.973375
368.0,323.499,4.968844
384.0,325.655,4.964219
400.0,327.836,4.958844
416.0,330.042,4.953531
432.0,332.292,4.947969
448.0,334.569,4.942344
464.0,336.859,4.936469
480.0,339.181,4.930656
496.0,341.522,4.924812
512.0,343.87,4.919781
528.0,346.24,4.914906
544.0,348.625,4.910094
560.0,351.012,4.906156
576.0,353.422,4.902406
592.0,355.839,4.898938
608.0,358.265,4.896281
624.0,360.68,4.894281
640.0,363.107,4.892281
656.0,365.545,4.890563
672.0,367.976,4.889219
688.0,370.407,4.888062
704.0,372.824,4.887063
720.0,375.266,4.886406
736.0,377.705,4.885781
752.0,380.123,4.885094
768.0,382.563,4.884656
784.0,384.996,4.884188
800.0,387.42,4.883875
816.0,389.861,4.883344
832.0,392.302,4.882906
848.0,394.748,4.8825
864.0,397.177,4.881906
880.0,399.616,4.881312
896.0,402.062,4.880969
912.0,404.499,4.88025
928.0,406.951,4.879938
944.0,409.411,4.879281
960.0,411.881,4.878156
976.0,414.34,4.877469
992.0,416.806,4.876344
1008.0,419.275,4.875563
1024.0,421.74,4.874562
1040.0,424.212,4.873031
1056.0,426.694,4.871656
1072.0,429.179,4.870313
1088.0,431.66,4.868531
1104.0,434.158,4.866531
1120.0,436.647,4.864438
1136.0,439.131,4.862219
1152.0,441.62,4.859437
1168.0,444.122,4.856812
1184.0,446.626,4.853781
1200.0,449.13,4.850469
1216.0,451.637,4.846562
1232.0,454.14,4.842375
1248.0,456.647,4.837906
1264.0,459.157,4.833344
1280.0,461.674,4.82775
1296.0,464.192,4.822437
1312.0,466.713,4.816344
1328.0,469.225,4.809906
1344.0,471.745,4.8035
1360.0,474.273,4.796375
1376.0,476.794,4.789656
1392.0,479.329,4.781969
1408.0,481.851,4.774281
1424.0,484.389,4.766594
1440.0,486.92,4.758594
1456.0,489.46,4.75025
1472.0,492.011,4.741281
1488.0,494.54,4.732125
1504.0,497.093,4.722813
1520.0,499.638,4.712438
1536.0,502.168,4.701375
1552.0,504.724,4.689906
1568.0,507.261,4.677281
1584.0,509.803,4.663813
1600.0,512.364,4.649219
1616.0,514.911,4.633687
1632.0,517.46,4.616813
1648.0,520.02,4.598844
1664.0,522.569,4.579625
1680.0,525.127,4.559187
1696.0,527.676,4.538031
1712.0,530.239,4.515812
1728.0,532.796,4.492
1744.0,535.356,4.467156
1760.0,537.913,4.441312
1776.0,540.463,4.413969
1792.0,543.036,4.385156
1808.0,545.594,4.354688
1824.0,548.159,4.322719
1840.0,550.712,4.289906
1856.0,553.271,4.2555
1872.0,555.836,4.219656
1888.0,558.403,4.182375
1904.0,560.966,4.143719
1920.0,563.533,4.103594
1936.0,566.101,4.061781
1952.0,568.663,4.0185
1968.0,571.243,3.97325
1984.0,573.809,3.925781
2000.0,576.386,3.876312
2016.0,578.94,3.824188
2032.0,581.519,3.769906
2048.0,584.082,3.712875
2064.0,586.639,3.653125
2080.0,589.205,3.5905
2096.0,591.777,3.525156
2112.0,594.341,3.456938
2128.0,596.905,3.385844
2144.0,599.477,3.312406
2160.0,602.041,3.236406
2176.0,604.606,3.158219
2192.0,607.171,3.077844
2208.0,609.741,2.99525
2224.0,612.31,2.909812
2240.0,614.88,2.822531
2256.0,617.448,2.732063
2272.0,620.018,2.638562
2288.0,622.583,2.541
2304.0,625.151,2.439063
2320.0,627.721,2.331281
2336.0,630.278,2.218281
2352.0,632.844,2.099281
2368.0,635.416,1.975188
2384.0,637.995,1.847344
2400.0,640.592,1.719187
2416.0,643.194,1.595625
2432.0,645.821,1.483344
2448.0,648.467,1.390125
2464.0,651.142,1.320656
2480.0,653.823,1.275281
2496.0,656.491,1.24875
2512.0,659.133,1.232219
2528.0,661.767,1.220625
2544.0,664.405,1.2105
2560.0,667.009,1.201156
2576.0,669.575,1.192594
2592.0,672.147,1.184344
2608.0,674.702,1.176406
2624.0,677.261,1.168281
2640.0,679.801,1.160344
2656.0,682.333,1.152812
2672.0,684.852,1.145187
2688.0,687.369,1.137313
2704.0,689.887,1.129812
2720.0,692.395,1.122156
2736.0,694.901,1.11425
2752.0,697.412,1.106594
2768.0,699.918,1.098812
2784.0,702.414,1.091094
2800.0,704.915,1.083375
2816.0,707.405,1.075906
2832.0,709.912,1.068
2848.0,712.401,1.060656
2864.0,714.91,1.053
2880.0,717.405,1.045344
2896.0,719.903,1.03775
2912.0,722.398,1.030219
2928.0,724.894,1.022781
2944.0,727.392,1.015406
2960.0,729.891,1.007437
2976.0,732.39,1.000219
2992.0,734.882,0.992531
3008.0,737.377,0.984781
3024.0,739.875,0.977094
3040.0,742.378,0.969562
3056.0,744.867,0.961844
3072.0,747.349,0.954094
3088.0,749.842,0.946437
3104.0,752.333,0.938812
3120.0,754.819,0.931156
3136.0,757.305,0.923281
3152.0,759.785,0.9155
3168.0,762.265,0.9075
3184.0,764.74,0.899344
3200.0,767.215,0.891406
3216.0,769.694,0.88325
3232.0,772.17,0.875063
3248.0,774.652,0.866813
3264.0,777.123,0.858469
3280.0,779.589,0.850219
3296.0,782.061,0.841656
3312.0,784.524,0.83325
3328.0,786.992,0.824875
3344.0,789.465,0.816125
3360.0,791.927,0.807656
3376.0,794.381,0.798969
3392.0,796.847,0.79025
3408.0,799.305,0.781812
3424.0,801.77,0.773
3440.0,804.214,0.764094
3456.0,806.668,0.755156
3472.0,809.122,0.746156
3488.0,811.57,0.737437
3504.0,814.025,0.728219
3520.0,816.469,0.719344
3536.0,818.92,0.710281
3552.0,821.373,0.701281
3568.0,823.822,0.692125
3584.0,826.277,0.683031
3600.0,828.731,0.673937
3616.0,831.178,0.66475
3632.0,833.627,0.655688
3648.0,836.072,0.646719
3664.0,838.519,0.637531
3680.0,840.951,0.628125
3696.0,843.385,0.619187
3712.0,845.817,0.609812
3728.0,848.247,0.600406
3744.0,850.681,0.5915
3760.0,853.119,0.581906
3776.0,855.547,0.573219
3792.0,857.978,0.563812
3808.0,860.412,0.554781
3824.0,862.835,0.545531
3840.0,865.261,0.536125
3856.0,867.695,0.526969
3872.0,870.122,0.517844
3888.0,872.547,0.508781
3904.0,874.975,0.499781
3920.0,877.398,0.490719
3936.0,879.824,0.481969
3952.0,882.247,0.472594
3968.0,884.677,0.463656
3984.0,887.099,0.454875
4000.0,889.514,0.446031
4016.0,891.935,0.437125
4032.0,894.362,0.428594
4048.0,896.779,0.419719
4064.0,899.206,0.411219
4080.0,901.641,0.402844
4096.0,904.062,0.394625
4112.0,906.493,0.38625
4128.0,908.925,0.377844
4144.0,911.356,0.369625
4160.0,913.787,0.361156
4176.0,916.214,0.353094
4192.0,918.627,0.344969
4208.0,921.039,0.337469
4224.0,923.456,0.329625
4240.0,925.866,0.321781
4256.0,928.288,0.314156
4272.0,930.709,0.306656
4288.0,933.132,0.299156
4304.0,935.549,0.291469
4320.0,937.968,0.284063
4336.0,940.385,0.276656
4352.0,942.8,0.269062
4368.0,945.212,0.262094
4384.0,947.628,0.254937
4400.0,950.054,0.247688
4416.0,952.475,0.240094
4432.0,954.892,0.233281
4448.0,957.304,0.226125
4464.0,959.727,0.219094
4480.0,962.155,0.212469
4496.0,964.586,0.205812
4512.0,966.999,0.198844
4528.0,969.409,0.192406
4544.0,971.831,0.185937
4560.0,974.253,0.179719
4576.0,976.673,0.173187
4592.0,979.097,0.166594
4608.0,981.527,0.160125
4624.0,983.953,0.153906
4640.0,986.367,0.147781
4656.0,988.78,0.14175
4672.0,991.197,0.135625
4688.0,993.61,0.1295
4704.0,996.015,0.123594
4720.0,998.429,0.1175
4731.0,999.994,0.113906