File: Wood/Calibration_Data/TUT/TUT_TGA_N2_10K_100kPa_R3.csv
Time (s),Temperature (K),Mass (mg)
0.0,299.302,4.979625
16.0,299.3,4.980469
32.0,299.301,4.981469
48.0,299.32,4.981812
64.0,299.39,4.981781
80.0,299.513,4.981781
96.0,299.743,4.981625
112.0,300.104,4.98125
128.0,300.618,4.981094
144.0,301.29,4.980625
160.0,302.118,4.980062
176.0,303.071,4.979344
192.0,304.189,4.978281
208.0,305.459,4.976812
224.0,306.851,4.975
240.0,308.352,4.972875
256.0,309.944,4.970687
272.0,311.669,4.967563
288.0,313.448,4.964188
304.0,315.334,4.960281
320.0,317.272,4.955937
336.0,319.268,4.950812
352.0,321.332,4.945406
368.0,323.428,4.939719
384.0,325.578,4.933406
400.0,327.768,4.926625
416.0,329.979,4.919906
432.0,332.235,4.912813
448.0,334.507,4.905469
464.0,336.803,4.898375
480.0,339.136,4.891531
496.0,341.472,4.885375
512.0,343.829,4.878812
528.0,346.205,4.873063
544.0,348.586,4.867531
560.0,350.991,4.86225
576.0,353.4,4.857969
592.0,355.821,4.854031
608.0,358.254,4.850563
624.0,360.672,4.847656
640.0,363.11,4.845281
656.0,365.543,4.843094
672.0,367.964,4.841469
688.0,370.402,4.84
704.0,372.831,4.838375
720.0,375.275,4.837375
736.0,377.703,4.836594
752.0,380.138,4.835875
768.0,382.586,4.834875
784.0,385.013,4.834375
800.0,387.454,4.83375
816.0,389.904,4.83325
832.0,392.335,4.832656
848.0,394.769,4.831656
864.0,397.217,4.831438
880.0,399.652,4.830812
896.0,402.108,4.830281
912.0,404.56,4.8295
928.0,407.019,4.828688
944.0,409.479,4.828125
960.0,411.938,4.827312
976.0,414.402,4.826656
992.0,416.873,4.825406
1008.0,419.341,4.824438
1024.0,421.814,4.823125
1040.0,424.288,4.822
1056.0,426.764,4.820687
1072.0,429.242,4.819
1088.0,431.729,4.816969
1104.0,434.22,4.815406
1120.0,436.718,4.813281
1136.0,439.21,4.810906
1152.0,441.714,4.808312
1168.0,444.22,4.805719
1184.0,446.718,4.802594
1200.0,449.223,4.799219
1216.0,451.732,4.795813
1232.0,454.242,4.791781
1248.0,456.748,4.787281
1264.0,459.271,4.782469
1280.0,461.797,4.777281
1296.0,464.309,4.771688
1312.0,466.834,4.765563
1328.0,469.354,4.759156
1344.0,471.874,4.752625
1360.0,474.403,4.745406
1376.0,476.945,4.738313
1392.0,479.469,4.731125
1408.0,482.002,4.723344
1424.0,484.539,4.715562
1440.0,487.076,4.707219
1456.0,489.616,4.698688
1472.0,492.159,4.690063
1488.0,494.709,4.680937
1504.0,497.24,4.671219
1520.0,499.79,4.660687
1536.0,502.342,4.649813
1552.0,504.886,4.637813
1568.0,507.435,4.625156
1584.0,509.987,4.611625
1600.0,512.536,4.596719
1616.0,515.096,4.580688
1632.0,517.641,4.563625
1648.0,520.191,4.54525
1664.0,522.745,4.525719
1680.0,525.311,4.505156
1696.0,527.866,4.48375
1712.0,530.422,4.460719
1728.0,532.984,4.436875
1744.0,535.541,4.411344
1760.0,538.101,4.384781
1776.0,540.657,4.356656
1792.0,543.215,4.3275
1808.0,545.764,4.296625
1824.0,548.332,4.2645
1840.0,550.897,4.231094
1856.0,553.458,4.195687
1872.0,556.02,4.159125
1888.0,558.594,4.121094
1904.0,561.166,4.081937
1920.0,563.74,4.040625
1936.0,566.317,3.998
1952.0,568.876,3.953687
1968.0,571.441,3.907531
1984.0,574.021,3.859469
2000.0,576.589,3.808594
2016.0,579.151,3.755625
2032.0,581.726,3.699969
2048.0,584.294,3.641656
2064.0,586.865,3.580531
2080.0,589.427,3.516656
2096.0,591.992,3.449781
2112.0,594.562,3.379781
2128.0,597.136,3.307625
2144.0,599.709,3.232438
2160.0,602.274,3.155062
2176.0,604.837,3.07525
2192.0,607.417,2.992969
2208.0,609.986,2.908656
2224.0,612.557,2.821719
2240.0,615.126,2.73275
2256.0,617.702,2.640438
2272.0,620.277,2.544125
2288.0,622.852,2.4435
2304.0,625.419,2.337969
2320.0,627.991,2.2265
2336.0,630.564,2.108625
2352.0,633.137,1.985156
2368.0,635.73,1.856688
2384.0,638.317,1.725719
2400.0,640.929,1.597156
2416.0,643.565,1.477719
2432.0,646.218,1.37625
2448.0,648.896,1.29825
2464.0,651.595,1.245781
2480.0,654.278,1.214156
2496.0,656.999,1.195406
2512.0,659.664,1.182094
2528.0,662.277,1.171156
2544.0,664.867,1.161188
2560.0,667.443,1.151688
2576.0,669.997,1.1425
2592.0,672.543,1.133562
2608.0,675.073,1.124656
2624.0,677.608,1.116094
2640.0,680.128,1.107281
2656.0,682.65,1.098781
2672.0,685.161,1.089937
2688.0,687.67,1.080938
2704.0,690.179,1.072312
2720.0,692.679,1.063219
2736.0,695.184,1.054406
2752.0,697.693,1.04525
2768.0,700.202,1.03625
2784.0,702.704,1.027031
2800.0,705.212,1.017875
2816.0,707.702,1.008719
2832.0,710.197,0.999625
2848.0,712.702,0.990594
2864.0,715.193,0.9815
2880.0,717.682,0.972375
2896.0,720.189,0.963188
2912.0,722.685,0.954156
2928.0,725.183,0.944719
2944.0,727.676,0.935469
2960.0,730.159,0.926313
2976.0,732.659,0.917
2992.0,735.147,0.907594
3008.0,737.639,0.897937
3024.0,740.123,0.888531
3040.0,742.618,0.878906
3056.0,745.102,0.869187
3072.0,747.584,0.859406
3088.0,750.063,0.8495
3104.0,752.547,0.839781
3120.0,755.023,0.829844
3136.0,757.503,0.819687
3152.0,759.993,0.809531
3168.0,762.464,0.799375
3184.0,764.941,0.789031
3200.0,767.408,0.778531
3216.0,769.87,0.767844
3232.0,772.345,0.75725
3248.0,774.808,0.746562
3264.0,777.274,0.73575
3280.0,779.739,0.724844
3296.0,782.208,0.714031
3312.0,784.671,0.702875
3328.0,787.127,0.691813
3344.0,789.583,0.680687
3360.0,792.037,0.669656
3376.0,794.494,0.658531
3392.0,796.946,0.647
3408.0,799.396,0.635625
3424.0,801.841,0.623906
3440.0,804.291,0.612531
3456.0,806.74,0.60075
3472.0,809.195,0.588906
3488.0,811.64,0.577125
3504.0,814.086,0.565344
3520.0,816.531,0.553375
3536.0,818.984,0.5415
3552.0,821.423,0.529531
3568.0,823.869,0.517406
3584.0,826.327,0.505469
3600.0,828.772,0.493125
3616.0,831.208,0.480594
3632.0,833.655,0.468313
3648.0,836.079,0.4565
3664.0,838.529,0.444562
3680.0,840.96,0.432187
3696.0,843.395,0.419875
3712.0,845.828,0.407594
3728.0,848.25,0.395562
3744.0,850.684,0.383188
3760.0,853.116,0.371094
3776.0,855.541,0.358687
3792.0,857.985,0.346594
3808.0,860.408,0.33475
3824.0,862.843,0.322812
3840.0,865.277,0.310438
3856.0,867.71,0.298562
3872.0,870.149,0.286531
3888.0,872.597,0.274656
3904.0,875.037,0.262688
3920.0,877.482,0.25075
3936.0,879.936,0.239312
3952.0,882.397,0.227625
3968.0,884.847,0.216219
3984.0,887.301,0.204594
4000.0,889.754,0.193687
4016.0,892.206,0.1825
4032.0,894.655,0.171438
4048.0,897.111,0.160625
4064.0,899.566,0.149937
4080.0,902.018,0.139344
4096.0,904.468,0.129031
4112.0,906.913,0.118813
4128.0,909.371,0.108594
4144.0,911.826,0.098563
4160.0,914.295,0.088625
4176.0,916.752,0.079
4192.0,919.232,0.069531
4208.0,921.705,0.060156
4224.0,924.185,0.050813
4240.0,926.656,0.041531
4256.0,929.134,0.032406
4272.0,931.619,0.023531
4288.0,934.103,0.014719
4304.0,936.584,0.006219
4320.0,939.07,-0.002313
4336.0,941.551,-0.010719
4352.0,944.046,-0.019
4368.0,946.536,-0.02675
4384.0,949.031,-0.03475
4400.0,951.523,-0.042656
4416.0,954.017,-0.050125
4432.0,956.496,-0.057813
4448.0,958.979,-0.064375
4464.0,961.466,-0.0715
4480.0,963.966,-0.078094
4496.0,966.47,-0.084406
4512.0,968.971,-0.090094
4528.0,971.474,-0.095344
4544.0,973.97,-0.10025
4560.0,976.452,-0.104406
4576.0,978.901,-0.107719
4592.0,981.15,-0.109219
4608.0,983.484,-0.109469
4624.0,985.854,-0.109125
4640.0,988.241,-0.109281
4656.0,990.631,-0.109375
4672.0,993.032,-0.109625
4688.0,995.431,-0.109531
4704.0,997.829,-0.109563
4720.0,999.994,-0.109594