File: Wood/Calibration_Data/TUBS/TUBS_TGA_N2_10K_R1.csv
Time (s),Temperature (K),Mass (mg)
0.0,304.878,1.04
40.0,304.716,1.034
84.0,304.619,1.03
200.0,304.47,1.024
403.0,304.361,1.02
845.0,304.336,1.018
1011.0,304.329,1.016
1211.52,305.0,1.016
1234.898,308.0,1.017
1255.476,311.0,1.017
1275.113,314.0,1.016
1294.14,317.0,1.016
1312.673,320.0,1.015
1330.813,323.0,1.014
1349.063,326.0,1.014
1367.031,329.0,1.013
1384.951,332.0,1.012
1402.935,335.0,1.011
1420.682,338.0,1.01
1438.629,341.0,1.008
1456.488,344.0,1.008
1474.386,347.0,1.008
1492.257,350.0,1.007
1510.057,353.0,1.006
1527.924,356.0,1.006
1545.727,359.0,1.006
1563.577,362.0,1.005
1581.421,365.0,1.005
1599.214,368.0,1.005
1616.983,371.0,1.005
1634.923,374.0,1.005
1652.721,377.0,1.005
1670.395,380.0,1.005
1688.247,383.0,1.005
1706.011,386.0,1.005
1723.738,389.0,1.005
1741.598,392.0,1.005
1759.269,395.0,1.005
1776.968,398.0,1.005
1794.784,401.0,1.005
1812.529,404.0,1.005
1830.323,407.0,1.004
1847.976,410.0,1.004
1865.767,413.0,1.004
1883.541,416.0,1.004
1901.212,419.0,1.004
1918.982,422.0,1.004
1936.723,425.0,1.003
1954.406,428.0,1.003
1972.237,431.0,1.003
1989.923,434.0,1.002
2007.645,437.0,1.002
2025.353,440.0,1.001
2043.076,443.0,1.0
2060.833,446.0,0.999
2078.535,449.0,0.999
2096.252,452.0,0.998
2113.927,455.0,0.997
2131.742,458.0,0.996
2149.376,461.0,0.996
2167.083,464.0,0.995
2184.804,467.0,0.994
2202.551,470.0,0.993
2220.222,473.0,0.993
2238.022,476.0,0.992
2255.69,479.0,0.991
2273.424,482.0,0.99
2291.193,485.0,0.989
2308.908,488.0,0.988
2326.675,491.0,0.987
2344.395,494.0,0.986
2362.157,497.0,0.984
2379.891,500.0,0.983
2397.712,503.0,0.981
2415.414,506.0,0.98
2433.194,509.0,0.978
2451.018,512.0,0.976
2468.823,515.0,0.973
2486.606,518.0,0.97
2504.458,521.0,0.968
2522.232,524.0,0.964
2539.994,527.0,0.961
2557.833,530.0,0.957
2575.669,533.0,0.953
2593.448,536.0,0.948
2611.311,539.0,0.944
2629.205,542.0,0.939
2647.064,545.0,0.933
2664.912,548.0,0.928
2682.718,551.0,0.922
2700.6,554.0,0.916
2718.43,557.0,0.909
2736.302,560.0,0.902
2754.17,563.0,0.894
2772.108,566.0,0.886
2790.03,569.0,0.877
2807.867,572.0,0.867
2825.717,575.0,0.857
2843.695,578.0,0.846
2861.564,581.0,0.835
2879.512,584.0,0.822
2897.401,587.0,0.81
2915.343,590.0,0.796
2933.237,593.0,0.781
2951.195,596.0,0.766
2969.14,599.0,0.749
2987.11,602.0,0.732
3004.961,605.0,0.715
3022.947,608.0,0.696
3040.939,611.0,0.678
3058.876,614.0,0.658
3076.819,617.0,0.638
3094.796,620.0,0.618
3112.81,623.0,0.596
3130.825,626.0,0.574
3148.764,629.0,0.551
3166.706,632.0,0.527
3184.724,635.0,0.502
3202.756,638.0,0.475
3220.803,641.0,0.447
3238.814,644.0,0.418
3256.853,647.0,0.389
3274.836,650.0,0.361
3292.856,653.0,0.334
3310.859,656.0,0.311
3328.861,659.0,0.293
3346.834,662.0,0.28
3364.893,665.0,0.272
3382.914,668.0,0.267
3400.948,671.0,0.264
3418.944,674.0,0.262
3436.976,677.0,0.26
3455.048,680.0,0.257
3473.105,683.0,0.255
3491.158,686.0,0.254
3509.214,689.0,0.251
3527.313,692.0,0.249
3545.437,695.0,0.248
3563.481,698.0,0.246
3581.652,701.0,0.244
3599.731,704.0,0.242
3617.749,707.0,0.24
3635.885,710.0,0.239
3653.981,713.0,0.237
3672.103,716.0,0.235
3690.253,719.0,0.234
3708.369,722.0,0.232
3726.476,725.0,0.231
3744.599,728.0,0.23
3762.7,731.0,0.228
3780.827,734.0,0.227
3799.0,737.0,0.226
3817.096,740.0,0.225
3835.247,743.0,0.223
3853.347,746.0,0.223
3871.503,749.0,0.222
3889.654,752.0,0.221
3907.783,755.0,0.22
3925.855,758.0,0.219
3944.012,761.0,0.218
3962.139,764.0,0.217
3980.223,767.0,0.217
3998.325,770.0,0.216
4016.446,773.0,0.215
4034.551,776.0,0.214
4052.625,779.0,0.214
4070.756,782.0,0.213
4088.864,785.0,0.212
4107.017,788.0,0.212
4125.064,791.0,0.211
4143.108,794.0,0.211
4161.266,797.0,0.21
4179.331,800.0,0.209
4197.42,803.0,0.209
4215.488,806.0,0.208
4233.586,809.0,0.207
4251.636,812.0,0.207
4269.799,815.0,0.206
4287.792,818.0,0.206
4305.876,821.0,0.205
4323.929,824.0,0.205
4341.988,827.0,0.204
4360.081,830.0,0.203
4378.156,833.0,0.203
4396.248,836.0,0.202
4414.254,839.0,0.202
4432.347,842.0,0.202
4450.418,845.0,0.201
4468.488,848.0,0.201
4486.572,851.0,0.2
4504.627,854.0,0.2
4522.587,857.0,0.199
4540.644,860.0,0.199
4558.732,863.0,0.198
4576.879,866.0,0.198
4594.898,869.0,0.197
4613.0,872.0,0.199
4630.97,875.0,0.197
4649.078,878.0,0.196
4667.132,881.0,0.196
4685.235,884.0,0.195
4703.307,887.0,0.195
4721.418,890.0,0.195
4739.488,893.0,0.195
4757.622,896.0,0.194
4775.706,899.0,0.194
4793.829,902.0,0.193
4811.897,905.0,0.193
4830.017,908.0,0.193
4848.108,911.0,0.193
4866.196,914.0,0.192
4884.313,917.0,0.192
4902.379,920.0,0.191
4920.467,923.0,0.191
4938.568,926.0,0.191
4956.633,929.0,0.19
4974.731,932.0,0.19
4992.823,935.0,0.19
5010.911,938.0,0.19
5028.971,941.0,0.189
5047.066,944.0,0.189
5065.094,947.0,0.189
5083.185,950.0,0.189
5101.263,953.0,0.189
5119.396,956.0,0.188
5137.544,959.0,0.188
5155.667,962.0,0.188
5173.791,965.0,0.187
5191.935,968.0,0.187
5210.023,971.0,0.187
5228.12,974.0,0.187
5246.193,977.0,0.187
5264.232,980.0,0.186
5282.393,983.0,0.186
5300.48,986.0,0.186
5318.549,989.0,0.185
5336.638,992.0,0.185
5354.765,995.0,0.185
5372.865,998.0,0.185
5390.895,1001.0,0.184
5409.088,1004.0,0.184
5427.14,1007.0,0.184
5445.21,1010.0,0.184
5463.328,1013.0,0.183
5481.407,1016.0,0.183
5499.42,1019.0,0.183
5517.466,1022.0,0.183
5535.591,1025.0,0.182
5553.61,1028.0,0.182
5571.671,1031.0,0.182
5589.79,1034.0,0.182
5607.825,1037.0,0.181
5625.84,1040.0,0.181
5643.907,1043.0,0.181
5661.927,1046.0,0.18
5679.925,1049.0,0.18
5697.905,1052.0,0.18
5715.964,1055.0,0.179
5734.012,1058.0,0.179
5752.052,1061.0,0.179
5770.112,1064.0,0.179
5788.099,1067.0,0.179
5809.837,1070.0,0.178
5870.0,1072.268,0.178
5930.0,1072.603,0.177
5990.0,1072.708,0.176
6050.0,1072.757,0.177
6110.0,1072.792,0.176
6120.0,1072.795,0.176