File: Wood/Calibration_Data/TUBS/TUBS_TGA_N2_20K_R2.csv
Time (s),Temperature (K),Mass (mg)
0.0,305.118,1.01
9.0,305.068,1.009
18.0,305.023,1.008
27.0,304.981,1.007
36.0,304.952,1.006
45.0,304.913,1.005
54.0,304.878,1.005
63.0,304.866,1.004
72.0,304.857,1.003
81.0,304.816,1.003
90.0,304.798,1.002
99.0,304.774,1.002
108.0,304.756,1.001
117.0,304.744,1.001
126.0,304.735,1.0
135.0,304.708,1.0
144.0,304.688,1.0
153.0,304.664,0.999
162.0,304.657,0.999
171.0,304.653,0.999
180.0,304.633,0.999
189.0,304.632,0.998
198.0,304.608,0.998
207.0,304.61,0.998
216.0,304.606,0.998
225.0,304.586,0.997
234.0,304.58,0.997
243.0,304.582,0.997
252.0,304.572,0.997
261.0,304.58,0.997
270.0,304.558,0.997
279.0,304.557,0.996
288.0,304.554,0.996
297.0,304.544,0.996
306.0,304.533,0.996
315.0,304.524,0.996
324.0,304.522,0.996
333.0,304.523,0.996
342.0,304.515,0.996
351.0,304.518,0.995
360.0,304.494,0.995
369.0,304.497,0.995
378.0,304.5,0.995
387.0,304.504,0.995
396.0,304.491,0.995
405.0,304.495,0.995
414.0,304.479,0.995
423.0,304.489,0.995
432.0,304.495,0.995
441.0,304.497,0.995
450.0,304.5,0.994
459.0,304.493,0.994
468.0,304.488,0.994
477.0,304.489,0.994
486.0,304.49,0.994
495.0,304.477,0.994
504.0,304.487,0.994
513.0,304.487,0.994
522.0,304.482,0.994
531.0,304.492,0.994
540.0,304.476,0.994
549.0,304.495,0.994
558.0,304.483,0.994
567.0,304.476,0.994
576.0,304.466,0.994
585.0,304.481,0.994
594.0,304.495,0.994
603.0,304.476,0.994
612.0,304.492,0.993
621.0,304.481,0.993
630.0,304.468,0.993
639.0,304.478,0.993
648.0,304.474,0.993
657.0,304.485,0.993
666.0,304.483,0.993
675.0,304.467,0.993
684.0,304.48,0.993
693.0,304.475,0.993
702.0,304.473,0.993
711.0,304.485,0.993
720.0,304.46,0.993
729.0,304.48,0.993
738.0,304.484,0.993
747.0,304.472,0.993
756.0,304.476,0.993
765.0,304.455,0.993
774.0,304.473,0.993
783.0,304.452,0.993
792.0,304.472,0.993
801.0,304.477,0.993
810.0,304.469,0.993
819.0,304.486,0.993
828.0,304.482,0.993
837.0,304.464,0.993
846.0,304.477,0.993
855.0,304.463,0.993
864.0,304.481,0.993
873.0,304.476,0.993
882.0,304.468,0.993
891.0,304.469,0.993
900.0,304.469,0.993
909.0,304.479,0.993
918.0,304.468,0.993
927.0,304.477,0.993
936.0,304.477,0.993
945.0,304.464,0.992
954.0,304.475,0.993
963.0,304.468,0.993
972.0,304.458,0.993
981.0,304.45,0.993
990.0,304.475,0.993
999.0,304.451,0.993
1008.0,304.481,0.992
1017.0,304.469,0.992
1026.0,304.486,0.992
1035.0,304.474,0.992
1044.0,304.473,0.992
1053.0,304.487,0.992
1062.0,304.459,0.992
1071.0,304.463,0.992
1080.0,304.487,0.992
1089.0,304.472,0.992
1098.0,304.465,0.992
1107.0,304.475,0.992
1116.0,304.47,0.992
1125.0,304.467,0.992
1134.0,304.468,0.992
1143.0,304.474,0.992
1152.0,304.464,0.993
1161.0,304.461,0.993
1170.0,304.462,0.993
1179.0,304.46,0.992
1188.0,304.471,0.992
1197.0,304.462,0.992
1206.0,305.983,0.99
1215.0,310.462,0.993
1224.0,316.258,0.995
1233.0,322.2,0.993
1242.0,328.174,0.991
1251.0,334.154,0.99
1260.0,340.107,0.989
1269.0,346.057,0.987
1278.0,352.01,0.986
1287.0,357.972,0.984
1296.0,363.929,0.983
1305.0,369.906,0.982
1314.0,375.88,0.982
1323.0,381.875,0.981
1332.0,387.87,0.981
1341.0,393.895,0.981
1350.0,399.918,0.98
1359.0,405.952,0.98
1368.0,412.006,0.98
1377.0,418.072,0.98
1386.0,424.146,0.98
1395.0,430.216,0.98
1404.0,436.322,0.979
1413.0,442.427,0.979
1422.0,448.552,0.978
1431.0,454.671,0.977
1440.0,460.823,0.976
1449.0,466.967,0.975
1458.0,473.141,0.973
1467.0,479.3,0.971
1476.0,485.468,0.968
1485.0,491.633,0.965
1494.0,497.787,0.963
1503.0,503.952,0.959
1512.0,510.128,0.956
1521.0,516.279,0.951
1530.0,522.443,0.947
1539.0,528.584,0.941
1548.0,534.74,0.934
1557.0,540.882,0.926
1566.0,547.022,0.917
1575.0,553.15,0.907
1584.0,559.29,0.896
1593.0,565.403,0.885
1602.0,571.515,0.872
1611.0,577.632,0.859
1620.0,583.723,0.845
1629.0,589.818,0.829
1638.0,595.894,0.811
1647.0,601.966,0.791
1656.0,608.023,0.769
1665.0,614.082,0.743
1674.0,620.114,0.716
1683.0,626.155,0.685
1692.0,632.153,0.652
1701.0,638.179,0.617
1710.0,644.178,0.58
1719.0,650.172,0.54
1728.0,656.146,0.498
1737.0,662.11,0.451
1746.0,668.065,0.4
1755.0,674.014,0.346
1764.0,679.961,0.292
1773.0,685.919,0.245
1782.0,691.88,0.214
1791.0,697.842,0.198
1800.0,703.792,0.191
1809.0,709.735,0.187
1818.0,715.683,0.183
1827.0,721.623,0.179
1836.0,727.562,0.175
1845.0,733.491,0.172
1854.0,739.415,0.169
1863.0,745.343,0.166
1872.0,751.277,0.162
1881.0,757.197,0.16
1890.0,763.111,0.157
1899.0,769.04,0.155
1908.0,774.979,0.153
1917.0,780.893,0.151
1926.0,786.825,0.15
1935.0,792.749,0.148
1944.0,798.681,0.147
1953.0,804.613,0.145
1962.0,810.548,0.144
1971.0,816.49,0.143
1980.0,822.416,0.141
1989.0,828.356,0.14
1998.0,834.29,0.139
2007.0,840.225,0.138
2016.0,846.165,0.137
2025.0,852.105,0.136
2034.0,858.039,0.135
2043.0,863.981,0.134
2052.0,869.931,0.133
2061.0,875.877,0.132
2070.0,881.82,0.131
2079.0,887.773,0.13
2088.0,893.723,0.129
2097.0,899.682,0.129
2106.0,905.648,0.128
2115.0,911.606,0.127
2124.0,917.556,0.126
2133.0,923.514,0.126
2142.0,929.489,0.125
2151.0,935.453,0.124
2160.0,941.421,0.124
2169.0,947.381,0.123
2178.0,953.342,0.123
2187.0,959.3,0.122
2196.0,965.269,0.121
2205.0,971.243,0.121
2214.0,977.204,0.121
2223.0,983.186,0.12
2232.0,989.147,0.12
2241.0,995.124,0.119
2250.0,1001.09,0.119
2259.0,1007.066,0.118
2268.0,1013.046,0.118
2277.0,1019.019,0.118
2286.0,1024.997,0.117
2295.0,1030.996,0.117
2304.0,1036.986,0.116
2313.0,1042.976,0.116
2322.0,1048.968,0.116
2331.0,1054.949,0.115
2340.0,1059.642,0.115
2349.0,1063.028,0.114
2358.0,1065.387,0.114
2367.0,1067.058,0.114
2376.0,1068.238,0.114
2385.0,1069.099,0.113
2394.0,1069.719,0.113
2403.0,1070.184,0.113
2412.0,1070.536,0.113
2421.0,1070.802,0.113
2430.0,1071.008,0.113
2439.0,1071.179,0.112
2448.0,1071.326,0.112
2457.0,1071.424,0.112
2466.0,1071.535,0.112
2475.0,1071.617,0.112
2484.0,1071.68,0.112
2493.0,1071.753,0.112
2502.0,1071.802,0.112
2511.0,1071.846,0.111
2520.0,1071.892,0.111
2529.0,1071.924,0.111
2538.0,1071.957,0.111
2547.0,1071.989,0.111
2556.0,1072.026,0.111
2565.0,1072.049,0.111
2574.0,1072.067,0.111
2583.0,1072.088,0.11
2592.0,1072.113,0.11
2601.0,1072.124,0.11
2610.0,1072.137,0.11
2619.0,1072.155,0.11
2628.0,1072.166,0.11
2637.0,1072.18,0.11
2646.0,1072.183,0.11
2655.0,1072.208,0.11