File: Wood/Calibration_Data/TUBS/TUBS_Wood_TGA_N2_50K_R5.csv
Time (s),Temperature (K),Mass (mg)
0.0,304.936,4.009
16.0,304.847,4.003
31.0,304.796,3.997
48.0,304.737,3.991
66.0,304.693,3.985
86.0,304.665,3.979
107.0,304.623,3.973
131.0,304.572,3.967
158.0,304.544,3.961
188.0,304.508,3.955
221.0,304.483,3.949
258.0,304.458,3.943
299.0,304.43,3.937
346.0,304.428,3.931
404.0,304.398,3.925
469.0,304.411,3.919
551.0,304.441,3.913
654.0,304.395,3.907
789.0,304.412,3.901
956.0,304.424,3.895
1200.0,304.438,3.889
1208.385,307.5,3.887
1212.957,310.5,3.889
1216.797,313.5,3.89
1220.464,316.5,3.891
1224.053,319.5,3.89
1227.667,322.5,3.889
1231.26,325.5,3.888
1234.829,328.5,3.887
1238.411,331.5,3.885
1242.002,334.5,3.884
1245.591,337.5,3.882
1249.177,340.5,3.881
1252.785,343.5,3.878
1256.382,346.5,3.876
1259.969,349.5,3.873
1263.589,352.5,3.87
1267.2,355.5,3.867
1270.794,358.5,3.864
1274.417,361.5,3.861
1278.017,364.5,3.857
1281.624,367.5,3.853
1285.221,370.5,3.851
1288.807,373.5,3.847
1292.405,376.5,3.845
1295.984,379.5,3.842
1299.565,382.5,3.84
1303.152,385.5,3.838
1306.72,388.5,3.837
1310.295,391.5,3.836
1313.857,394.5,3.835
1317.432,397.5,3.834
1321.01,400.5,3.833
1324.577,403.5,3.833
1328.14,406.5,3.833
1331.708,409.5,3.832
1335.259,412.5,3.832
1338.828,415.5,3.832
1342.366,418.5,3.832
1345.923,421.5,3.832
1349.481,424.5,3.831
1353.025,427.5,3.831
1356.562,430.5,3.831
1360.106,433.5,3.83
1363.642,436.5,3.83
1367.166,439.5,3.83
1370.7,442.5,3.829
1374.23,445.5,3.828
1377.768,448.5,3.828
1381.287,451.5,3.827
1384.797,454.5,3.826
1388.307,457.5,3.825
1391.827,460.5,3.824
1395.333,463.5,3.823
1398.83,466.5,3.821
1402.34,469.5,3.82
1405.841,472.5,3.817
1409.337,475.5,3.816
1412.839,478.5,3.813
1416.348,481.5,3.81
1419.84,484.5,3.806
1423.338,487.5,3.803
1426.845,490.5,3.799
1430.331,493.5,3.794
1433.826,496.5,3.789
1437.318,499.5,3.783
1440.809,502.5,3.777
1444.292,505.5,3.771
1447.785,508.5,3.764
1451.281,511.5,3.757
1454.763,514.5,3.75
1458.258,517.5,3.743
1461.753,520.5,3.736
1465.239,523.5,3.729
1468.729,526.5,3.72
1472.224,529.5,3.712
1475.712,532.5,3.703
1479.201,535.5,3.692
1482.701,538.5,3.682
1486.186,541.5,3.67
1489.697,544.5,3.658
1493.184,547.5,3.645
1496.694,550.5,3.631
1500.188,553.5,3.616
1503.691,556.5,3.601
1507.196,559.5,3.584
1510.709,562.5,3.565
1514.204,565.5,3.547
1517.724,568.5,3.527
1521.226,571.5,3.506
1524.744,574.5,3.483
1528.264,577.5,3.459
1531.776,580.5,3.434
1535.306,583.5,3.408
1538.823,586.5,3.379
1542.348,589.5,3.35
1545.885,592.5,3.318
1549.413,595.5,3.285
1552.948,598.5,3.251
1556.485,601.5,3.214
1560.018,604.5,3.176
1563.56,607.5,3.135
1567.098,610.5,3.093
1570.65,613.5,3.048
1574.202,616.5,3.0
1577.757,619.5,2.95
1581.315,622.5,2.897
1584.882,625.5,2.843
1588.45,628.5,2.785
1592.019,631.5,2.726
1595.607,634.5,2.663
1599.164,637.5,2.6
1602.75,640.5,2.534
1606.332,643.5,2.466
1609.925,646.5,2.396
1613.527,649.5,2.323
1617.13,652.5,2.248
1620.731,655.5,2.17
1624.351,658.5,2.088
1627.979,661.5,2.003
1631.588,664.5,1.914
1635.227,667.5,1.819
1638.845,670.5,1.72
1642.476,673.5,1.618
1646.091,676.5,1.512
1649.713,679.5,1.407
1653.314,682.5,1.306
1656.892,685.5,1.211
1660.471,688.5,1.127
1664.04,691.5,1.057
1667.616,694.5,1.004
1671.196,697.5,0.965
1674.783,700.5,0.94
1678.388,703.5,0.922
1681.99,706.5,0.908
1685.603,709.5,0.897
1689.218,712.5,0.887
1692.83,715.5,0.878
1696.446,718.5,0.87
1700.074,721.5,0.862
1703.698,724.5,0.854
1707.326,727.5,0.846
1710.945,730.5,0.839
1714.587,733.5,0.832
1718.217,736.5,0.825
1721.841,739.5,0.817
1725.495,742.5,0.811
1729.122,745.5,0.805
1732.771,748.5,0.798
1736.409,751.5,0.792
1740.046,754.5,0.787
1743.703,757.5,0.781
1747.345,760.5,0.776
1750.982,763.5,0.771
1754.637,766.5,0.766
1758.28,769.5,0.762
1761.936,772.5,0.757
1765.573,775.5,0.753
1769.221,778.5,0.749
1772.871,781.5,0.745
1776.525,784.5,0.741
1780.175,787.5,0.738
1783.825,790.5,0.735
1787.469,793.5,0.732
1791.116,796.5,0.729
1794.758,799.5,0.725
1798.406,802.5,0.723
1802.059,805.5,0.72
1805.704,808.5,0.717
1809.345,811.5,0.714
1812.978,814.5,0.711
1816.625,817.5,0.708
1820.273,820.5,0.706
1823.912,823.5,0.703
1827.552,826.5,0.701
1831.195,829.5,0.699
1834.83,832.5,0.696
1838.484,835.5,0.694
1842.126,838.5,0.692
1845.774,841.5,0.689
1849.417,844.5,0.687
1853.061,847.5,0.685
1856.7,850.5,0.683
1860.341,853.5,0.681
1863.984,856.5,0.679
1867.624,859.5,0.676
1871.258,862.5,0.675
1874.898,865.5,0.673
1878.54,868.5,0.67
1882.172,871.5,0.669
1885.807,874.5,0.667
1889.435,877.5,0.665
1893.068,880.5,0.663
1896.694,883.5,0.661
1900.333,886.5,0.659
1903.96,889.5,0.657
1907.588,892.5,0.655
1911.213,895.5,0.654
1914.844,898.5,0.652
1918.48,901.5,0.651
1922.108,904.5,0.649
1925.725,907.5,0.647
1929.348,910.5,0.646
1932.965,913.5,0.644
1936.594,916.5,0.642
1940.203,919.5,0.641
1943.825,922.5,0.64
1947.448,925.5,0.638
1951.062,928.5,0.637
1954.678,931.5,0.635
1958.295,934.5,0.634
1961.906,937.5,0.633
1965.529,940.5,0.631
1969.13,943.5,0.63
1972.746,946.5,0.629
1976.354,949.5,0.628
1979.965,952.5,0.627
1983.579,955.5,0.625
1987.175,958.5,0.624
1990.791,961.5,0.623
1994.394,964.5,0.623
1998.008,967.5,0.621
2001.608,970.5,0.62
2005.226,973.5,0.62
2008.832,976.5,0.619
2012.435,979.5,0.618
2016.04,982.5,0.617
2019.651,985.5,0.616
2023.263,988.5,0.615
2026.867,991.5,0.614
2030.472,994.5,0.614
2034.079,997.5,0.613
2037.677,1000.5,0.612
2041.286,1003.5,0.611
2044.887,1006.5,0.61
2048.484,1009.5,0.61
2052.089,1012.5,0.609
2055.701,1015.5,0.608
2059.301,1018.5,0.607
2062.898,1021.5,0.607
2066.495,1024.5,0.606
2070.098,1027.5,0.605
2073.696,1030.5,0.604
2077.303,1033.5,0.604
2080.901,1036.5,0.603
2084.493,1039.5,0.603
2088.084,1042.5,0.602
2091.691,1045.5,0.601
2095.275,1048.5,0.6
2098.876,1051.5,0.599
2102.47,1054.5,0.599
2107.491,1057.5,0.598
2113.61,1060.5,0.597
2124.0,1064.08,0.595
2184.0,1070.466,0.59
2244.0,1071.525,0.586
2304.0,1071.894,0.583
2364.0,1072.048,0.581
2424.0,1072.104,0.579