File: Wood/Calibration_Data/TUBS/TUBS_Wood_TGA_N2_50K_R12.csv
Time (s),Temperature (K),Mass (mg)
0.0,305.002,1.01982
9.0,304.948,1.01886
18.0,304.932,1.01778
27.0,304.894,1.01671
36.0,304.86,1.01591
45.0,304.827,1.01513
54.0,304.801,1.01426
63.0,304.771,1.01361
72.0,304.746,1.01304
81.0,304.734,1.01244
90.0,304.718,1.0117
99.0,304.683,1.01114
108.0,304.684,1.0107
117.0,304.672,1.01028
126.0,304.666,1.00994
135.0,304.647,1.0096
144.0,304.626,1.00917
153.0,304.61,1.00877
162.0,304.61,1.00844
171.0,304.607,1.00822
180.0,304.582,1.0081
189.0,304.567,1.00777
198.0,304.557,1.00751
207.0,304.552,1.00725
217.0,304.538,1.00711
226.0,304.531,1.00684
235.0,304.523,1.00655
244.0,304.528,1.00639
256.0,304.52,1.00615
265.0,304.508,1.00585
276.0,304.492,1.00573
287.0,304.481,1.00557
296.0,304.484,1.00543
305.0,304.484,1.00524
314.0,304.49,1.00504
324.0,304.469,1.0049
334.0,304.464,1.00472
343.0,304.477,1.0046
352.0,304.47,1.00448
363.0,304.445,1.00433
376.0,304.444,1.00425
389.0,304.448,1.00428
400.0,304.459,1.00418
411.0,304.441,1.00407
420.0,304.46,1.00389
429.0,304.452,1.00374
438.0,304.439,1.00362
455.0,304.429,1.00356
464.0,304.451,1.00336
479.0,304.432,1.00331
494.0,304.431,1.0033
508.0,304.433,1.00325
524.0,304.445,1.00319
536.0,304.424,1.00318
547.0,304.415,1.00309
559.0,304.445,1.00312
571.0,304.426,1.00294
582.0,304.432,1.0028
594.0,304.442,1.00279
615.0,304.437,1.0028
629.0,304.422,1.00269
641.0,304.442,1.00261
656.0,304.439,1.00257
667.0,304.45,1.0027
684.0,304.432,1.00262
708.0,304.443,1.00251
717.0,304.449,1.00235
746.0,304.44,1.00227
756.0,304.438,1.00216
770.0,304.428,1.00225
781.0,304.429,1.00236
791.0,304.432,1.00231
800.0,304.417,1.00206
811.0,304.439,1.00196
842.0,304.431,1.00199
854.0,304.434,1.00194
872.0,304.44,1.00185
893.0,304.422,1.00176
912.0,304.429,1.00181
922.0,304.427,1.00166
932.0,304.439,1.00187
948.0,304.453,1.00183
968.0,304.453,1.00168
978.0,304.441,1.00156
992.0,304.439,1.00148
1011.0,304.438,1.00157
1022.0,304.449,1.00147
1035.0,304.435,1.00148
1052.0,304.439,1.00158
1070.0,304.438,1.00168
1095.0,304.442,1.00158
1121.0,304.437,1.00148
1148.0,304.434,1.00147
1162.0,304.438,1.0015
1175.0,304.459,1.00153
1190.0,304.426,1.00144
1200.0,304.461,1.00099
1211.222,309.0,0.99973
1216.887,313.5,1.00322
1222.221,318.0,1.0033
1227.465,322.5,1.00224
1232.732,327.0,1.00057
1238.016,331.5,0.99924
1243.322,336.0,0.99818
1248.64,340.5,0.99719
1253.988,345.0,0.99612
1259.333,349.5,0.99493
1264.712,354.0,0.9937
1270.083,358.5,0.99262
1275.447,363.0,0.99172
1280.825,367.5,0.99097
1286.196,372.0,0.99028
1291.575,376.5,0.98973
1296.957,381.0,0.98939
1302.333,385.5,0.98911
1307.697,390.0,0.9889
1313.082,394.5,0.98878
1318.408,399.0,0.98863
1323.765,403.5,0.98854
1329.114,408.0,0.98846
1334.459,412.5,0.98831
1339.795,417.0,0.98817
1345.116,421.5,0.98799
1350.429,426.0,0.98784
1355.742,430.5,0.98767
1361.042,435.0,0.98744
1366.345,439.5,0.9871
1371.63,444.0,0.98666
1376.915,448.5,0.98615
1382.185,453.0,0.98563
1387.446,457.5,0.98497
1392.716,462.0,0.9841
1397.963,466.5,0.98308
1403.215,471.0,0.98185
1408.452,475.5,0.98034
1413.689,480.0,0.97871
1418.922,484.5,0.97692
1424.155,489.0,0.97497
1429.383,493.5,0.97291
1434.611,498.0,0.97078
1439.841,502.5,0.9686
1445.062,507.0,0.96633
1450.304,511.5,0.96384
1455.529,516.0,0.96116
1460.761,520.5,0.95818
1466.0,525.0,0.95488
1471.229,529.5,0.95115
1476.458,534.0,0.94695
1481.696,538.5,0.94227
1486.934,543.0,0.93716
1492.178,547.5,0.93139
1497.415,552.0,0.9251
1502.656,556.5,0.91842
1507.912,561.0,0.91136
1513.155,565.5,0.90398
1518.433,570.0,0.89619
1523.69,574.5,0.88796
1528.945,579.0,0.87934
1534.216,583.5,0.8702
1539.499,588.0,0.86047
1544.779,592.5,0.85002
1550.07,597.0,0.83863
1555.362,601.5,0.82622
1560.671,606.0,0.8126
1565.987,610.5,0.79774
1571.297,615.0,0.78161
1576.631,619.5,0.76392
1581.968,624.0,0.74485
1587.303,628.5,0.72453
1592.661,633.0,0.70288
1598.006,637.5,0.68011
1603.366,642.0,0.65617
1608.743,646.5,0.6311
1614.118,651.0,0.60495
1619.521,655.5,0.57737
1624.908,660.0,0.54845
1630.318,664.5,0.5177
1635.723,669.0,0.48471
1641.146,673.5,0.44931
1646.574,678.0,0.41211
1651.996,682.5,0.37429
1657.421,687.0,0.33829
1662.84,691.5,0.30708
1668.245,696.0,0.28404
1673.687,700.5,0.26882
1679.113,705.0,0.26017
1684.548,709.5,0.25545
1689.974,714.0,0.2521
1695.422,718.5,0.24929
1700.859,723.0,0.24666
1706.317,727.5,0.24409
1711.777,732.0,0.24159
1717.236,736.5,0.23922
1722.686,741.0,0.23702
1728.146,745.5,0.23483
1733.607,750.0,0.2327
1739.073,754.5,0.23069
1744.539,759.0,0.22882
1749.995,763.5,0.22704
1755.475,768.0,0.22543
1760.942,772.5,0.22393
1766.414,777.0,0.22249
1771.873,781.5,0.22118
1777.349,786.0,0.21996
1782.817,790.5,0.2188
1788.296,795.0,0.21774
1793.756,799.5,0.21669
1799.228,804.0,0.21573
1804.687,808.5,0.21481
1810.152,813.0,0.21383
1815.621,817.5,0.21288
1821.071,822.0,0.21198
1826.543,826.5,0.21114
1831.999,831.0,0.21042
1837.479,835.5,0.20972
1842.94,840.0,0.20901
1848.421,844.5,0.2083
1853.881,849.0,0.20764
1859.346,853.5,0.20697
1864.817,858.0,0.20627
1870.281,862.5,0.20556
1875.738,867.0,0.20485
1881.2,871.5,0.20414
1886.658,876.0,0.20338
1892.116,880.5,0.20272
1897.578,885.0,0.20213
1903.039,889.5,0.20152
1908.49,894.0,0.20099
1913.951,898.5,0.20043
1919.408,903.0,0.19978
1924.85,907.5,0.19919
1930.304,912.0,0.19867
1935.75,916.5,0.19822
1941.186,921.0,0.19779
1946.646,925.5,0.19731
1952.101,930.0,0.19688
1957.538,934.5,0.1965
1962.999,939.0,0.19605
1968.43,943.5,0.19558
1973.874,948.0,0.19508
1979.312,952.5,0.19461
1984.749,957.0,0.19426
1990.196,961.5,0.19383
1995.631,966.0,0.19351
2001.062,970.5,0.19317
2006.511,975.0,0.19282
2011.944,979.5,0.19252
2017.39,984.0,0.19231
2022.825,988.5,0.19203
2028.276,993.0,0.19163
2033.71,997.5,0.19137
2039.143,1002.0,0.1911
2044.562,1006.5,0.19079
2049.998,1011.0,0.19044
2055.424,1015.5,0.19016
2060.846,1020.0,0.18992
2066.266,1024.5,0.18963
2071.695,1029.0,0.18942
2077.113,1033.5,0.18914
2082.529,1038.0,0.18884
2087.959,1042.5,0.18859
2093.371,1047.0,0.18832
2098.782,1051.5,0.18806
2104.203,1056.0,0.18778
2113.166,1060.5,0.1874
2134.0,1066.521,0.18699
2224.0,1071.481,0.18555
2314.0,1072.177,0.18421
2404.0,1072.379,0.18323
2424.0,1072.403,0.18326