File: Wood/Calibration_Data/TUBS/TUBS_Wood_MCC_N2_30K_R2.csv
Time (s),Temperature (K),HRR (W/g)
2.7,474.0,-0.05
5.5,475.5,-0.35
8.4,477.0,0.83
11.5,478.5,0.03
14.5,480.0,-0.42
17.6,481.5,-0.43
20.6,483.0,-0.5
23.6,484.5,-0.87
26.7,486.0,-0.3
29.6,487.5,0.23
32.5,489.0,0.08
35.6,490.5,-0.76
38.6,492.0,-0.93
41.6,493.5,-1.03
44.7,495.0,1.34
47.6,496.5,1.36
50.5,498.0,3.54
53.4,499.5,3.86
56.5,501.0,2.12
59.5,502.5,2.4
62.5,504.0,2.27
65.3,505.5,1.72
68.4,507.0,2.98
71.4,508.5,2.81
74.4,510.0,3.5
77.3,511.5,2.28
80.4,513.0,1.8
83.0,514.5,2.78
86.2,516.0,4.19
89.0,517.5,4.69
92.0,519.0,5.34
95.1,520.5,6.57
98.0,522.0,6.15
101.1,523.5,6.58
104.0,525.0,6.72
106.9,526.5,7.27
109.8,528.0,8.31
112.8,529.5,8.69
115.8,531.0,9.34
118.7,532.5,9.95
121.6,534.0,9.77
124.7,535.5,12.1
127.5,537.0,12.48
130.5,538.5,12.39
133.4,540.0,10.71
136.3,541.5,10.48
139.3,543.0,11.37
142.3,544.5,11.41
145.3,546.0,12.1
148.3,547.5,11.94
151.2,549.0,11.69
154.1,550.5,12.58
157.1,552.0,13.53
160.0,553.5,13.79
163.0,555.0,14.95
166.0,556.5,14.46
168.9,558.0,16.84
171.9,559.5,17.37
174.9,561.0,17.57
177.9,562.5,18.51
180.8,564.0,19.22
183.8,565.5,18.18
186.9,567.0,19.69
189.8,568.5,20.16
192.8,570.0,21.37
195.8,571.5,22.02
198.8,573.0,22.05
201.6,574.5,22.34
204.7,576.0,21.53
207.7,577.5,22.2
210.6,579.0,23.65
213.6,580.5,24.12
216.7,582.0,24.43
219.6,583.5,25.78
222.7,585.0,27.01
225.8,586.5,27.48
228.8,588.0,28.12
231.8,589.5,28.71
234.7,591.0,27.49
237.8,592.5,29.45
240.8,594.0,30.24
243.8,595.5,31.05
246.9,597.0,31.82
249.8,598.5,32.8
252.8,600.0,34.32
255.8,601.5,35.5
258.9,603.0,37.4
261.8,604.5,37.76
264.8,606.0,39.62
267.8,607.5,39.24
270.7,609.0,40.27
273.7,610.5,39.38
276.7,612.0,41.18
279.7,613.5,41.43
282.7,615.0,43.02
285.7,616.5,42.8
288.7,618.0,41.81
291.7,619.5,42.86
294.6,621.0,44.88
297.6,622.5,46.31
300.4,624.0,46.69
303.4,625.5,48.17
306.4,627.0,49.82
309.5,628.5,49.54
312.4,630.0,49.58
315.7,631.5,50.07
318.6,633.0,52.23
321.7,634.5,53.61
324.7,636.0,54.75
327.8,637.5,55.3
330.8,639.0,56.13
333.9,640.5,56.76
337.0,642.0,57.89
340.0,643.5,57.47
343.2,645.0,58.75
346.2,646.5,60.63
349.2,648.0,61.44
352.3,649.5,62.69
355.3,651.0,62.92
358.3,652.5,62.27
361.2,654.0,62.56
364.4,655.5,62.13
367.3,657.0,60.8
370.3,658.5,58.9
373.4,660.0,56.87
376.4,661.5,53.84
379.4,663.0,50.15
382.3,664.5,47.0
385.4,666.0,41.73
388.3,667.5,37.3
391.3,669.0,33.25
394.3,670.5,29.27
397.4,672.0,23.26
400.4,673.5,20.38
403.4,675.0,17.09
406.6,676.5,12.45
409.7,678.0,10.82
412.6,679.5,8.88
415.7,681.0,7.54
418.7,682.5,7.38
421.7,684.0,4.89
424.8,685.5,3.11
427.9,687.0,2.33
431.0,688.5,1.53
434.0,690.0,0.55
436.9,691.5,-0.45
440.0,693.0,-0.64
443.1,694.5,-0.92
446.1,696.0,-1.01
449.1,697.5,-0.47
452.3,699.0,-1.77
455.2,700.5,-1.72
458.2,702.0,-1.47
461.2,703.5,-1.63
464.3,705.0,-1.23
467.3,706.5,-1.47
470.3,708.0,-1.44
473.3,709.5,-2.74
476.3,711.0,-2.41
479.3,712.5,-1.64
482.3,714.0,-1.7
485.4,715.5,-1.91
488.3,717.0,-0.69
491.3,718.5,-0.91
494.3,720.0,-0.66
497.2,721.5,0.18
500.3,723.0,0.67
503.3,724.5,1.06
506.4,726.0,0.42
509.3,727.5,0.63
512.3,729.0,1.15
515.3,730.5,1.26
518.4,732.0,0.84
521.3,733.5,0.27
524.3,735.0,0.32
527.4,736.5,-0.36
530.5,738.0,-0.22
533.5,739.5,0.38
536.5,741.0,-0.2
539.6,742.5,-0.93
542.6,744.0,-0.23
545.7,745.5,-0.67
548.8,747.0,-0.94
551.8,748.5,0.04
554.9,750.0,-0.34
557.9,751.5,0.14
561.0,753.0,0.05
564.1,754.5,-0.07
567.1,756.0,-0.43
570.1,757.5,-1.98
573.2,759.0,-2.45
576.3,760.5,-1.63
579.2,762.0,-0.54
582.3,763.5,0.33
585.4,765.0,0.19
588.3,766.5,0.56
591.4,768.0,-0.69
594.4,769.5,-1.31
597.5,771.0,-1.37
600.4,772.5,-0.42
603.5,774.0,-1.11
606.5,775.5,-1.32
609.6,777.0,-0.67
612.6,778.5,-0.81
615.7,780.0,-0.72
618.8,781.5,-1.41
621.8,783.0,-0.31
624.8,784.5,-0.71
628.0,786.0,-0.18
630.9,787.5,-0.03
633.9,789.0,-1.31
636.9,790.5,-1.51
639.9,792.0,-2.91
643.0,793.5,-2.08
646.1,795.0,-1.29
649.2,796.5,-2.97
652.2,798.0,-1.34
655.2,799.5,-1.04
658.3,801.0,-0.93
661.3,802.5,-1.91
664.3,804.0,-2.17
667.4,805.5,-2.12
670.4,807.0,-1.64
673.5,808.5,-1.34
676.4,810.0,-1.03
679.5,811.5,-1.99
682.4,813.0,-2.37
685.4,814.5,-2.6
688.4,816.0,-2.94
691.4,817.5,-1.02
694.5,819.0,-2.21
697.4,820.5,-2.15
700.3,822.0,-1.94
703.3,823.5,-1.71
706.4,825.0,-2.15
709.4,826.5,-1.58
712.4,828.0,-2.83
715.4,829.5,-2.09
718.3,831.0,-1.24
721.4,832.5,-1.81
724.3,834.0,-1.77
727.3,835.5,-2.31
730.4,837.0,-2.69
733.3,838.5,-2.94
736.4,840.0,-1.84
739.4,841.5,-1.38
742.4,843.0,0.34
745.4,844.5,-0.73
748.5,846.0,-0.09
751.5,847.5,-0.22
754.5,849.0,0.03
757.5,850.5,-1.18
760.4,852.0,-0.83
763.4,853.5,-0.88
766.4,855.0,-1.42
769.4,856.5,-1.79
772.3,858.0,-1.55
775.3,859.5,-2.05
778.2,861.0,-1.98
781.2,862.5,-0.56
784.3,864.0,-1.83
787.3,865.5,-1.79
790.2,867.0,-3.8
793.2,868.5,-3.38
796.3,870.0,-2.63
799.2,871.5,-2.4
802.2,873.0,-1.77