File: Wood/Calibration_Data/TUBS/TUBS_Wood_TGA_N2_50K_R13.csv
Time (s),Temperature (K),Mass (mg)
0.0,305.047,0.4999
9.0,305.032,0.49954
18.0,304.978,0.49903
27.0,304.935,0.49863
36.0,304.907,0.49831
45.0,304.88,0.49802
54.0,304.844,0.4978
63.0,304.821,0.49746
72.0,304.809,0.49714
81.0,304.783,0.49689
90.0,304.764,0.49661
99.0,304.744,0.49639
108.0,304.729,0.4962
117.0,304.708,0.49613
133.0,304.678,0.49608
142.0,304.682,0.49594
151.0,304.66,0.49574
160.0,304.659,0.49554
169.0,304.644,0.4954
178.0,304.618,0.49548
187.0,304.623,0.49553
196.0,304.596,0.49539
205.0,304.611,0.49518
215.0,304.573,0.49511
224.0,304.591,0.49497
236.0,304.553,0.49493
245.0,304.56,0.49488
254.0,304.539,0.49493
263.0,304.561,0.49482
272.0,304.531,0.49459
281.0,304.539,0.49456
290.0,304.524,0.49444
303.0,304.515,0.49442
312.0,304.512,0.49429
322.0,304.5,0.49432
332.0,304.495,0.49425
341.0,304.505,0.49417
350.0,304.492,0.49418
359.0,304.497,0.49413
370.0,304.483,0.49414
379.0,304.487,0.49415
388.0,304.477,0.49413
398.0,304.481,0.49404
410.0,304.469,0.49401
419.0,304.486,0.49386
428.0,304.471,0.49386
437.0,304.482,0.49371
446.0,304.465,0.4939
455.0,304.472,0.49387
466.0,304.448,0.49383
478.0,304.451,0.49381
487.0,304.449,0.49373
496.0,304.45,0.49365
505.0,304.458,0.49373
514.0,304.448,0.4938
523.0,304.444,0.49371
532.0,304.468,0.49366
541.0,304.451,0.49382
550.0,304.457,0.49374
559.0,304.466,0.49372
575.0,304.455,0.49373
584.0,304.461,0.49372
593.0,304.466,0.49364
603.0,304.449,0.4937
613.0,304.448,0.49373
624.0,304.434,0.49364
633.0,304.442,0.49364
642.0,304.459,0.49371
652.0,304.432,0.49373
661.0,304.455,0.4938
670.0,304.453,0.49381
679.0,304.459,0.49376
688.0,304.44,0.49389
697.0,304.459,0.49393
706.0,304.448,0.49384
719.0,304.457,0.49379
728.0,304.442,0.49372
737.0,304.461,0.49364
763.0,304.454,0.49364
772.0,304.461,0.49371
781.0,304.455,0.49376
791.0,304.466,0.49369
800.0,304.453,0.49371
809.0,304.453,0.49368
819.0,304.458,0.49363
831.0,304.458,0.49357
840.0,304.442,0.49357
850.0,304.436,0.49363
888.0,304.438,0.49361
897.0,304.443,0.49347
906.0,304.434,0.49351
915.0,304.445,0.49349
924.0,304.431,0.49346
933.0,304.444,0.49352
942.0,304.45,0.4935
951.0,304.446,0.49353
963.0,304.446,0.49349
973.0,304.467,0.49334
986.0,304.459,0.49332
995.0,304.462,0.49331
1004.0,304.462,0.49333
1019.0,304.467,0.49329
1029.0,304.45,0.49332
1038.0,304.451,0.49341
1047.0,304.467,0.49336
1058.0,304.453,0.49333
1119.0,304.447,0.49339
1128.0,304.434,0.49326
1140.0,304.462,0.49322
1149.0,304.464,0.49319
1158.0,304.456,0.49323
1169.0,304.466,0.49315
1179.0,304.457,0.49329
1188.0,304.46,0.49322
1197.0,304.477,0.49323
1209.118,307.5,0.49059
1215.436,312.0,0.49434
1220.962,316.5,0.49536
1226.384,321.0,0.4948
1231.785,325.5,0.49349
1237.177,330.0,0.49251
1242.564,334.5,0.4919
1247.976,339.0,0.4915
1253.394,343.5,0.49108
1258.806,348.0,0.49065
1264.243,352.5,0.49025
1269.676,357.0,0.48989
1275.1,361.5,0.48953
1280.532,366.0,0.48924
1285.96,370.5,0.48894
1291.373,375.0,0.48873
1296.809,379.5,0.48861
1302.233,384.0,0.48853
1307.642,388.5,0.48851
1313.037,393.0,0.48857
1318.432,397.5,0.48856
1323.828,402.0,0.48862
1329.202,406.5,0.4886
1334.581,411.0,0.48857
1339.941,415.5,0.48855
1345.307,420.0,0.4885
1350.64,424.5,0.48838
1356.001,429.0,0.48831
1361.334,433.5,0.48831
1366.659,438.0,0.48826
1371.98,442.5,0.48802
1377.293,447.0,0.48775
1382.597,451.5,0.48751
1387.89,456.0,0.48714
1393.18,460.5,0.48672
1398.455,465.0,0.48624
1403.728,469.5,0.48568
1408.992,474.0,0.48503
1414.263,478.5,0.48433
1419.52,483.0,0.48362
1424.77,487.5,0.48285
1430.028,492.0,0.48199
1435.279,496.5,0.48105
1440.524,501.0,0.48006
1445.769,505.5,0.47902
1451.006,510.0,0.47777
1456.265,514.5,0.47638
1461.514,519.0,0.47494
1466.767,523.5,0.47334
1472.02,528.0,0.47146
1477.273,532.5,0.46935
1482.525,537.0,0.46706
1487.783,541.5,0.46456
1493.041,546.0,0.4618
1498.292,550.5,0.45875
1503.556,555.0,0.45551
1508.823,559.5,0.45209
1514.095,564.0,0.44852
1519.37,568.5,0.44472
1524.643,573.0,0.44068
1529.927,577.5,0.43645
1535.218,582.0,0.43194
1540.505,586.5,0.42706
1545.799,591.0,0.42189
1551.108,595.5,0.41624
1556.416,600.0,0.41003
1561.732,604.5,0.40323
1567.048,609.0,0.39581
1572.395,613.5,0.38763
1577.716,618.0,0.37887
1583.044,622.5,0.36945
1588.397,627.0,0.35914
1593.756,631.5,0.34819
1599.116,636.0,0.33673
1604.482,640.5,0.32469
1609.86,645.0,0.31203
1615.243,649.5,0.29869
1620.62,654.0,0.28482
1626.018,658.5,0.27028
1631.433,663.0,0.25484
1636.855,667.5,0.23829
1642.265,672.0,0.22069
1647.682,676.5,0.20208
1653.119,681.0,0.18282
1658.538,685.5,0.164
1663.967,690.0,0.14714
1669.395,694.5,0.13372
1674.823,699.0,0.1244
1680.265,703.5,0.11918
1685.705,708.0,0.11619
1691.158,712.5,0.11432
1696.607,717.0,0.11288
1702.05,721.5,0.11148
1707.504,726.0,0.11017
1712.951,730.5,0.1089
1718.417,735.0,0.10772
1723.885,739.5,0.10658
1729.346,744.0,0.10542
1734.819,748.5,0.10433
1740.278,753.0,0.10331
1745.741,757.5,0.10233
1751.201,762.0,0.10141
1756.666,766.5,0.10064
1762.136,771.0,0.09991
1767.601,775.5,0.09913
1773.055,780.0,0.09839
1778.529,784.5,0.09775
1784.007,789.0,0.09722
1789.475,793.5,0.09669
1794.939,798.0,0.09615
1800.404,802.5,0.09566
1805.88,807.0,0.09517
1811.344,811.5,0.09466
1816.814,816.0,0.09422
1822.275,820.5,0.09383
1827.75,825.0,0.0934
1833.212,829.5,0.093
1838.683,834.0,0.0926
1844.14,838.5,0.09217
1849.612,843.0,0.09185
1855.078,847.5,0.09152
1860.537,852.0,0.09119
1866.012,856.5,0.09092
1871.472,861.0,0.09064
1876.936,865.5,0.09029
1882.397,870.0,0.08994
1887.838,874.5,0.08959
1893.294,879.0,0.08924
1898.752,883.5,0.08882
1904.189,888.0,0.08848
1909.643,892.5,0.08827
1915.085,897.0,0.08805
1920.525,901.5,0.08783
1925.971,906.0,0.08758
1931.417,910.5,0.08733
1936.848,915.0,0.08704
1942.288,919.5,0.08674
1947.727,924.0,0.08645
1953.168,928.5,0.08632
1958.609,933.0,0.08617
1964.036,937.5,0.08587
1969.468,942.0,0.08561
1974.903,946.5,0.0854
1980.345,951.0,0.0852
1985.775,955.5,0.08501
1991.209,960.0,0.08484
1996.632,964.5,0.08463
2002.055,969.0,0.0844
2007.486,973.5,0.08422
2012.894,978.0,0.08408
2018.328,982.5,0.08394
2023.742,987.0,0.0838
2029.168,991.5,0.08371
2034.58,996.0,0.08353
2039.996,1000.5,0.08333
2045.415,1005.0,0.08314
2050.822,1009.5,0.08294
2056.222,1014.0,0.08277
2061.624,1018.5,0.08268
2067.024,1023.0,0.08258
2072.425,1027.5,0.08247
2077.813,1032.0,0.08236
2083.218,1036.5,0.08224
2088.61,1041.0,0.08211
2094.013,1045.5,0.08197
2099.405,1050.0,0.0818
2105.233,1054.5,0.08168
2113.665,1059.0,0.08155
2144.0,1067.191,0.08124
2234.0,1071.461,0.08049
2324.0,1072.111,0.07984
2414.0,1072.308,0.07946
2424.0,1072.327,0.07944