File: Wood/Calibration_Data/TUBS/TUBS_Wood_TGA_N2_20K_R3.csv
Time (s),Temperature (K),Mass (mg)
0.0,304.943,1.04
43.0,304.743,1.034
123.0,304.584,1.028
304.0,304.432,1.022
889.0,304.385,1.018
1208.58,305.5,1.016
1219.968,308.5,1.021
1230.035,311.5,1.019
1239.875,314.5,1.018
1249.506,317.5,1.017
1259.09,320.5,1.017
1268.494,323.5,1.017
1277.824,326.5,1.016
1287.024,329.5,1.015
1296.243,332.5,1.014
1305.442,335.5,1.014
1314.568,338.5,1.013
1323.67,341.5,1.012
1332.717,344.5,1.011
1341.745,347.5,1.01
1350.773,350.5,1.01
1359.821,353.5,1.009
1368.799,356.5,1.008
1377.766,359.5,1.008
1386.755,362.5,1.008
1395.686,365.5,1.007
1404.633,368.5,1.007
1413.544,371.5,1.007
1422.49,374.5,1.007
1431.404,377.5,1.007
1440.279,380.5,1.007
1449.209,383.5,1.006
1458.076,386.5,1.006
1466.952,389.5,1.006
1475.789,392.5,1.006
1484.646,395.5,1.006
1493.5,398.5,1.006
1502.329,401.5,1.006
1511.144,404.5,1.006
1519.971,407.5,1.006
1528.8,410.5,1.006
1537.658,413.5,1.006
1546.457,416.5,1.006
1555.247,419.5,1.006
1564.058,422.5,1.006
1572.868,425.5,1.005
1581.676,428.5,1.005
1590.455,431.5,1.005
1599.3,434.5,1.005
1608.069,437.5,1.005
1616.871,440.5,1.004
1625.623,443.5,1.004
1634.414,446.5,1.003
1643.202,449.5,1.003
1651.936,452.5,1.002
1660.726,455.5,1.001
1669.519,458.5,1.0
1678.286,461.5,1.0
1687.058,464.5,0.999
1695.821,467.5,0.998
1704.607,470.5,0.997
1713.42,473.5,0.996
1722.183,476.5,0.995
1730.971,479.5,0.994
1739.789,482.5,0.993
1748.585,485.5,0.992
1757.354,488.5,0.991
1766.177,491.5,0.99
1774.955,494.5,0.989
1783.795,497.5,0.988
1792.56,500.5,0.987
1801.38,503.5,0.985
1810.184,506.5,0.984
1819.003,509.5,0.982
1827.825,512.5,0.981
1836.624,515.5,0.979
1845.49,518.5,0.977
1854.309,521.5,0.974
1863.149,524.5,0.972
1871.979,527.5,0.969
1880.822,530.5,0.966
1889.668,533.5,0.962
1898.541,536.5,0.958
1907.366,539.5,0.955
1916.263,542.5,0.951
1925.122,545.5,0.946
1933.962,548.5,0.942
1942.883,551.5,0.937
1951.748,554.5,0.932
1960.64,557.5,0.926
1969.538,560.5,0.921
1978.407,563.5,0.915
1987.286,566.5,0.909
1996.203,569.5,0.902
2005.092,572.5,0.895
2013.988,575.5,0.887
2022.945,578.5,0.879
2031.849,581.5,0.871
2040.737,584.5,0.861
2049.697,587.5,0.851
2058.611,590.5,0.841
2067.538,593.5,0.83
2076.506,596.5,0.818
2085.428,599.5,0.806
2094.385,602.5,0.792
2103.344,605.5,0.778
2112.318,608.5,0.763
2121.249,611.5,0.748
2130.22,614.5,0.732
2139.202,617.5,0.715
2148.157,620.5,0.698
2157.153,623.5,0.679
2166.152,626.5,0.661
2175.135,629.5,0.642
2184.123,632.5,0.623
2193.113,635.5,0.602
2202.13,638.5,0.581
2211.095,641.5,0.559
2220.142,644.5,0.537
2229.186,647.5,0.512
2238.21,650.5,0.487
2247.248,653.5,0.461
2256.283,656.5,0.433
2265.336,659.5,0.406
2274.377,662.5,0.378
2283.418,665.5,0.351
2292.444,668.5,0.327
2301.466,671.5,0.306
2310.476,674.5,0.291
2319.534,677.5,0.279
2328.559,680.5,0.272
2337.571,683.5,0.268
2346.588,686.5,0.265
2355.642,689.5,0.263
2364.696,692.5,0.261
2373.704,695.5,0.259
2382.803,698.5,0.257
2391.84,701.5,0.255
2400.879,704.5,0.253
2409.952,707.5,0.251
2419.006,710.5,0.25
2428.089,713.5,0.248
2437.133,716.5,0.246
2446.246,719.5,0.245
2455.325,722.5,0.243
2464.382,725.5,0.241
2473.486,728.5,0.24
2482.553,731.5,0.238
2491.634,734.5,0.237
2500.738,737.5,0.235
2509.791,740.5,0.234
2518.894,743.5,0.233
2527.982,746.5,0.232
2537.075,749.5,0.231
2546.141,752.5,0.229
2555.197,755.5,0.228
2564.318,758.5,0.227
2573.409,761.5,0.226
2582.464,764.5,0.226
2591.6,767.5,0.225
2600.651,770.5,0.224
2609.74,773.5,0.223
2618.797,776.5,0.222
2627.905,779.5,0.221
2636.947,782.5,0.221
2646.033,785.5,0.22
2655.116,788.5,0.219
2664.167,791.5,0.219
2673.204,794.5,0.218
2682.317,797.5,0.217
2691.373,800.5,0.217
2700.418,803.5,0.216
2709.505,806.5,0.215
2718.594,809.5,0.215
2727.655,812.5,0.214
2736.71,815.5,0.214
2745.752,818.5,0.213
2754.813,821.5,0.213
2763.894,824.5,0.212
2772.943,827.5,0.211
2782.012,830.5,0.211
2791.051,833.5,0.21
2800.137,836.5,0.21
2809.161,839.5,0.209
2818.224,842.5,0.209
2827.277,845.5,0.209
2836.305,848.5,0.208
2845.35,851.5,0.207
2854.424,854.5,0.207
2863.481,857.5,0.207
2872.548,860.5,0.206
2881.586,863.5,0.206
2890.625,866.5,0.205
2899.686,869.5,0.205
2908.718,872.5,0.205
2917.775,875.5,0.204
2926.829,878.5,0.204
2935.904,881.5,0.203
2944.939,884.5,0.203
2954.003,887.5,0.202
2963.037,890.5,0.202
2972.096,893.5,0.202
2981.155,896.5,0.201
2990.193,899.5,0.201
2999.26,902.5,0.2
3008.313,905.5,0.2
3017.381,908.5,0.2
3026.426,911.5,0.199
3035.467,914.5,0.199
3044.497,917.5,0.199
3053.559,920.5,0.199
3062.623,923.5,0.198
3071.642,926.5,0.198
3080.684,929.5,0.197
3089.734,932.5,0.197
3098.785,935.5,0.197
3107.853,938.5,0.197
3116.881,941.5,0.197
3125.927,944.5,0.196
3134.997,947.5,0.196
3144.052,950.5,0.196
3153.128,953.5,0.196
3162.176,956.5,0.196
3171.217,959.5,0.195
3180.271,962.5,0.195
3189.35,965.5,0.195
3198.395,968.5,0.195
3207.452,971.5,0.194
3216.511,974.5,0.194
3225.533,977.5,0.194
3234.537,980.5,0.194
3243.596,983.5,0.194
3252.628,986.5,0.193
3261.658,989.5,0.193
3270.69,992.5,0.193
3279.755,995.5,0.193
3288.77,998.5,0.193
3297.854,1001.5,0.193
3306.855,1004.5,0.192
3315.866,1007.5,0.192
3324.893,1010.5,0.192
3333.943,1013.5,0.192
3342.967,1016.5,0.191
3352.006,1019.5,0.191
3361.041,1022.5,0.191
3370.081,1025.5,0.191
3379.111,1028.5,0.191
3388.097,1031.5,0.191
3397.103,1034.5,0.19
3406.104,1037.5,0.19
3415.124,1040.5,0.19
3424.131,1043.5,0.19
3433.146,1046.5,0.19
3442.157,1049.5,0.19
3451.171,1052.5,0.189
3460.187,1055.5,0.189
3469.213,1058.5,0.189
3478.217,1061.5,0.189
3487.248,1064.5,0.189
3500.11,1067.5,0.188
3550.0,1071.482,0.188
3610.0,1072.237,0.187
3670.0,1072.451,0.186
3730.0,1072.556,0.186
3790.0,1072.604,0.185
3810.0,1072.616,0.185