File: Wood/Calibration_Data/TUBS/TUBS_Wood_TGA_N2_50K_R6.csv
Time (s),Temperature (K),Mass (mg)
0.0,304.923,3.999
16.0,304.86,3.993
31.0,304.804,3.987
47.0,304.728,3.981
65.0,304.691,3.975
84.0,304.671,3.969
105.0,304.631,3.963
129.0,304.591,3.957
155.0,304.562,3.951
184.0,304.511,3.945
216.0,304.504,3.939
253.0,304.484,3.933
294.0,304.461,3.927
340.0,304.433,3.921
398.0,304.433,3.915
460.0,304.432,3.909
541.0,304.419,3.903
638.0,304.423,3.897
770.0,304.446,3.891
936.0,304.445,3.885
1195.0,304.441,3.879
1208.477,307.5,3.876
1213.081,310.5,3.878
1216.919,313.5,3.88
1220.615,316.5,3.881
1224.233,319.5,3.88
1227.849,322.5,3.879
1231.425,325.5,3.878
1235.03,328.5,3.877
1238.611,331.5,3.875
1242.218,334.5,3.874
1245.819,337.5,3.873
1249.426,340.5,3.871
1253.046,343.5,3.869
1256.66,346.5,3.866
1260.27,349.5,3.864
1263.91,352.5,3.861
1267.529,355.5,3.857
1271.142,358.5,3.855
1274.768,361.5,3.851
1278.382,364.5,3.848
1282.006,367.5,3.844
1285.614,370.5,3.841
1289.235,373.5,3.838
1292.827,376.5,3.835
1296.422,379.5,3.833
1300.007,382.5,3.831
1303.604,385.5,3.829
1307.186,388.5,3.828
1310.782,391.5,3.827
1314.36,394.5,3.826
1317.952,397.5,3.825
1321.517,400.5,3.825
1325.114,403.5,3.824
1328.674,406.5,3.824
1332.254,409.5,3.824
1335.828,412.5,3.824
1339.4,415.5,3.824
1342.965,418.5,3.823
1346.535,421.5,3.823
1350.088,424.5,3.823
1353.648,427.5,3.823
1357.201,430.5,3.822
1360.753,433.5,3.822
1364.302,436.5,3.822
1367.845,439.5,3.821
1371.386,442.5,3.821
1374.931,445.5,3.82
1378.467,448.5,3.82
1381.991,451.5,3.819
1385.526,454.5,3.818
1389.067,457.5,3.817
1392.59,460.5,3.816
1396.11,463.5,3.815
1399.615,466.5,3.813
1403.133,469.5,3.812
1406.65,472.5,3.81
1410.163,475.5,3.808
1413.669,478.5,3.805
1417.173,481.5,3.803
1420.678,484.5,3.799
1424.193,487.5,3.796
1427.699,490.5,3.792
1431.198,493.5,3.788
1434.704,496.5,3.783
1438.194,499.5,3.778
1441.692,502.5,3.772
1445.193,505.5,3.766
1448.682,508.5,3.76
1452.178,511.5,3.753
1455.685,514.5,3.747
1459.174,517.5,3.74
1462.68,520.5,3.732
1466.183,523.5,3.725
1469.675,526.5,3.717
1473.165,529.5,3.709
1476.669,532.5,3.699
1480.163,535.5,3.69
1483.671,538.5,3.679
1487.171,541.5,3.668
1490.683,544.5,3.656
1494.185,547.5,3.643
1497.692,550.5,3.629
1501.197,553.5,3.615
1504.702,556.5,3.599
1508.219,559.5,3.583
1511.732,562.5,3.565
1515.24,565.5,3.547
1518.769,568.5,3.527
1522.272,571.5,3.506
1525.803,574.5,3.483
1529.326,577.5,3.46
1532.844,580.5,3.435
1536.389,583.5,3.409
1539.908,586.5,3.382
1543.439,589.5,3.352
1546.963,592.5,3.322
1550.497,595.5,3.29
1554.044,598.5,3.256
1557.588,601.5,3.219
1561.135,604.5,3.182
1564.681,607.5,3.142
1568.233,610.5,3.099
1571.783,613.5,3.056
1575.343,616.5,3.009
1578.903,619.5,2.959
1582.467,622.5,2.908
1586.026,625.5,2.855
1589.599,628.5,2.797
1593.177,631.5,2.739
1596.751,634.5,2.678
1600.335,637.5,2.615
1603.92,640.5,2.55
1607.511,643.5,2.483
1611.114,646.5,2.414
1614.7,649.5,2.343
1618.304,652.5,2.269
1621.916,655.5,2.192
1625.529,658.5,2.112
1629.154,661.5,2.027
1632.779,664.5,1.94
1636.422,667.5,1.846
1640.044,670.5,1.749
1643.675,673.5,1.648
1647.304,676.5,1.544
1650.906,679.5,1.442
1654.507,682.5,1.341
1658.096,685.5,1.248
1661.669,688.5,1.165
1665.234,691.5,1.096
1668.81,694.5,1.045
1672.389,697.5,1.007
1675.989,700.5,0.982
1679.565,703.5,0.964
1683.167,706.5,0.95
1686.78,709.5,0.94
1690.393,712.5,0.93
1694.007,715.5,0.921
1697.624,718.5,0.912
1701.238,721.5,0.904
1704.857,724.5,0.896
1708.486,727.5,0.889
1712.094,730.5,0.881
1715.722,733.5,0.874
1719.349,736.5,0.867
1722.981,739.5,0.86
1726.599,742.5,0.854
1730.235,745.5,0.847
1733.856,748.5,0.841
1737.498,751.5,0.835
1741.12,754.5,0.829
1744.749,757.5,0.824
1748.392,760.5,0.818
1752.025,763.5,0.813
1755.646,766.5,0.808
1759.285,769.5,0.804
1762.914,772.5,0.799
1766.522,775.5,0.794
1770.149,778.5,0.791
1773.759,781.5,0.786
1777.385,784.5,0.783
1780.986,787.5,0.779
1784.583,790.5,0.775
1788.172,793.5,0.771
1791.755,796.5,0.767
1795.344,799.5,0.764
1798.921,802.5,0.761
1802.486,805.5,0.758
1806.058,808.5,0.754
1809.622,811.5,0.75
1813.191,814.5,0.748
1816.754,817.5,0.744
1820.313,820.5,0.741
1823.881,823.5,0.738
1827.455,826.5,0.735
1831.032,829.5,0.732
1834.589,832.5,0.729
1838.179,835.5,0.726
1841.779,838.5,0.723
1845.356,841.5,0.721
1848.939,844.5,0.718
1852.529,847.5,0.715
1856.121,850.5,0.713
1859.724,853.5,0.71
1863.317,856.5,0.708
1866.922,859.5,0.705
1870.517,862.5,0.703
1874.128,865.5,0.701
1877.729,868.5,0.698
1881.34,871.5,0.696
1884.95,874.5,0.694
1888.565,877.5,0.691
1892.177,880.5,0.69
1895.79,883.5,0.687
1899.406,886.5,0.686
1903.019,889.5,0.683
1906.642,892.5,0.681
1910.261,895.5,0.68
1913.879,898.5,0.677
1917.501,901.5,0.675
1921.117,904.5,0.674
1924.737,907.5,0.672
1928.369,910.5,0.67
1931.992,913.5,0.669
1935.614,916.5,0.667
1939.239,919.5,0.665
1942.848,922.5,0.663
1946.474,925.5,0.662
1950.093,928.5,0.66
1953.714,931.5,0.659
1957.325,934.5,0.657
1960.951,937.5,0.656
1964.574,940.5,0.654
1968.2,943.5,0.653
1971.82,946.5,0.651
1975.448,949.5,0.65
1979.082,952.5,0.648
1982.705,955.5,0.647
1986.326,958.5,0.646
1989.954,961.5,0.644
1993.597,964.5,0.643
1997.222,967.5,0.642
2000.865,970.5,0.64
2004.494,973.5,0.639
2008.137,976.5,0.638
2011.787,979.5,0.636
2015.42,982.5,0.635
2019.056,985.5,0.634
2022.697,988.5,0.633
2026.33,991.5,0.632
2029.96,994.5,0.631
2033.599,997.5,0.63
2037.22,1000.5,0.629
2040.866,1003.5,0.628
2044.491,1006.5,0.627
2048.122,1009.5,0.626
2051.736,1012.5,0.625
2055.368,1015.5,0.624
2058.982,1018.5,0.623
2062.602,1021.5,0.623
2066.227,1024.5,0.622
2069.834,1027.5,0.621
2073.463,1030.5,0.62
2077.077,1033.5,0.619
2080.695,1036.5,0.619
2084.314,1039.5,0.618
2087.922,1042.5,0.617
2091.54,1045.5,0.616
2095.141,1048.5,0.615
2098.762,1051.5,0.614
2102.366,1054.5,0.614
2107.681,1057.5,0.612
2114.039,1060.5,0.611
2124.0,1063.863,0.609
2184.0,1070.248,0.602
2244.0,1071.282,0.598
2304.0,1071.66,0.594
2364.0,1071.81,0.591
2424.0,1071.875,0.588