File: Wood/Calibration_Data/TUBS/TUBS_TGA_N2_5K_R3.csv
Time (s),Temperature (K),Mass (mg)
0.0,304.917,0.95
45.0,304.741,0.944
141.0,304.546,0.938
480.0,304.374,0.932
983.0,304.354,0.93
1236.123,306.0,0.931
1278.011,309.0,0.93
1315.577,312.0,0.93
1352.111,315.0,0.929
1387.737,318.0,0.931
1423.5,321.0,0.93
1459.795,324.0,0.929
1495.826,327.0,0.928
1531.822,330.0,0.928
1567.903,333.0,0.927
1603.953,336.0,0.926
1639.908,339.0,0.925
1675.899,342.0,0.925
1711.976,345.0,0.924
1748.022,348.0,0.924
1783.812,351.0,0.924
1820.048,354.0,0.924
1856.0,357.0,0.924
1891.805,360.0,0.924
1927.634,363.0,0.924
1963.756,366.0,0.923
1999.533,369.0,0.923
2035.608,372.0,0.923
2071.313,375.0,0.923
2107.186,378.0,0.923
2143.0,381.0,0.923
2178.988,384.0,0.923
2214.813,387.0,0.923
2250.561,390.0,0.923
2286.119,393.0,0.923
2321.949,396.0,0.923
2357.69,399.0,0.923
2393.649,402.0,0.923
2429.229,405.0,0.923
2465.038,408.0,0.922
2500.763,411.0,0.922
2536.493,414.0,0.922
2572.179,417.0,0.922
2607.88,420.0,0.921
2643.459,423.0,0.921
2679.346,426.0,0.921
2714.951,429.0,0.92
2750.622,432.0,0.919
2786.231,435.0,0.919
2821.969,438.0,0.919
2857.635,441.0,0.918
2893.388,444.0,0.918
2928.955,447.0,0.917
2964.552,450.0,0.916
3000.086,453.0,0.916
3035.732,456.0,0.916
3071.513,459.0,0.915
3107.108,462.0,0.915
3142.729,465.0,0.914
3178.515,468.0,0.914
3214.038,471.0,0.913
3249.732,474.0,0.912
3285.342,477.0,0.911
3321.013,480.0,0.91
3356.764,483.0,0.909
3392.316,486.0,0.908
3427.988,489.0,0.907
3463.727,492.0,0.905
3499.417,495.0,0.904
3535.245,498.0,0.902
3570.888,501.0,0.9
3606.635,504.0,0.898
3642.355,507.0,0.896
3677.874,510.0,0.893
3713.724,513.0,0.89
3749.487,516.0,0.887
3785.213,519.0,0.884
3820.854,522.0,0.88
3856.821,525.0,0.876
3892.646,528.0,0.872
3928.162,531.0,0.867
3964.022,534.0,0.863
3999.783,537.0,0.858
4035.542,540.0,0.852
4071.357,543.0,0.846
4107.198,546.0,0.84
4142.97,549.0,0.833
4178.593,552.0,0.826
4214.481,555.0,0.819
4250.389,558.0,0.811
4286.159,561.0,0.802
4322.114,564.0,0.793
4357.84,567.0,0.783
4393.663,570.0,0.772
4429.566,573.0,0.761
4465.333,576.0,0.749
4501.244,579.0,0.737
4537.045,582.0,0.723
4572.986,585.0,0.709
4608.807,588.0,0.694
4644.714,591.0,0.678
4680.688,594.0,0.662
4716.375,597.0,0.646
4752.429,600.0,0.628
4788.195,603.0,0.61
4824.151,606.0,0.592
4860.023,609.0,0.573
4895.987,612.0,0.553
4931.869,615.0,0.532
4967.884,618.0,0.511
5003.9,621.0,0.488
5039.726,624.0,0.464
5075.677,627.0,0.438
5111.706,630.0,0.412
5147.67,633.0,0.385
5183.559,636.0,0.358
5219.544,639.0,0.332
5255.654,642.0,0.309
5291.473,645.0,0.29
5327.364,648.0,0.276
5363.422,651.0,0.266
5399.385,654.0,0.261
5435.376,657.0,0.258
5471.529,660.0,0.256
5507.474,663.0,0.254
5543.5,666.0,0.252
5579.617,669.0,0.25
5615.683,672.0,0.248
5651.773,675.0,0.246
5687.977,678.0,0.244
5724.103,681.0,0.243
5760.222,684.0,0.241
5796.31,687.0,0.239
5832.418,690.0,0.237
5868.5,693.0,0.235
5904.724,696.0,0.233
5940.732,699.0,0.232
5976.862,702.0,0.23
6013.111,705.0,0.229
6049.345,708.0,0.227
6085.56,711.0,0.226
6121.663,714.0,0.224
6157.878,717.0,0.223
6193.964,720.0,0.222
6230.211,723.0,0.22
6266.374,726.0,0.219
6302.712,729.0,0.218
6338.912,732.0,0.217
6375.112,735.0,0.217
6411.282,738.0,0.215
6447.553,741.0,0.215
6483.697,744.0,0.214
6520.023,747.0,0.213
6556.146,750.0,0.212
6592.301,753.0,0.212
6628.609,756.0,0.211
6664.837,759.0,0.21
6700.948,762.0,0.209
6737.143,765.0,0.209
6773.244,768.0,0.208
6809.454,771.0,0.208
6845.74,774.0,0.207
6881.953,777.0,0.206
6917.89,780.0,0.206
6954.06,783.0,0.205
6990.225,786.0,0.205
7026.429,789.0,0.204
7062.565,792.0,0.203
7098.533,795.0,0.203
7134.639,798.0,0.202
7170.756,801.0,0.202
7207.089,804.0,0.201
7243.215,807.0,0.201
7279.333,810.0,0.2
7315.444,813.0,0.2
7351.581,816.0,0.199
7387.638,819.0,0.199
7423.761,822.0,0.199
7460.021,825.0,0.198
7496.218,828.0,0.198
7532.221,831.0,0.197
7568.291,834.0,0.197
7604.51,837.0,0.196
7640.675,840.0,0.195
7676.767,843.0,0.195
7712.931,846.0,0.194
7748.893,849.0,0.194
7784.9,852.0,0.194
7821.094,855.0,0.193
7857.143,858.0,0.193
7893.289,861.0,0.192
7929.488,864.0,0.192
7965.547,867.0,0.191
8001.633,870.0,0.191
8037.791,873.0,0.191
8073.949,876.0,0.19
8110.073,879.0,0.19
8146.13,882.0,0.189
8182.309,885.0,0.189
8218.522,888.0,0.189
8254.744,891.0,0.188
8291.068,894.0,0.188
8327.085,897.0,0.188
8363.333,900.0,0.187
8399.569,903.0,0.187
8435.734,906.0,0.187
8471.898,909.0,0.186
8508.128,912.0,0.186
8544.301,915.0,0.185
8580.466,918.0,0.185
8616.632,921.0,0.185
8652.729,924.0,0.185
8688.911,927.0,0.184
8725.0,930.0,0.184
8761.261,933.0,0.184
8797.307,936.0,0.184
8833.653,939.0,0.183
8869.711,942.0,0.183
8905.89,945.0,0.183
8942.167,948.0,0.183
8978.41,951.0,0.183
9014.383,954.0,0.182
9050.542,957.0,0.182
9086.729,960.0,0.182
9122.859,963.0,0.182
9159.103,966.0,0.181
9195.293,969.0,0.181
9231.411,972.0,0.181
9267.405,975.0,0.181
9303.689,978.0,0.18
9340.062,981.0,0.18
9376.293,984.0,0.18
9412.429,987.0,0.18
9448.483,990.0,0.18
9484.627,993.0,0.179
9520.844,996.0,0.179
9556.882,999.0,0.179
9592.957,1002.0,0.178
9629.026,1005.0,0.178
9665.225,1008.0,0.178
9701.386,1011.0,0.178
9737.235,1014.0,0.178
9773.333,1017.0,0.177
9809.524,1020.0,0.177
9845.605,1023.0,0.177
9881.605,1026.0,0.176
9917.674,1029.0,0.176
9953.729,1032.0,0.176
9989.792,1035.0,0.176
10025.988,1038.0,0.176
10062.0,1041.0,0.176
10098.012,1044.0,0.175
10133.964,1047.0,0.175
10170.036,1050.0,0.175
10206.037,1053.0,0.175
10242.183,1056.0,0.174
10278.118,1059.0,0.174
10314.053,1062.0,0.174
10350.023,1065.0,0.174
10386.027,1068.0,0.174
10423.517,1071.0,0.173
10490.0,1072.543,0.173
10550.0,1072.706,0.172
10610.0,1072.763,0.172
10670.0,1072.784,0.172
10730.0,1072.797,0.172
10740.0,1072.794,0.172