File: Wood/Calibration_Data/TUBS/TUBS_Wood_MCC_N2_30K_R3.csv
Time (s),Temperature (K),HRR (W/g)
120.51,374.0,0.789
124.62,376.5,0.505
128.78,379.0,-0.083
132.73,381.5,-0.516
136.6,384.0,-0.543
140.45,386.5,-0.543
144.27,389.0,-0.446
147.97,391.5,-0.466
151.8,394.0,-0.284
155.41,396.5,-0.062
159.09,399.0,0.337
162.79,401.5,0.687
166.48,404.0,0.812
170.25,406.5,1.012
173.93,409.0,1.197
177.61,411.5,1.485
181.37,414.0,1.49
184.96,416.5,1.715
188.72,419.0,1.899
192.41,421.5,2.072
196.17,424.0,2.53
199.88,426.5,3.517
203.63,429.0,4.964
207.39,431.5,6.199
211.21,434.0,6.823
215.02,436.5,7.076
218.91,439.0,7.983
222.92,441.5,8.79
226.86,444.0,9.234
230.89,446.5,9.864
234.95,449.0,10.578
239.19,451.5,10.513
243.56,454.0,9.829
247.64,456.5,9.642
252.01,459.0,9.926
256.55,461.5,10.609
260.88,464.0,11.249
265.52,466.5,11.366
269.98,469.0,11.58
274.81,471.5,11.65
279.61,474.0,12.02
284.43,476.5,12.135
289.44,479.0,12.111
294.56,481.5,12.83
299.57,484.0,13.557
304.63,486.5,14.675
309.66,489.0,15.843
314.67,491.5,16.803
319.77,494.0,17.155
324.93,496.5,17.874
329.99,499.0,19.179
335.04,501.5,20.143
340.18,504.0,20.889
345.17,506.5,21.78
350.17,509.0,22.478
355.11,511.5,22.73
360.12,514.0,23.529
364.85,516.5,24.926
369.88,519.0,26.344
374.71,521.5,27.217
379.62,524.0,27.729
384.63,526.5,28.077
389.62,529.0,28.253
394.49,531.5,28.762
399.42,534.0,29.485
404.38,536.5,30.231
409.38,539.0,31.03
414.21,541.5,31.877
419.18,544.0,33.165
424.15,546.5,33.736
429.06,549.0,34.235
433.94,551.5,35.541
438.86,554.0,36.711
443.86,556.5,37.925
448.77,559.0,39.296
453.78,561.5,40.667
458.66,564.0,41.864
463.68,566.5,43.11
468.64,569.0,44.119
473.76,571.5,44.94
478.74,574.0,46.131
483.78,576.5,48.235
488.87,579.0,49.644
493.88,581.5,50.201
498.96,584.0,52.234
504.03,586.5,54.437
508.97,589.0,55.703
514.07,591.5,57.438
518.98,594.0,59.462
523.85,596.5,60.597
528.96,599.0,61.567
534.03,601.5,63.592
538.93,604.0,65.119
543.9,606.5,66.848
548.82,609.0,68.384
553.77,611.5,69.488
558.73,614.0,70.965
563.74,616.5,72.37
568.76,619.0,73.868
573.74,621.5,75.04
578.6,624.0,75.678
583.72,626.5,76.097
588.64,629.0,77.875
593.68,631.5,80.15
598.57,634.0,81.207
603.69,636.5,82.35
608.88,639.0,83.519
613.93,641.5,84.885
619.01,644.0,87.645
623.95,646.5,90.03
629.08,649.0,91.599
634.23,651.5,92.129
639.18,654.0,90.781
644.27,656.5,88.778
649.36,659.0,85.83
654.4,661.5,81.243
659.46,664.0,74.226
664.5,666.5,66.195
669.42,669.0,58.679
674.33,671.5,50.861
679.33,674.0,43.444
684.54,676.5,37.296
689.69,679.0,32.452
694.74,681.5,28.681
699.78,684.0,26.448
704.88,686.5,25.557
709.94,689.0,25.478
714.83,691.5,25.287
719.82,694.0,25.097
724.79,696.5,25.12
729.7,699.0,24.573
734.52,701.5,23.548
739.43,704.0,22.668
744.41,706.5,21.629
749.39,709.0,20.927
754.58,711.5,20.622
759.49,714.0,20.308
764.46,716.5,19.873
769.51,719.0,19.128
774.55,721.5,18.564
779.64,724.0,18.333
784.7,726.5,17.634
789.81,729.0,16.847
794.88,731.5,16.555
800.0,734.0,15.961
805.04,736.5,14.793
810.18,739.0,14.609
815.25,741.5,14.717
820.24,744.0,13.326
825.36,746.5,12.511
830.46,749.0,12.664
835.48,751.5,11.966
840.43,754.0,11.056
845.6,756.5,10.893
850.61,759.0,10.568
855.68,761.5,9.338
860.8,764.0,7.938
865.9,766.5,7.992
871.02,769.0,8.506
876.08,771.5,8.173
880.96,774.0,7.001
885.91,776.5,5.451
890.99,779.0,4.754
896.17,781.5,4.902
901.22,784.0,5.454
906.43,786.5,5.941
911.43,789.0,5.331
916.44,791.5,4.568
921.41,794.0,4.687
926.41,796.5,4.988
931.45,799.0,4.438
936.41,801.5,4.277
941.37,804.0,4.947
946.31,806.5,4.81
951.37,809.0,4.184
956.2,811.5,3.765
961.13,814.0,3.376
966.22,816.5,3.284
971.16,819.0,2.979
976.21,821.5,2.876
981.18,824.0,2.787
986.26,826.5,2.196
991.3,829.0,1.942
996.3,831.5,1.263
1001.22,834.0,1.306
1006.19,836.5,1.796
1011.17,839.0,1.526
1016.19,841.5,0.981
1021.21,844.0,0.988
1026.11,846.5,0.865
1031.12,849.0,-0.545
1036.21,851.5,-1.216
1041.28,854.0,-1.192
1046.36,856.5,-1.047
1051.47,859.0,-0.213
1056.65,861.5,0.003
1061.84,864.0,-0.401
1067.01,866.5,-0.445
1072.26,869.0,-0.775
1077.36,871.5,-1.137
1082.41,874.0,-0.916
1087.31,876.5,-0.389
1092.25,879.0,0.052
1097.2,881.5,0.482
1102.02,884.0,0.703
1106.81,886.5,-0.106
1111.64,889.0,-0.384
1116.56,891.5,0.397
1121.43,894.0,0.563
1126.23,896.5,0.719
1130.93,899.0,0.727
1135.66,901.5,0.146
1140.66,904.0,0.051
1145.63,906.5,0.082
1150.68,909.0,-0.033
1155.85,911.5,-0.287
1160.97,914.0,-0.68
1165.99,916.5,-1.046
1170.97,919.0,-1.072
1176.12,921.5,-1.56
1181.23,924.0,-1.271
1186.22,926.5,-0.44
1191.07,929.0,-0.288
1195.94,931.5,0.296
1200.93,934.0,1.255
1205.61,936.5,1.16
1210.46,939.0,0.545
1215.32,941.5,0.291
1220.36,944.0,0.382
1225.27,946.5,0.568
1230.18,949.0,0.243
1235.28,951.5,0.501
1240.21,954.0,0.889
1245.13,956.5,1.023
1249.96,959.0,0.687
1254.95,961.5,0.103
1259.85,964.0,0.214
1264.84,966.5,0.519
1269.8,969.0,0.11
1274.74,971.5,-0.478
1279.82,974.0,-0.883
1284.9,976.5,-1.053
1289.91,979.0,-0.404
1294.92,981.5,0.391
1299.92,984.0,0.278
1304.96,986.5,0.178
1309.99,989.0,-0.725
1314.84,991.5,-1.314
1319.85,994.0,-0.151
1324.82,996.5,0.151
1329.81,999.0,-0.489
1334.73,1001.5,-0.46
1339.61,1004.0,-0.097
1344.56,1006.5,0.24
1349.41,1009.0,0.38
1354.24,1011.5,0.199
1359.26,1014.0,-0.47
1364.23,1016.5,-1.036
1369.19,1019.0,-1.622
1374.22,1021.5,-1.401
1379.22,1024.0,-0.502
1384.01,1026.5,0.221
1388.72,1029.0,0.349
1393.56,1031.5,0.513
1398.35,1034.0,1.166
1403.05,1036.5,1.065
1407.88,1039.0,0.769
1412.75,1041.5,1.032
1417.64,1044.0,1.454
1422.58,1046.5,0.961
1427.57,1049.0,0.152
1432.54,1051.5,0.225
1437.58,1054.0,-0.01
1442.46,1056.5,-0.585
1447.44,1059.0,-0.795
1452.25,1061.5,-0.916
1457.16,1064.0,-0.633
1461.16,1066.0,0.182