File: Wood/Calibration_Data/TUBS/TUBS_TGA_N2_40K_R2.csv
Time (s),Temperature (K),Mass (mg)
0.0,305.094,0.94
9.0,305.054,0.939
18.0,305.014,0.938
27.0,304.953,0.937
36.0,304.928,0.936
45.0,304.89,0.936
54.0,304.866,0.935
63.0,304.826,0.935
72.0,304.811,0.934
81.0,304.802,0.933
90.0,304.775,0.933
99.0,304.755,0.933
108.0,304.751,0.932
117.0,304.736,0.932
126.0,304.688,0.931
135.0,304.668,0.931
144.0,304.663,0.931
153.0,304.66,0.93
162.0,304.648,0.93
171.0,304.631,0.93
180.0,304.628,0.93
189.0,304.625,0.929
198.0,304.61,0.929
207.0,304.595,0.929
216.0,304.578,0.929
225.0,304.57,0.929
234.0,304.57,0.928
243.0,304.56,0.928
252.0,304.544,0.928
261.0,304.54,0.928
270.0,304.528,0.928
279.0,304.525,0.928
288.0,304.523,0.928
297.0,304.51,0.928
306.0,304.506,0.928
315.0,304.522,0.927
324.0,304.499,0.927
333.0,304.517,0.927
342.0,304.495,0.927
351.0,304.498,0.927
360.0,304.487,0.927
369.0,304.462,0.927
378.0,304.484,0.927
387.0,304.469,0.927
396.0,304.462,0.926
405.0,304.459,0.926
414.0,304.487,0.926
423.0,304.463,0.926
432.0,304.468,0.926
441.0,304.465,0.926
450.0,304.464,0.926
459.0,304.472,0.926
468.0,304.464,0.926
477.0,304.463,0.926
486.0,304.457,0.926
495.0,304.458,0.926
504.0,304.446,0.926
513.0,304.462,0.926
522.0,304.463,0.926
531.0,304.463,0.926
540.0,304.449,0.926
549.0,304.45,0.926
558.0,304.465,0.925
567.0,304.466,0.925
576.0,304.462,0.925
585.0,304.451,0.925
594.0,304.442,0.925
603.0,304.439,0.925
612.0,304.432,0.925
621.0,304.444,0.925
630.0,304.458,0.925
639.0,304.455,0.925
648.0,304.439,0.925
657.0,304.448,0.925
666.0,304.444,0.925
675.0,304.446,0.925
684.0,304.462,0.925
693.0,304.452,0.925
702.0,304.425,0.925
711.0,304.448,0.925
720.0,304.431,0.925
729.0,304.45,0.925
738.0,304.433,0.925
747.0,304.462,0.925
756.0,304.436,0.925
765.0,304.452,0.925
774.0,304.443,0.925
783.0,304.447,0.925
792.0,304.431,0.925
801.0,304.458,0.925
810.0,304.44,0.925
819.0,304.439,0.925
828.0,304.441,0.925
837.0,304.443,0.925
846.0,304.444,0.925
855.0,304.453,0.925
864.0,304.455,0.925
873.0,304.445,0.925
882.0,304.437,0.925
891.0,304.439,0.925
900.0,304.452,0.925
909.0,304.438,0.925
918.0,304.455,0.925
927.0,304.449,0.925
936.0,304.446,0.925
945.0,304.467,0.925
954.0,304.456,0.925
963.0,304.452,0.925
972.0,304.448,0.925
981.0,304.443,0.925
990.0,304.438,0.925
999.0,304.441,0.925
1008.0,304.45,0.925
1017.0,304.442,0.924
1026.0,304.444,0.924
1035.0,304.458,0.924
1044.0,304.45,0.924
1053.0,304.44,0.924
1062.0,304.448,0.924
1071.0,304.445,0.924
1080.0,304.452,0.924
1089.0,304.462,0.924
1098.0,304.463,0.924
1107.0,304.455,0.925
1116.0,304.452,0.924
1125.0,304.438,0.924
1134.0,304.444,0.924
1143.0,304.461,0.924
1152.0,304.456,0.924
1161.0,304.474,0.925
1170.0,304.444,0.925
1179.0,304.443,0.925
1188.0,304.45,0.924
1197.0,304.446,0.924
1206.0,305.894,0.922
1215.0,310.446,0.925
1224.0,316.17,0.926
1233.0,322.042,0.925
1242.0,327.966,0.923
1251.0,333.889,0.922
1260.0,339.794,0.921
1269.0,345.716,0.92
1278.0,351.656,0.919
1287.0,357.608,0.917
1296.0,363.55,0.916
1305.0,369.501,0.915
1314.0,375.476,0.915
1323.0,381.445,0.915
1332.0,387.447,0.914
1341.0,393.444,0.914
1350.0,399.459,0.914
1359.0,405.502,0.914
1368.0,411.549,0.914
1377.0,417.617,0.914
1386.0,423.694,0.914
1395.0,429.774,0.914
1404.0,435.869,0.913
1413.0,441.969,0.913
1422.0,448.108,0.912
1431.0,454.234,0.911
1440.0,460.373,0.91
1449.0,466.52,0.909
1458.0,472.691,0.907
1467.0,478.868,0.905
1476.0,485.042,0.903
1485.0,491.208,0.901
1494.0,497.375,0.899
1503.0,503.558,0.896
1512.0,509.722,0.892
1521.0,515.888,0.889
1530.0,522.058,0.885
1539.0,528.215,0.879
1548.0,534.369,0.874
1557.0,540.521,0.867
1566.0,546.66,0.859
1575.0,552.808,0.85
1584.0,558.936,0.841
1593.0,565.06,0.83
1602.0,571.182,0.82
1611.0,577.292,0.808
1620.0,583.391,0.795
1629.0,589.478,0.781
1638.0,595.559,0.765
1647.0,601.634,0.748
1656.0,607.69,0.728
1665.0,613.747,0.705
1674.0,619.785,0.681
1683.0,625.824,0.653
1692.0,631.857,0.624
1701.0,637.859,0.593
1710.0,643.868,0.56
1719.0,649.862,0.525
1728.0,655.837,0.488
1737.0,661.801,0.447
1746.0,667.771,0.402
1755.0,673.719,0.354
1764.0,679.663,0.306
1773.0,685.636,0.263
1782.0,691.587,0.232
1791.0,697.552,0.216
1800.0,703.491,0.209
1809.0,709.443,0.205
1818.0,715.384,0.202
1827.0,721.303,0.199
1836.0,727.241,0.195
1845.0,733.173,0.192
1854.0,739.092,0.189
1863.0,745.012,0.187
1872.0,750.937,0.184
1881.0,756.87,0.181
1890.0,762.793,0.179
1899.0,768.711,0.177
1908.0,774.645,0.175
1917.0,780.565,0.174
1926.0,786.488,0.173
1935.0,792.42,0.171
1944.0,798.347,0.17
1953.0,804.284,0.168
1962.0,810.215,0.167
1971.0,816.147,0.166
1980.0,822.07,0.165
1989.0,828.014,0.164
1998.0,833.954,0.163
2007.0,839.885,0.162
2016.0,845.819,0.161
2025.0,851.761,0.16
2034.0,857.704,0.159
2043.0,863.647,0.158
2052.0,869.605,0.157
2061.0,875.546,0.156
2070.0,881.497,0.156
2079.0,887.449,0.155
2088.0,893.411,0.154
2097.0,899.368,0.154
2106.0,905.327,0.153
2115.0,911.29,0.152
2124.0,917.268,0.151
2133.0,923.236,0.151
2142.0,929.202,0.15
2151.0,935.179,0.15
2160.0,941.147,0.149
2169.0,947.118,0.149
2178.0,953.095,0.148
2187.0,959.064,0.147
2196.0,965.034,0.147
2205.0,971.022,0.147
2214.0,976.999,0.146
2223.0,982.973,0.146
2232.0,988.949,0.146
2241.0,994.93,0.145
2250.0,1000.911,0.145
2259.0,1006.903,0.144
2268.0,1012.901,0.144
2277.0,1018.897,0.144
2286.0,1024.887,0.143
2295.0,1030.894,0.143
2304.0,1036.895,0.142
2313.0,1042.899,0.142
2322.0,1048.898,0.142
2331.0,1054.886,0.141
2340.0,1059.697,0.141
2349.0,1063.097,0.14
2358.0,1065.461,0.14
2367.0,1067.146,0.14
2376.0,1068.333,0.14
2385.0,1069.197,0.14
2394.0,1069.821,0.14
2403.0,1070.296,0.139
2412.0,1070.643,0.139
2421.0,1070.908,0.139
2430.0,1071.121,0.139
2439.0,1071.292,0.139
2448.0,1071.431,0.139
2457.0,1071.544,0.139
2466.0,1071.645,0.139
2475.0,1071.733,0.138
2484.0,1071.798,0.138
2493.0,1071.861,0.138
2502.0,1071.913,0.138
2511.0,1071.969,0.138
2520.0,1072.002,0.138
2529.0,1072.047,0.138
2538.0,1072.084,0.138
2547.0,1072.119,0.138
2556.0,1072.139,0.137
2565.0,1072.168,0.137
2574.0,1072.188,0.137
2583.0,1072.21,0.137
2592.0,1072.233,0.137
2601.0,1072.258,0.137
2610.0,1072.259,0.137
2619.0,1072.275,0.137
2628.0,1072.28,0.137
2637.0,1072.289,0.137
2646.0,1072.312,0.137
2655.0,1072.312,0.137