File: Wood/Calibration_Data/TUBS/TUBS_Wood_TGA_N2_50K_R14.csv
Time (s),Temperature (K),Mass (mg)
0.0,305.071,0.46993
9.0,305.044,0.46962
18.0,304.982,0.46908
27.0,304.946,0.46863
36.0,304.916,0.46836
45.0,304.856,0.46804
54.0,304.831,0.4678
63.0,304.808,0.46761
72.0,304.784,0.4674
81.0,304.768,0.46718
90.0,304.739,0.46683
99.0,304.717,0.46663
110.0,304.716,0.4666
119.0,304.685,0.46646
128.0,304.681,0.46634
137.0,304.669,0.4662
146.0,304.635,0.46604
155.0,304.646,0.46591
164.0,304.628,0.46564
173.0,304.618,0.46544
183.0,304.604,0.46552
195.0,304.599,0.46552
204.0,304.573,0.46537
214.0,304.572,0.46533
223.0,304.549,0.46523
242.0,304.525,0.46521
253.0,304.509,0.46517
262.0,304.532,0.465
271.0,304.504,0.46486
281.0,304.506,0.46488
291.0,304.492,0.46484
300.0,304.48,0.46474
309.0,304.488,0.46468
318.0,304.498,0.46471
330.0,304.478,0.46473
340.0,304.472,0.4646
349.0,304.463,0.46453
365.0,304.469,0.46455
374.0,304.462,0.46462
383.0,304.47,0.46471
392.0,304.472,0.46459
403.0,304.474,0.46453
414.0,304.479,0.46441
423.0,304.457,0.46437
432.0,304.476,0.46436
441.0,304.461,0.46438
450.0,304.465,0.46434
459.0,304.458,0.46419
468.0,304.465,0.46414
477.0,304.47,0.4642
486.0,304.465,0.46403
496.0,304.47,0.46399
505.0,304.47,0.46395
514.0,304.45,0.4641
527.0,304.452,0.46413
537.0,304.446,0.46419
547.0,304.438,0.46415
556.0,304.456,0.46405
565.0,304.446,0.46412
575.0,304.463,0.46404
584.0,304.431,0.46407
593.0,304.434,0.46404
604.0,304.448,0.46402
615.0,304.445,0.46403
624.0,304.418,0.46394
635.0,304.454,0.46396
644.0,304.454,0.46402
654.0,304.444,0.46404
663.0,304.422,0.46412
676.0,304.429,0.46412
686.0,304.43,0.46412
697.0,304.421,0.46411
706.0,304.424,0.46403
715.0,304.432,0.46399
724.0,304.429,0.4641
733.0,304.434,0.46413
742.0,304.44,0.46422
751.0,304.438,0.46416
760.0,304.437,0.46406
769.0,304.437,0.46407
778.0,304.424,0.46404
787.0,304.457,0.4641
796.0,304.434,0.46411
805.0,304.445,0.464
814.0,304.427,0.46397
824.0,304.449,0.46394
836.0,304.446,0.46394
846.0,304.453,0.46403
855.0,304.445,0.46394
882.0,304.437,0.46394
891.0,304.445,0.46403
901.0,304.43,0.46397
910.0,304.456,0.46402
919.0,304.438,0.4639
928.0,304.45,0.46389
937.0,304.451,0.46388
946.0,304.442,0.46392
958.0,304.442,0.46393
967.0,304.454,0.4638
977.0,304.447,0.46373
987.0,304.445,0.46383
998.0,304.433,0.46375
1007.0,304.44,0.46364
1017.0,304.459,0.4636
1026.0,304.432,0.46367
1035.0,304.431,0.46378
1044.0,304.429,0.46382
1053.0,304.447,0.46374
1062.0,304.439,0.46368
1071.0,304.441,0.46373
1081.0,304.452,0.46381
1104.0,304.427,0.46383
1113.0,304.424,0.46374
1122.0,304.437,0.46367
1131.0,304.438,0.46363
1145.0,304.442,0.46365
1154.0,304.444,0.46364
1163.0,304.445,0.46358
1174.0,304.436,0.46354
1183.0,304.434,0.46362
1194.0,304.421,0.46365
1206.437,306.0,0.46107
1213.387,310.5,0.46339
1218.897,315.0,0.46628
1224.188,319.5,0.46609
1229.465,324.0,0.46493
1234.758,328.5,0.46359
1240.059,333.0,0.46268
1245.375,337.5,0.46203
1250.73,342.0,0.46144
1256.091,346.5,0.4608
1261.482,351.0,0.46022
1266.871,355.5,0.45972
1272.244,360.0,0.45923
1277.662,364.5,0.45879
1283.05,369.0,0.45849
1288.46,373.5,0.45821
1293.862,378.0,0.458
1299.248,382.5,0.45785
1304.626,387.0,0.45769
1310.014,391.5,0.45754
1315.406,396.0,0.45743
1320.784,400.5,0.45736
1326.141,405.0,0.4573
1331.523,409.5,0.45724
1336.869,414.0,0.45718
1342.226,418.5,0.4571
1347.567,423.0,0.457
1352.902,427.5,0.45691
1358.211,432.0,0.45675
1363.546,436.5,0.45663
1368.873,441.0,0.45642
1374.172,445.5,0.45607
1379.473,450.0,0.4557
1384.761,454.5,0.4553
1390.039,459.0,0.4548
1395.324,463.5,0.45423
1400.591,468.0,0.45356
1405.852,472.5,0.45286
1411.112,477.0,0.45212
1416.375,481.5,0.45133
1421.62,486.0,0.45054
1426.864,490.5,0.44967
1432.108,495.0,0.44876
1437.369,499.5,0.4478
1442.598,504.0,0.44683
1447.857,508.5,0.4457
1453.092,513.0,0.44447
1458.339,517.5,0.44308
1463.586,522.0,0.44155
1468.832,526.5,0.43984
1474.081,531.0,0.43793
1479.326,535.5,0.43581
1484.588,540.0,0.43354
1489.841,544.5,0.43109
1495.091,549.0,0.4284
1500.358,553.5,0.42546
1505.615,558.0,0.42233
1510.876,562.5,0.41906
1516.158,567.0,0.41565
1521.427,571.5,0.41209
1526.705,576.0,0.40835
1531.978,580.5,0.40432
1537.275,585.0,0.4
1542.574,589.5,0.3954
1547.878,594.0,0.39029
1553.184,598.5,0.38472
1558.49,603.0,0.37869
1563.812,607.5,0.37207
1569.134,612.0,0.36489
1574.471,616.5,0.35702
1579.814,621.0,0.34841
1585.149,625.5,0.33929
1590.495,630.0,0.32952
1595.853,634.5,0.319
1601.215,639.0,0.308
1606.589,643.5,0.29658
1611.965,648.0,0.2846
1617.345,652.5,0.27217
1622.744,657.0,0.25915
1628.149,661.5,0.24532
1633.554,666.0,0.23065
1638.963,670.5,0.21504
1644.396,675.0,0.1983
1649.832,679.5,0.18075
1655.264,684.0,0.16297
1660.698,688.5,0.14616
1666.145,693.0,0.13168
1671.574,697.5,0.12103
1677.029,702.0,0.11425
1682.473,706.5,0.11035
1687.928,711.0,0.10827
1693.382,715.5,0.10691
1698.841,720.0,0.10569
1704.299,724.5,0.10442
1709.763,729.0,0.10318
1715.227,733.5,0.102
1720.697,738.0,0.10093
1726.172,742.5,0.09988
1731.632,747.0,0.09878
1737.092,751.5,0.09778
1742.575,756.0,0.09683
1748.053,760.5,0.09599
1753.533,765.0,0.09517
1759.006,769.5,0.0944
1764.473,774.0,0.09367
1769.959,778.5,0.09299
1775.437,783.0,0.09244
1780.914,787.5,0.09186
1786.384,792.0,0.09137
1791.85,796.5,0.09093
1797.333,801.0,0.09041
1802.804,805.5,0.09
1808.273,810.0,0.08955
1813.743,814.5,0.08909
1819.221,819.0,0.08869
1824.69,823.5,0.08828
1830.182,828.0,0.0879
1835.653,832.5,0.08759
1841.122,837.0,0.08729
1846.603,841.5,0.087
1852.08,846.0,0.0867
1857.548,850.5,0.08637
1863.023,855.0,0.08609
1868.495,859.5,0.08581
1873.959,864.0,0.08553
1879.428,868.5,0.08525
1884.894,873.0,0.08496
1890.357,877.5,0.08473
1895.82,882.0,0.08455
1901.292,886.5,0.08431
1906.754,891.0,0.08412
1912.21,895.5,0.08388
1917.662,900.0,0.08375
1923.123,904.5,0.08353
1928.584,909.0,0.08316
1934.027,913.5,0.08289
1939.48,918.0,0.08273
1944.929,922.5,0.08243
1950.384,927.0,0.08213
1955.831,931.5,0.08205
1961.275,936.0,0.08192
1966.717,940.5,0.0817
1972.16,945.0,0.0815
1977.601,949.5,0.0813
1983.044,954.0,0.0811
1988.48,958.5,0.08093
1993.917,963.0,0.08077
1999.355,967.5,0.08068
2004.777,972.0,0.08055
2010.211,976.5,0.08032
2015.639,981.0,0.08012
2021.079,985.5,0.07997
2026.504,990.0,0.07977
2031.926,994.5,0.07958
2037.355,999.0,0.07937
2042.784,1003.5,0.0792
2048.2,1008.0,0.07898
2053.626,1012.5,0.07873
2059.052,1017.0,0.0786
2064.469,1021.5,0.07846
2069.891,1026.0,0.07825
2075.299,1030.5,0.07803
2080.709,1035.0,0.07785
2086.127,1039.5,0.07761
2091.535,1044.0,0.07743
2096.943,1048.5,0.07729
2102.356,1053.0,0.07708
2109.8,1057.5,0.07693
2120.326,1062.0,0.07647
2204.0,1070.647,0.07573
2294.0,1071.659,0.07488
2384.0,1071.946,0.07456
2424.0,1072.0,0.07424