File: Wood/Calibration_Data/TUBS/TUBS_TGA_N2_50K_R3.csv
Time (s),Temperature (K),Mass (mg)
0.0,305.033,1.03
9.0,304.985,1.029
18.0,304.943,1.028
27.0,304.91,1.027
36.0,304.853,1.026
45.0,304.841,1.026
54.0,304.818,1.025
63.0,304.798,1.024
72.0,304.769,1.024
81.0,304.748,1.023
90.0,304.747,1.023
99.0,304.712,1.022
108.0,304.704,1.022
117.0,304.693,1.021
126.0,304.666,1.021
135.0,304.653,1.021
144.0,304.644,1.02
153.0,304.63,1.02
162.0,304.623,1.02
171.0,304.603,1.02
180.0,304.6,1.019
189.0,304.583,1.019
198.0,304.571,1.019
207.0,304.556,1.019
216.0,304.551,1.018
225.0,304.549,1.018
234.0,304.548,1.018
243.0,304.532,1.018
252.0,304.522,1.018
261.0,304.524,1.018
270.0,304.51,1.017
279.0,304.503,1.017
288.0,304.497,1.017
297.0,304.496,1.017
306.0,304.509,1.017
315.0,304.497,1.016
324.0,304.492,1.016
333.0,304.505,1.016
342.0,304.477,1.016
351.0,304.486,1.016
360.0,304.49,1.016
369.0,304.478,1.016
378.0,304.48,1.016
387.0,304.466,1.016
396.0,304.477,1.016
405.0,304.456,1.016
414.0,304.455,1.016
423.0,304.465,1.015
432.0,304.461,1.015
441.0,304.457,1.015
450.0,304.477,1.015
459.0,304.442,1.015
468.0,304.447,1.015
477.0,304.45,1.015
486.0,304.441,1.015
495.0,304.455,1.015
504.0,304.444,1.015
513.0,304.444,1.015
522.0,304.452,1.015
531.0,304.441,1.015
540.0,304.447,1.015
549.0,304.451,1.015
558.0,304.438,1.014
567.0,304.453,1.014
576.0,304.436,1.014
585.0,304.425,1.014
594.0,304.45,1.014
603.0,304.446,1.014
612.0,304.437,1.014
621.0,304.438,1.014
630.0,304.426,1.014
639.0,304.434,1.014
648.0,304.442,1.014
657.0,304.443,1.014
666.0,304.429,1.014
675.0,304.444,1.014
684.0,304.417,1.014
693.0,304.42,1.014
702.0,304.42,1.014
711.0,304.429,1.014
720.0,304.439,1.014
729.0,304.431,1.014
738.0,304.43,1.014
747.0,304.447,1.014
756.0,304.433,1.014
765.0,304.423,1.014
774.0,304.444,1.014
783.0,304.443,1.014
792.0,304.465,1.014
801.0,304.438,1.014
810.0,304.438,1.014
819.0,304.444,1.014
828.0,304.447,1.014
837.0,304.446,1.014
846.0,304.447,1.014
855.0,304.418,1.014
864.0,304.424,1.014
873.0,304.433,1.014
882.0,304.41,1.013
891.0,304.447,1.013
900.0,304.443,1.013
909.0,304.442,1.013
918.0,304.423,1.013
927.0,304.446,1.013
936.0,304.425,1.013
945.0,304.432,1.013
954.0,304.437,1.013
963.0,304.439,1.013
972.0,304.436,1.013
981.0,304.444,1.013
990.0,304.432,1.013
999.0,304.404,1.013
1008.0,304.432,1.013
1017.0,304.43,1.013
1026.0,304.436,1.013
1035.0,304.437,1.013
1044.0,304.434,1.013
1053.0,304.43,1.013
1062.0,304.439,1.013
1071.0,304.453,1.013
1080.0,304.443,1.013
1089.0,304.44,1.013
1098.0,304.428,1.013
1107.0,304.452,1.013
1116.0,304.441,1.013
1125.0,304.44,1.013
1134.0,304.448,1.013
1143.0,304.469,1.013
1152.0,304.451,1.013
1161.0,304.418,1.013
1170.0,304.44,1.013
1179.0,304.432,1.013
1188.0,304.426,1.013
1197.0,304.452,1.013
1206.0,305.895,1.011
1215.0,311.831,1.014
1224.0,319.203,1.015
1233.0,326.739,1.012
1242.0,334.257,1.011
1251.0,341.75,1.009
1260.0,349.216,1.008
1269.0,356.726,1.006
1278.0,364.175,1.005
1287.0,371.641,1.004
1296.0,379.142,1.003
1305.0,386.633,1.003
1314.0,394.145,1.002
1323.0,401.651,1.002
1332.0,409.19,1.002
1341.0,416.756,1.002
1350.0,424.333,1.002
1359.0,431.914,1.002
1368.0,439.513,1.001
1377.0,447.139,1.001
1386.0,454.779,1.0
1395.0,462.451,0.999
1404.0,470.125,0.997
1413.0,477.826,0.995
1422.0,485.53,0.992
1431.0,493.255,0.989
1440.0,500.958,0.986
1449.0,508.681,0.982
1458.0,516.392,0.977
1467.0,524.118,0.972
1476.0,531.828,0.965
1485.0,539.548,0.957
1494.0,547.253,0.948
1503.0,554.94,0.936
1512.0,562.634,0.924
1521.0,570.311,0.91
1530.0,577.969,0.895
1539.0,585.628,0.879
1548.0,593.277,0.861
1557.0,600.896,0.84
1566.0,608.513,0.815
1575.0,616.105,0.787
1584.0,623.691,0.755
1593.0,631.249,0.72
1602.0,638.805,0.68
1611.0,646.325,0.638
1620.0,653.835,0.593
1629.0,661.327,0.543
1638.0,668.787,0.489
1647.0,676.243,0.428
1656.0,683.703,0.365
1665.0,691.17,0.311
1674.0,698.633,0.278
1683.0,706.075,0.263
1692.0,713.521,0.257
1701.0,720.951,0.253
1710.0,728.379,0.248
1719.0,735.799,0.244
1728.0,743.215,0.24
1737.0,750.64,0.237
1746.0,758.043,0.233
1755.0,765.457,0.231
1764.0,772.87,0.228
1773.0,780.282,0.226
1782.0,787.688,0.223
1791.0,795.098,0.222
1800.0,802.51,0.22
1809.0,809.916,0.218
1818.0,817.332,0.217
1827.0,824.746,0.215
1836.0,832.161,0.214
1845.0,839.569,0.213
1854.0,846.986,0.211
1863.0,854.408,0.21
1872.0,861.811,0.209
1881.0,869.235,0.208
1890.0,876.662,0.207
1899.0,884.093,0.206
1908.0,891.534,0.204
1917.0,898.981,0.203
1926.0,906.433,0.202
1935.0,913.885,0.202
1944.0,921.336,0.201
1953.0,928.793,0.2
1962.0,936.257,0.199
1971.0,943.716,0.198
1980.0,951.184,0.198
1989.0,958.66,0.197
1998.0,966.126,0.196
2007.0,973.603,0.196
2016.0,981.093,0.195
2025.0,988.578,0.195
2034.0,996.075,0.194
2043.0,1003.569,0.194
2052.0,1011.074,0.193
2061.0,1018.587,0.193
2070.0,1026.093,0.192
2079.0,1033.614,0.192
2088.0,1041.139,0.192
2097.0,1048.659,0.191
2106.0,1055.5,0.191
2115.0,1060.066,0.191
2124.0,1063.252,0.19
2133.0,1065.476,0.19
2142.0,1067.036,0.19
2151.0,1068.148,0.189
2160.0,1068.967,0.189
2169.0,1069.561,0.189
2178.0,1070.013,0.189
2187.0,1070.346,0.189
2196.0,1070.624,0.189
2205.0,1070.84,0.189
2214.0,1071.017,0.188
2223.0,1071.167,0.188
2232.0,1071.287,0.188
2241.0,1071.391,0.188
2250.0,1071.477,0.188
2259.0,1071.566,0.187
2268.0,1071.634,0.187
2277.0,1071.694,0.187
2286.0,1071.753,0.187
2295.0,1071.808,0.187
2304.0,1071.846,0.187
2313.0,1071.88,0.187
2322.0,1071.916,0.187
2331.0,1071.941,0.187
2340.0,1071.971,0.187
2349.0,1071.995,0.186
2358.0,1072.004,0.186
2367.0,1072.026,0.186
2376.0,1072.053,0.186
2385.0,1072.067,0.186
2394.0,1072.073,0.186
2403.0,1072.091,0.186
2412.0,1072.109,0.186
2421.0,1072.107,0.186
2424.0,1072.112,0.186