File: Wood/Calibration_Data/TUBS/TUBS_TGA_N2_40K_R3.csv
Time (s),Temperature (K),Mass (mg)
0.0,305.071,0.95
9.0,305.043,0.949
18.0,304.995,0.948
27.0,304.959,0.947
36.0,304.899,0.946
45.0,304.888,0.946
54.0,304.858,0.945
63.0,304.845,0.944
72.0,304.817,0.944
81.0,304.783,0.943
90.0,304.751,0.943
99.0,304.744,0.943
108.0,304.734,0.942
117.0,304.704,0.942
126.0,304.696,0.942
135.0,304.683,0.941
144.0,304.663,0.941
153.0,304.65,0.941
162.0,304.631,0.94
171.0,304.629,0.94
180.0,304.62,0.94
189.0,304.626,0.94
198.0,304.6,0.939
207.0,304.609,0.939
216.0,304.572,0.939
225.0,304.576,0.939
234.0,304.579,0.939
243.0,304.552,0.939
252.0,304.537,0.939
261.0,304.529,0.939
270.0,304.541,0.938
279.0,304.543,0.938
288.0,304.512,0.938
297.0,304.512,0.938
306.0,304.514,0.938
315.0,304.517,0.938
324.0,304.497,0.938
333.0,304.494,0.938
342.0,304.507,0.937
351.0,304.498,0.937
360.0,304.483,0.937
369.0,304.494,0.937
378.0,304.487,0.937
387.0,304.466,0.937
396.0,304.496,0.937
405.0,304.495,0.937
414.0,304.493,0.937
423.0,304.478,0.937
432.0,304.473,0.937
441.0,304.486,0.936
450.0,304.485,0.936
459.0,304.457,0.936
468.0,304.458,0.936
477.0,304.472,0.936
486.0,304.459,0.936
495.0,304.447,0.936
504.0,304.453,0.936
513.0,304.462,0.936
522.0,304.438,0.936
531.0,304.457,0.936
540.0,304.46,0.936
549.0,304.456,0.936
558.0,304.461,0.936
567.0,304.446,0.936
576.0,304.452,0.936
585.0,304.46,0.936
594.0,304.459,0.936
603.0,304.448,0.936
612.0,304.463,0.936
621.0,304.455,0.936
630.0,304.472,0.936
639.0,304.448,0.936
648.0,304.456,0.936
657.0,304.469,0.936
666.0,304.466,0.935
675.0,304.468,0.936
684.0,304.462,0.935
693.0,304.459,0.935
702.0,304.464,0.935
711.0,304.462,0.935
720.0,304.45,0.935
729.0,304.471,0.935
738.0,304.452,0.936
747.0,304.458,0.935
756.0,304.466,0.935
765.0,304.454,0.935
774.0,304.451,0.935
783.0,304.466,0.935
792.0,304.439,0.935
801.0,304.451,0.935
810.0,304.453,0.935
819.0,304.459,0.935
828.0,304.457,0.935
837.0,304.47,0.935
846.0,304.456,0.935
855.0,304.457,0.935
864.0,304.454,0.935
873.0,304.454,0.935
882.0,304.438,0.935
891.0,304.451,0.935
900.0,304.445,0.935
909.0,304.456,0.935
918.0,304.453,0.935
927.0,304.465,0.935
936.0,304.462,0.935
945.0,304.461,0.935
954.0,304.455,0.935
963.0,304.453,0.935
972.0,304.449,0.935
981.0,304.452,0.935
990.0,304.46,0.935
999.0,304.458,0.935
1008.0,304.458,0.935
1017.0,304.466,0.935
1026.0,304.477,0.935
1035.0,304.477,0.935
1044.0,304.468,0.935
1053.0,304.479,0.935
1062.0,304.472,0.935
1071.0,304.482,0.935
1080.0,304.462,0.935
1089.0,304.468,0.935
1098.0,304.472,0.935
1107.0,304.485,0.935
1116.0,304.471,0.935
1125.0,304.463,0.935
1134.0,304.454,0.935
1143.0,304.462,0.935
1152.0,304.487,0.935
1161.0,304.478,0.935
1170.0,304.469,0.935
1179.0,304.472,0.935
1188.0,304.49,0.935
1197.0,304.479,0.935
1206.0,305.92,0.933
1215.0,310.555,0.936
1224.0,316.343,0.937
1233.0,322.25,0.935
1242.0,328.178,0.934
1251.0,334.105,0.932
1260.0,340.044,0.931
1269.0,345.978,0.93
1278.0,351.918,0.929
1287.0,357.859,0.927
1296.0,363.818,0.926
1305.0,369.781,0.926
1314.0,375.743,0.925
1323.0,381.749,0.925
1332.0,387.745,0.925
1341.0,393.755,0.924
1350.0,399.784,0.924
1359.0,405.817,0.924
1368.0,411.881,0.924
1377.0,417.93,0.924
1386.0,424.028,0.924
1395.0,430.106,0.924
1404.0,436.206,0.923
1413.0,442.318,0.923
1422.0,448.439,0.922
1431.0,454.574,0.921
1440.0,460.725,0.92
1449.0,466.877,0.919
1458.0,473.041,0.917
1467.0,479.215,0.915
1476.0,485.387,0.913
1485.0,491.552,0.911
1494.0,497.738,0.908
1503.0,503.91,0.905
1512.0,510.074,0.902
1521.0,516.237,0.898
1530.0,522.415,0.894
1539.0,528.579,0.889
1548.0,534.731,0.882
1557.0,540.889,0.876
1566.0,547.02,0.868
1575.0,553.163,0.859
1584.0,559.297,0.849
1593.0,565.418,0.839
1602.0,571.533,0.828
1611.0,577.654,0.817
1620.0,583.756,0.804
1629.0,589.84,0.79
1638.0,595.927,0.775
1647.0,602.006,0.757
1656.0,608.066,0.737
1665.0,614.125,0.715
1674.0,620.162,0.69
1683.0,626.188,0.663
1692.0,632.222,0.634
1701.0,638.238,0.603
1710.0,644.234,0.57
1719.0,650.226,0.536
1728.0,656.218,0.498
1737.0,662.184,0.457
1746.0,668.131,0.413
1755.0,674.089,0.365
1764.0,680.045,0.317
1773.0,685.993,0.275
1782.0,691.959,0.245
1791.0,697.919,0.23
1800.0,703.871,0.224
1809.0,709.805,0.22
1818.0,715.747,0.216
1827.0,721.685,0.213
1836.0,727.618,0.21
1845.0,733.553,0.207
1854.0,739.472,0.204
1863.0,745.402,0.201
1872.0,751.327,0.199
1881.0,757.255,0.196
1890.0,763.175,0.194
1899.0,769.109,0.192
1908.0,775.032,0.191
1917.0,780.959,0.189
1926.0,786.894,0.188
1935.0,792.828,0.186
1944.0,798.757,0.185
1953.0,804.691,0.184
1962.0,810.624,0.182
1971.0,816.554,0.181
1980.0,822.49,0.18
1989.0,828.428,0.179
1998.0,834.344,0.178
2007.0,840.288,0.177
2016.0,846.226,0.176
2025.0,852.156,0.175
2034.0,858.101,0.175
2043.0,864.055,0.174
2052.0,870.001,0.173
2061.0,875.946,0.172
2070.0,881.901,0.171
2079.0,887.856,0.171
2088.0,893.812,0.17
2097.0,899.771,0.169
2106.0,905.724,0.168
2115.0,911.685,0.168
2124.0,917.652,0.167
2133.0,923.607,0.167
2142.0,929.575,0.166
2151.0,935.543,0.165
2160.0,941.51,0.165
2169.0,947.476,0.164
2178.0,953.438,0.164
2187.0,959.41,0.163
2196.0,965.368,0.163
2205.0,971.342,0.163
2214.0,977.306,0.162
2223.0,983.285,0.162
2232.0,989.261,0.161
2241.0,995.238,0.161
2250.0,1001.225,0.161
2259.0,1007.198,0.16
2268.0,1013.185,0.16
2277.0,1019.178,0.159
2286.0,1025.168,0.159
2295.0,1031.166,0.159
2304.0,1037.155,0.159
2313.0,1043.144,0.158
2322.0,1049.141,0.158
2331.0,1055.142,0.157
2340.0,1059.943,0.157
2349.0,1063.307,0.157
2358.0,1065.633,0.157
2367.0,1067.27,0.157
2376.0,1068.427,0.156
2385.0,1069.256,0.156
2394.0,1069.861,0.156
2403.0,1070.309,0.156
2412.0,1070.645,0.156
2421.0,1070.895,0.156
2430.0,1071.098,0.156
2439.0,1071.268,0.155
2448.0,1071.399,0.155
2457.0,1071.508,0.155
2466.0,1071.613,0.155
2475.0,1071.688,0.155
2484.0,1071.762,0.155
2493.0,1071.816,0.155
2502.0,1071.869,0.155
2511.0,1071.92,0.154
2520.0,1071.961,0.154
2529.0,1072.0,0.154
2538.0,1072.032,0.154
2547.0,1072.063,0.154
2556.0,1072.092,0.154
2565.0,1072.102,0.154
2574.0,1072.124,0.154
2583.0,1072.148,0.154
2592.0,1072.162,0.154
2601.0,1072.179,0.153
2610.0,1072.192,0.153
2619.0,1072.213,0.153
2628.0,1072.213,0.153
2637.0,1072.225,0.153
2646.0,1072.234,0.153
2655.0,1072.24,0.153