File: Wood/Calibration_Data/TUBS/TUBS_TGA_N2_10K_R3.csv
Time (s),Temperature (K),Mass (mg)
0.0,305.044,0.98
9.0,305.006,0.979
18.0,304.976,0.978
27.0,304.942,0.977
36.0,304.881,0.976
45.0,304.86,0.975
54.0,304.823,0.974
63.0,304.813,0.974
72.0,304.789,0.973
81.0,304.765,0.973
90.0,304.759,0.973
99.0,304.744,0.972
108.0,304.713,0.971
117.0,304.696,0.97
126.0,304.681,0.97
135.0,304.683,0.97
144.0,304.654,0.969
153.0,304.661,0.969
162.0,304.648,0.969
171.0,304.625,0.969
180.0,304.617,0.968
189.0,304.614,0.968
198.0,304.59,0.968
207.0,304.594,0.967
216.0,304.574,0.967
225.0,304.57,0.967
234.0,304.565,0.967
243.0,304.557,0.967
252.0,304.552,0.966
261.0,304.55,0.966
270.0,304.539,0.966
279.0,304.532,0.966
288.0,304.518,0.966
297.0,304.52,0.966
306.0,304.499,0.965
315.0,304.498,0.965
324.0,304.485,0.965
333.0,304.519,0.965
342.0,304.515,0.965
351.0,304.496,0.965
360.0,304.489,0.964
369.0,304.498,0.964
378.0,304.479,0.964
387.0,304.497,0.964
396.0,304.492,0.964
405.0,304.481,0.964
414.0,304.483,0.964
423.0,304.494,0.964
432.0,304.471,0.964
441.0,304.476,0.964
450.0,304.473,0.964
459.0,304.476,0.964
468.0,304.484,0.964
477.0,304.474,0.964
486.0,304.47,0.964
495.0,304.474,0.964
504.0,304.47,0.963
513.0,304.475,0.963
522.0,304.449,0.963
531.0,304.461,0.963
540.0,304.468,0.963
549.0,304.464,0.963
558.0,304.472,0.963
567.0,304.47,0.963
576.0,304.461,0.963
585.0,304.475,0.963
594.0,304.468,0.963
603.0,304.48,0.963
612.0,304.466,0.963
621.0,304.459,0.963
630.0,304.463,0.963
639.0,304.466,0.963
648.0,304.463,0.963
657.0,304.464,0.963
666.0,304.463,0.962
675.0,304.467,0.962
684.0,304.452,0.962
693.0,304.459,0.962
702.0,304.473,0.962
711.0,304.475,0.962
720.0,304.463,0.962
729.0,304.447,0.962
738.0,304.461,0.962
747.0,304.463,0.962
756.0,304.47,0.962
765.0,304.462,0.962
774.0,304.465,0.962
783.0,304.455,0.962
792.0,304.461,0.962
801.0,304.456,0.962
810.0,304.464,0.962
819.0,304.46,0.962
828.0,304.456,0.962
837.0,304.457,0.962
846.0,304.454,0.962
855.0,304.447,0.962
864.0,304.471,0.962
873.0,304.461,0.962
882.0,304.461,0.962
891.0,304.46,0.962
900.0,304.451,0.962
909.0,304.468,0.962
918.0,304.456,0.962
927.0,304.452,0.961
936.0,304.457,0.962
945.0,304.45,0.962
954.0,304.457,0.962
963.0,304.448,0.962
972.0,304.445,0.962
981.0,304.451,0.962
990.0,304.464,0.962
999.0,304.462,0.962
1008.0,304.477,0.962
1017.0,304.473,0.961
1026.0,304.467,0.961
1035.0,304.443,0.961
1044.0,304.455,0.961
1053.0,304.453,0.961
1062.0,304.469,0.961
1071.0,304.439,0.961
1080.0,304.471,0.961
1089.0,304.474,0.961
1098.0,304.462,0.961
1107.0,304.47,0.962
1116.0,304.453,0.961
1125.0,304.465,0.961
1134.0,304.47,0.961
1143.0,304.449,0.962
1152.0,304.466,0.961
1161.0,304.455,0.961
1170.0,304.461,0.961
1179.0,304.438,0.961
1188.0,304.466,0.961
1197.0,304.461,0.961
1206.0,305.847,0.959
1215.0,310.375,0.963
1224.0,316.086,0.964
1233.0,321.955,0.963
1242.0,327.844,0.962
1251.0,333.751,0.961
1260.0,339.656,0.96
1269.0,345.592,0.958
1278.0,351.508,0.957
1287.0,357.46,0.955
1296.0,363.378,0.954
1305.0,369.34,0.953
1314.0,375.288,0.953
1323.0,381.273,0.952
1332.0,387.278,0.952
1341.0,393.256,0.952
1350.0,399.277,0.952
1359.0,405.316,0.952
1368.0,411.37,0.952
1377.0,417.427,0.952
1386.0,423.502,0.951
1395.0,429.584,0.951
1404.0,435.678,0.951
1413.0,441.792,0.951
1422.0,447.898,0.95
1431.0,454.036,0.949
1440.0,460.175,0.948
1449.0,466.324,0.947
1458.0,472.485,0.945
1467.0,478.657,0.943
1476.0,484.824,0.941
1485.0,490.992,0.938
1494.0,497.168,0.936
1503.0,503.328,0.932
1512.0,509.494,0.929
1521.0,515.675,0.925
1530.0,521.827,0.92
1539.0,527.99,0.914
1548.0,534.16,0.908
1557.0,540.298,0.9
1566.0,546.456,0.892
1575.0,552.582,0.882
1584.0,558.72,0.871
1593.0,564.86,0.86
1602.0,570.989,0.848
1611.0,577.111,0.834
1620.0,583.215,0.82
1629.0,589.301,0.804
1638.0,595.394,0.787
1647.0,601.473,0.768
1656.0,607.538,0.745
1665.0,613.605,0.721
1674.0,619.656,0.694
1683.0,625.688,0.664
1692.0,631.716,0.632
1701.0,637.734,0.597
1710.0,643.748,0.561
1719.0,649.743,0.522
1728.0,655.722,0.481
1737.0,661.701,0.436
1746.0,667.666,0.386
1755.0,673.613,0.333
1764.0,679.578,0.28
1773.0,685.543,0.233
1782.0,691.518,0.201
1791.0,697.475,0.185
1800.0,703.446,0.177
1809.0,709.398,0.173
1818.0,715.337,0.169
1827.0,721.264,0.165
1836.0,727.213,0.162
1845.0,733.141,0.158
1854.0,739.076,0.155
1863.0,745.01,0.152
1872.0,750.958,0.149
1881.0,756.87,0.146
1890.0,762.797,0.144
1899.0,768.735,0.142
1908.0,774.663,0.14
1917.0,780.598,0.138
1926.0,786.534,0.137
1935.0,792.466,0.135
1944.0,798.401,0.133
1953.0,804.343,0.132
1962.0,810.283,0.13
1971.0,816.22,0.129
1980.0,822.148,0.128
1989.0,828.09,0.127
1998.0,834.026,0.126
2007.0,839.971,0.125
2016.0,845.909,0.124
2025.0,851.851,0.123
2034.0,857.796,0.122
2043.0,863.747,0.121
2052.0,869.697,0.12
2061.0,875.651,0.119
2070.0,881.602,0.118
2079.0,887.568,0.117
2088.0,893.517,0.116
2097.0,899.482,0.115
2106.0,905.447,0.115
2115.0,911.409,0.114
2124.0,917.375,0.113
2133.0,923.335,0.113
2142.0,929.306,0.112
2151.0,935.278,0.112
2160.0,941.246,0.111
2169.0,947.211,0.11
2178.0,953.182,0.11
2187.0,959.171,0.109
2196.0,965.134,0.109
2205.0,971.106,0.108
2214.0,977.084,0.108
2223.0,983.05,0.108
2232.0,989.035,0.107
2241.0,995.004,0.107
2250.0,1000.99,0.106
2259.0,1006.975,0.106
2268.0,1012.949,0.105
2277.0,1018.947,0.105
2286.0,1024.922,0.105
2295.0,1030.922,0.104
2304.0,1036.916,0.104
2313.0,1042.917,0.104
2322.0,1048.903,0.103
2331.0,1054.914,0.103
2340.0,1059.719,0.102
2349.0,1063.08,0.102
2358.0,1065.434,0.102
2367.0,1067.067,0.102
2376.0,1068.239,0.101
2385.0,1069.075,0.101
2394.0,1069.682,0.101
2403.0,1070.135,0.101
2412.0,1070.485,0.101
2421.0,1070.751,0.101
2430.0,1070.95,0.101
2439.0,1071.118,0.1
2448.0,1071.268,0.1
2457.0,1071.381,0.1
2466.0,1071.474,0.1
2475.0,1071.558,0.1
2484.0,1071.637,0.1
2493.0,1071.692,0.1
2502.0,1071.748,0.099
2511.0,1071.795,0.099
2520.0,1071.838,0.099
2529.0,1071.882,0.099
2538.0,1071.914,0.099
2547.0,1071.939,0.099
2556.0,1071.973,0.099
2565.0,1072.005,0.099
2574.0,1072.025,0.099
2583.0,1072.047,0.098
2592.0,1072.06,0.098
2601.0,1072.078,0.098
2610.0,1072.095,0.098
2619.0,1072.104,0.098
2628.0,1072.111,0.098
2637.0,1072.131,0.098
2646.0,1072.144,0.098
2655.0,1072.159,0.098