File: Wood/Calibration_Data/TUBS/TUBS_TGA_N2_40K_R1.csv
Time (s),Temperature (K),Mass (mg)
0.0,305.095,0.92
9.0,305.059,0.919
18.0,305.001,0.918
27.0,304.96,0.917
36.0,304.934,0.916
45.0,304.912,0.916
54.0,304.865,0.915
63.0,304.835,0.914
72.0,304.827,0.914
81.0,304.787,0.913
90.0,304.779,0.913
99.0,304.749,0.913
108.0,304.737,0.912
117.0,304.715,0.912
126.0,304.691,0.912
135.0,304.679,0.911
144.0,304.675,0.911
153.0,304.654,0.911
162.0,304.645,0.911
171.0,304.634,0.91
180.0,304.616,0.91
189.0,304.604,0.91
198.0,304.595,0.91
207.0,304.586,0.91
216.0,304.571,0.909
225.0,304.571,0.909
234.0,304.553,0.909
243.0,304.538,0.909
252.0,304.53,0.909
261.0,304.525,0.909
270.0,304.535,0.909
279.0,304.538,0.908
288.0,304.527,0.908
297.0,304.516,0.908
306.0,304.521,0.908
315.0,304.493,0.908
324.0,304.499,0.908
333.0,304.49,0.908
342.0,304.489,0.908
351.0,304.491,0.908
360.0,304.48,0.907
369.0,304.492,0.907
378.0,304.49,0.907
387.0,304.475,0.907
396.0,304.474,0.907
405.0,304.468,0.907
414.0,304.465,0.907
423.0,304.483,0.907
432.0,304.472,0.907
441.0,304.475,0.907
450.0,304.464,0.907
459.0,304.47,0.907
468.0,304.467,0.907
477.0,304.455,0.907
486.0,304.46,0.907
495.0,304.469,0.907
504.0,304.468,0.907
513.0,304.451,0.907
522.0,304.462,0.907
531.0,304.446,0.907
540.0,304.458,0.906
549.0,304.436,0.906
558.0,304.447,0.906
567.0,304.459,0.906
576.0,304.441,0.906
585.0,304.439,0.906
594.0,304.452,0.906
603.0,304.442,0.906
612.0,304.455,0.906
621.0,304.445,0.906
630.0,304.421,0.906
639.0,304.443,0.906
648.0,304.433,0.906
657.0,304.447,0.906
666.0,304.453,0.906
675.0,304.451,0.906
684.0,304.428,0.906
693.0,304.444,0.906
702.0,304.432,0.906
711.0,304.452,0.906
720.0,304.431,0.906
729.0,304.436,0.906
738.0,304.434,0.906
747.0,304.442,0.906
756.0,304.445,0.906
765.0,304.444,0.906
774.0,304.443,0.906
783.0,304.436,0.906
792.0,304.441,0.906
801.0,304.458,0.906
810.0,304.443,0.906
819.0,304.448,0.906
828.0,304.43,0.906
837.0,304.446,0.906
846.0,304.434,0.906
855.0,304.459,0.906
864.0,304.457,0.906
873.0,304.444,0.906
882.0,304.437,0.906
891.0,304.461,0.906
900.0,304.431,0.906
909.0,304.448,0.906
918.0,304.454,0.905
927.0,304.464,0.905
936.0,304.451,0.905
945.0,304.457,0.905
954.0,304.436,0.905
963.0,304.444,0.905
972.0,304.458,0.905
981.0,304.45,0.905
990.0,304.456,0.905
999.0,304.447,0.905
1008.0,304.46,0.905
1017.0,304.467,0.905
1026.0,304.44,0.905
1035.0,304.45,0.905
1044.0,304.446,0.905
1053.0,304.449,0.905
1062.0,304.467,0.905
1071.0,304.458,0.905
1080.0,304.446,0.905
1089.0,304.455,0.905
1098.0,304.462,0.905
1107.0,304.447,0.905
1116.0,304.45,0.905
1125.0,304.463,0.905
1134.0,304.449,0.905
1143.0,304.445,0.905
1152.0,304.459,0.905
1161.0,304.454,0.906
1170.0,304.436,0.906
1179.0,304.45,0.906
1188.0,304.456,0.906
1197.0,304.461,0.905
1206.0,305.872,0.903
1215.0,310.39,0.907
1224.0,316.126,0.908
1233.0,322.046,0.906
1242.0,327.948,0.905
1251.0,333.888,0.903
1260.0,339.826,0.902
1269.0,345.747,0.901
1278.0,351.678,0.899
1287.0,357.623,0.898
1296.0,363.557,0.897
1305.0,369.5,0.896
1314.0,375.478,0.896
1323.0,381.47,0.895
1332.0,387.431,0.895
1341.0,393.437,0.895
1350.0,399.456,0.895
1359.0,405.493,0.895
1368.0,411.542,0.895
1377.0,417.601,0.895
1386.0,423.662,0.894
1395.0,429.74,0.894
1404.0,435.843,0.894
1413.0,441.949,0.893
1422.0,448.061,0.893
1431.0,454.186,0.892
1440.0,460.326,0.891
1449.0,466.479,0.89
1458.0,472.638,0.888
1467.0,478.796,0.886
1476.0,484.948,0.884
1485.0,491.129,0.882
1494.0,497.3,0.879
1503.0,503.455,0.876
1512.0,509.63,0.873
1521.0,515.8,0.869
1530.0,521.954,0.865
1539.0,528.124,0.859
1548.0,534.257,0.853
1557.0,540.415,0.846
1566.0,546.558,0.838
1575.0,552.692,0.829
1584.0,558.834,0.819
1593.0,564.941,0.809
1602.0,571.044,0.798
1611.0,577.164,0.786
1620.0,583.261,0.774
1629.0,589.36,0.759
1638.0,595.427,0.743
1647.0,601.488,0.726
1656.0,607.565,0.706
1665.0,613.615,0.683
1674.0,619.665,0.658
1683.0,625.691,0.631
1692.0,631.727,0.601
1701.0,637.736,0.57
1710.0,643.727,0.536
1719.0,649.726,0.501
1728.0,655.719,0.463
1737.0,661.679,0.422
1746.0,667.638,0.376
1755.0,673.586,0.328
1764.0,679.529,0.278
1773.0,685.498,0.235
1782.0,691.437,0.204
1791.0,697.405,0.189
1800.0,703.353,0.182
1809.0,709.298,0.178
1818.0,715.23,0.174
1827.0,721.175,0.171
1836.0,727.091,0.167
1845.0,733.013,0.164
1854.0,738.941,0.161
1863.0,744.88,0.159
1872.0,750.8,0.156
1881.0,756.722,0.153
1890.0,762.654,0.151
1899.0,768.571,0.149
1908.0,774.501,0.147
1917.0,780.419,0.146
1926.0,786.354,0.144
1935.0,792.279,0.143
1944.0,798.212,0.141
1953.0,804.139,0.14
1962.0,810.067,0.139
1971.0,816.007,0.137
1980.0,821.93,0.136
1989.0,827.887,0.135
1998.0,833.801,0.134
2007.0,839.746,0.133
2016.0,845.687,0.132
2025.0,851.603,0.131
2034.0,857.547,0.13
2043.0,863.492,0.129
2052.0,869.434,0.128
2061.0,875.388,0.127
2070.0,881.337,0.127
2079.0,887.293,0.126
2088.0,893.254,0.125
2097.0,899.215,0.124
2106.0,905.173,0.123
2115.0,911.145,0.123
2124.0,917.112,0.122
2133.0,923.073,0.121
2142.0,929.056,0.121
2151.0,935.03,0.12
2160.0,941.006,0.12
2169.0,946.994,0.119
2178.0,952.984,0.118
2187.0,958.951,0.118
2196.0,964.936,0.117
2205.0,970.921,0.117
2214.0,976.91,0.117
2223.0,982.908,0.116
2232.0,988.891,0.115
2241.0,994.889,0.115
2250.0,1000.889,0.114
2259.0,1006.887,0.114
2268.0,1012.876,0.113
2277.0,1018.897,0.113
2286.0,1024.898,0.112
2295.0,1030.898,0.112
2304.0,1036.897,0.111
2313.0,1042.91,0.111
2322.0,1048.914,0.11
2331.0,1054.918,0.11
2340.0,1059.643,0.109
2349.0,1063.02,0.109
2358.0,1065.366,0.108
2367.0,1067.038,0.108
2376.0,1068.227,0.107
2385.0,1069.077,0.107
2394.0,1069.707,0.107
2403.0,1070.164,0.107
2412.0,1070.519,0.106
2421.0,1070.788,0.106
2430.0,1071.003,0.106
2439.0,1071.166,0.106
2448.0,1071.314,0.105
2457.0,1071.424,0.105
2466.0,1071.519,0.105
2475.0,1071.605,0.105
2484.0,1071.676,0.105
2493.0,1071.744,0.105
2502.0,1071.798,0.104
2511.0,1071.851,0.104
2520.0,1071.907,0.104
2529.0,1071.935,0.104
2538.0,1071.976,0.104
2547.0,1072.004,0.104
2556.0,1072.038,0.104
2565.0,1072.062,0.103
2574.0,1072.087,0.103
2583.0,1072.114,0.103
2592.0,1072.125,0.103
2601.0,1072.157,0.103
2610.0,1072.176,0.103
2619.0,1072.186,0.103
2628.0,1072.193,0.103
2637.0,1072.21,0.103
2646.0,1072.224,0.103
2655.0,1072.233,0.103