File: Wood/Calibration_Data/TUBS/TUBS_Wood_TGA_N2_30K_R1.csv
Time (s),Temperature (K),Mass (mg)
0.0,304.961,1.05
39.0,304.803,1.044
114.0,304.625,1.038
286.0,304.471,1.032
822.0,304.391,1.028
915.0,304.411,1.028
1211.987,307.5,1.028
1218.732,310.5,1.031
1225.118,313.5,1.03
1231.408,316.5,1.028
1237.597,319.5,1.027
1243.78,322.5,1.027
1249.937,325.5,1.026
1256.078,328.5,1.026
1262.211,331.5,1.025
1268.304,334.5,1.024
1274.402,337.5,1.023
1280.467,340.5,1.023
1286.551,343.5,1.022
1292.643,346.5,1.021
1298.68,349.5,1.02
1304.734,352.5,1.019
1310.778,355.5,1.019
1316.828,358.5,1.018
1322.851,361.5,1.017
1328.875,364.5,1.017
1334.867,367.5,1.016
1340.886,370.5,1.016
1346.879,373.5,1.016
1352.855,376.5,1.016
1358.859,379.5,1.016
1364.819,382.5,1.015
1370.795,385.5,1.015
1376.737,388.5,1.015
1382.707,391.5,1.015
1388.633,394.5,1.015
1394.576,397.5,1.015
1400.504,400.5,1.015
1406.451,403.5,1.015
1412.361,406.5,1.015
1418.28,409.5,1.015
1424.199,412.5,1.015
1430.091,415.5,1.015
1435.986,418.5,1.015
1441.88,421.5,1.014
1447.769,424.5,1.014
1453.679,427.5,1.014
1459.543,430.5,1.014
1465.419,433.5,1.014
1471.288,436.5,1.014
1477.144,439.5,1.013
1483.033,442.5,1.013
1488.892,445.5,1.013
1494.748,448.5,1.012
1500.602,451.5,1.012
1506.426,454.5,1.011
1512.277,457.5,1.011
1518.143,460.5,1.01
1523.982,463.5,1.009
1529.82,466.5,1.008
1535.669,469.5,1.007
1541.492,472.5,1.007
1547.329,475.5,1.005
1553.145,478.5,1.004
1558.992,481.5,1.004
1564.822,484.5,1.003
1570.647,487.5,1.002
1576.49,490.5,1.001
1582.31,493.5,1.0
1588.178,496.5,0.999
1594.0,499.5,0.998
1599.829,502.5,0.997
1605.683,505.5,0.995
1611.53,508.5,0.994
1617.384,511.5,0.993
1623.234,514.5,0.992
1629.097,517.5,0.99
1634.939,520.5,0.988
1640.789,523.5,0.986
1646.647,526.5,0.984
1652.538,529.5,0.982
1658.39,532.5,0.98
1664.278,535.5,0.977
1670.155,538.5,0.974
1676.016,541.5,0.971
1681.901,544.5,0.967
1687.784,547.5,0.963
1693.663,550.5,0.959
1699.557,553.5,0.955
1705.456,556.5,0.951
1711.355,559.5,0.946
1717.251,562.5,0.941
1723.154,565.5,0.936
1729.065,568.5,0.93
1734.963,571.5,0.924
1740.887,574.5,0.918
1746.792,577.5,0.911
1752.709,580.5,0.904
1758.637,583.5,0.897
1764.573,586.5,0.889
1770.51,589.5,0.88
1776.435,592.5,0.871
1782.36,595.5,0.862
1788.308,598.5,0.851
1794.263,601.5,0.84
1800.214,604.5,0.829
1806.178,607.5,0.815
1812.107,610.5,0.802
1818.077,613.5,0.788
1824.038,616.5,0.773
1830.026,619.5,0.757
1836.0,622.5,0.741
1841.966,625.5,0.724
1847.948,628.5,0.707
1853.925,631.5,0.689
1859.923,634.5,0.671
1865.927,637.5,0.652
1871.928,640.5,0.632
1877.957,643.5,0.613
1883.948,646.5,0.592
1889.956,649.5,0.571
1895.961,652.5,0.548
1902.0,655.5,0.525
1908.044,658.5,0.5
1914.069,661.5,0.475
1920.123,664.5,0.447
1926.129,667.5,0.419
1932.191,670.5,0.391
1938.226,673.5,0.364
1944.243,676.5,0.34
1950.286,679.5,0.318
1956.315,682.5,0.3
1962.318,685.5,0.287
1968.352,688.5,0.279
1974.381,691.5,0.273
1980.429,694.5,0.27
1986.457,697.5,0.267
1992.509,700.5,0.264
1998.559,703.5,0.262
2004.592,706.5,0.261
2010.635,709.5,0.259
2016.698,712.5,0.257
2022.764,715.5,0.255
2028.809,718.5,0.254
2034.883,721.5,0.252
2040.949,724.5,0.25
2047.012,727.5,0.249
2053.076,730.5,0.247
2059.121,733.5,0.245
2065.189,736.5,0.244
2071.261,739.5,0.242
2077.314,742.5,0.241
2083.384,745.5,0.24
2089.455,748.5,0.238
2095.538,751.5,0.237
2101.606,754.5,0.236
2107.651,757.5,0.235
2113.705,760.5,0.234
2119.78,763.5,0.233
2125.867,766.5,0.232
2131.91,769.5,0.231
2137.98,772.5,0.23
2144.044,775.5,0.229
2150.115,778.5,0.228
2156.154,781.5,0.227
2162.218,784.5,0.227
2168.278,787.5,0.226
2174.345,790.5,0.225
2180.407,793.5,0.224
2186.448,796.5,0.224
2192.512,799.5,0.223
2198.562,802.5,0.223
2204.602,805.5,0.222
2210.661,808.5,0.221
2216.705,811.5,0.22
2222.758,814.5,0.22
2228.812,817.5,0.219
2234.866,820.5,0.219
2240.912,823.5,0.218
2246.974,826.5,0.218
2253.03,829.5,0.217
2259.067,832.5,0.216
2265.109,835.5,0.216
2271.183,838.5,0.215
2277.217,841.5,0.215
2283.261,844.5,0.214
2289.347,847.5,0.214
2295.402,850.5,0.214
2301.446,853.5,0.213
2307.517,856.5,0.212
2313.559,859.5,0.211
2319.602,862.5,0.211
2325.648,865.5,0.211
2331.694,868.5,0.21
2337.741,871.5,0.21
2343.781,874.5,0.21
2349.829,877.5,0.209
2355.872,880.5,0.209
2361.909,883.5,0.208
2367.946,886.5,0.208
2373.986,889.5,0.207
2380.006,892.5,0.207
2386.05,895.5,0.206
2392.06,898.5,0.206
2398.11,901.5,0.206
2404.122,904.5,0.205
2410.159,907.5,0.205
2416.171,910.5,0.204
2422.206,913.5,0.204
2428.231,916.5,0.204
2434.251,919.5,0.203
2440.277,922.5,0.203
2446.293,925.5,0.203
2452.337,928.5,0.202
2458.356,931.5,0.202
2464.384,934.5,0.202
2470.402,937.5,0.201
2476.442,940.5,0.201
2482.464,943.5,0.201
2488.482,946.5,0.201
2494.514,949.5,0.2
2500.543,952.5,0.2
2506.555,955.5,0.199
2512.584,958.5,0.199
2518.612,961.5,0.199
2524.611,964.5,0.199
2530.656,967.5,0.198
2536.671,970.5,0.198
2542.675,973.5,0.198
2548.714,976.5,0.198
2554.737,979.5,0.197
2560.748,982.5,0.197
2566.762,985.5,0.197
2572.763,988.5,0.197
2578.793,991.5,0.196
2584.803,994.5,0.196
2590.814,997.5,0.196
2596.831,1000.5,0.196
2602.83,1003.5,0.195
2608.847,1006.5,0.195
2614.863,1009.5,0.195
2620.89,1012.5,0.195
2626.882,1015.5,0.194
2632.889,1018.5,0.194
2638.896,1021.5,0.194
2644.911,1024.5,0.194
2650.929,1027.5,0.193
2656.936,1030.5,0.193
2662.943,1033.5,0.193
2668.946,1036.5,0.193
2674.96,1039.5,0.193
2680.978,1042.5,0.192
2686.994,1045.5,0.192
2692.972,1048.5,0.192
2698.996,1051.5,0.192
2705.02,1054.5,0.192
2711.03,1057.5,0.191
2717.035,1060.5,0.191
2725.303,1063.5,0.191
2740.0,1067.104,0.19
2800.0,1071.466,0.189
2860.0,1072.17,0.188
2920.0,1072.427,0.188
2980.0,1072.557,0.187
3040.0,1072.632,0.186