File: Wood/Calibration_Data/TUBS/TUBS_Wood_TGA_N2_50K_R7.csv
Time (s),Temperature (K),Mass (mg)
0.0,304.994,2.03
24.0,304.889,2.024
54.0,304.781,2.018
94.0,304.683,2.012
147.0,304.614,2.006
218.0,304.544,2.0
330.0,304.47,1.994
522.0,304.437,1.988
1123.0,304.452,1.982
1206.753,306.5,1.98
1211.691,309.5,1.981
1215.659,312.5,1.983
1219.366,315.5,1.984
1222.999,318.5,1.983
1226.596,321.5,1.983
1230.195,324.5,1.982
1233.79,327.5,1.98
1237.385,330.5,1.98
1240.971,333.5,1.979
1244.564,336.5,1.978
1248.173,339.5,1.977
1251.773,342.5,1.976
1255.384,345.5,1.975
1258.98,348.5,1.973
1262.6,351.5,1.972
1266.217,354.5,1.971
1269.827,357.5,1.969
1273.438,360.5,1.968
1277.035,363.5,1.966
1280.654,366.5,1.965
1284.263,369.5,1.964
1287.874,372.5,1.962
1291.474,375.5,1.961
1295.079,378.5,1.961
1298.657,381.5,1.96
1302.269,384.5,1.959
1305.863,387.5,1.959
1309.448,390.5,1.959
1313.044,393.5,1.958
1316.633,396.5,1.958
1320.218,399.5,1.958
1323.802,402.5,1.958
1327.383,405.5,1.958
1330.974,408.5,1.958
1334.549,411.5,1.958
1338.105,414.5,1.958
1341.685,417.5,1.957
1345.253,420.5,1.957
1348.825,423.5,1.957
1352.375,426.5,1.957
1355.933,429.5,1.957
1359.486,432.5,1.957
1363.033,435.5,1.956
1366.584,438.5,1.956
1370.129,441.5,1.956
1373.671,444.5,1.955
1377.204,447.5,1.955
1380.736,450.5,1.954
1384.273,453.5,1.954
1387.795,456.5,1.953
1391.31,459.5,1.953
1394.837,462.5,1.952
1398.349,465.5,1.951
1401.863,468.5,1.95
1405.379,471.5,1.949
1408.889,474.5,1.947
1412.396,477.5,1.946
1415.902,480.5,1.944
1419.41,483.5,1.942
1422.919,486.5,1.94
1426.422,489.5,1.938
1429.914,492.5,1.935
1433.421,495.5,1.933
1436.917,498.5,1.929
1440.408,501.5,1.927
1443.92,504.5,1.923
1447.414,507.5,1.921
1450.911,510.5,1.917
1454.41,513.5,1.914
1457.914,516.5,1.91
1461.409,519.5,1.906
1464.923,522.5,1.902
1468.413,525.5,1.898
1471.911,528.5,1.893
1475.418,531.5,1.888
1478.902,534.5,1.882
1482.411,537.5,1.877
1485.916,540.5,1.87
1489.419,543.5,1.863
1492.926,546.5,1.856
1496.447,549.5,1.848
1499.955,552.5,1.84
1503.461,555.5,1.831
1506.972,558.5,1.822
1510.487,561.5,1.812
1513.999,564.5,1.801
1517.521,567.5,1.79
1521.04,570.5,1.779
1524.556,573.5,1.767
1528.079,576.5,1.755
1531.607,579.5,1.742
1535.121,582.5,1.729
1538.656,585.5,1.714
1542.172,588.5,1.7
1545.719,591.5,1.685
1549.273,594.5,1.669
1552.791,597.5,1.652
1556.347,600.5,1.634
1559.91,603.5,1.615
1563.446,606.5,1.595
1567.004,609.5,1.575
1570.553,612.5,1.553
1574.119,615.5,1.529
1577.677,618.5,1.504
1581.238,621.5,1.478
1584.816,624.5,1.451
1588.385,627.5,1.423
1591.953,630.5,1.393
1595.534,633.5,1.362
1599.11,636.5,1.331
1602.699,639.5,1.298
1606.281,642.5,1.263
1609.876,645.5,1.229
1613.465,648.5,1.193
1617.075,651.5,1.155
1620.678,654.5,1.118
1624.294,657.5,1.077
1627.9,660.5,1.035
1631.53,663.5,0.992
1635.153,666.5,0.946
1638.774,669.5,0.898
1642.387,672.5,0.848
1646.008,675.5,0.796
1649.642,678.5,0.743
1653.267,681.5,0.691
1656.882,684.5,0.642
1660.478,687.5,0.596
1664.079,690.5,0.557
1667.683,693.5,0.526
1671.29,696.5,0.502
1674.891,699.5,0.485
1678.519,702.5,0.474
1682.128,705.5,0.467
1685.761,708.5,0.46
1689.382,711.5,0.456
1693.004,714.5,0.451
1696.642,717.5,0.447
1700.271,720.5,0.443
1703.899,723.5,0.439
1707.526,726.5,0.435
1711.164,729.5,0.432
1714.807,732.5,0.428
1718.435,735.5,0.426
1722.085,738.5,0.422
1725.72,741.5,0.418
1729.365,744.5,0.416
1732.992,747.5,0.413
1736.628,750.5,0.409
1740.28,753.5,0.407
1743.935,756.5,0.404
1747.571,759.5,0.401
1751.222,762.5,0.399
1754.865,765.5,0.396
1758.51,768.5,0.394
1762.151,771.5,0.392
1765.79,774.5,0.39
1769.446,777.5,0.388
1773.095,780.5,0.386
1776.733,783.5,0.384
1780.379,786.5,0.383
1784.028,789.5,0.381
1787.668,792.5,0.379
1791.311,795.5,0.378
1794.967,798.5,0.376
1798.603,801.5,0.375
1802.241,804.5,0.374
1805.883,807.5,0.372
1809.539,810.5,0.371
1813.182,813.5,0.37
1816.825,816.5,0.368
1820.476,819.5,0.367
1824.113,822.5,0.366
1827.754,825.5,0.365
1831.408,828.5,0.364
1835.061,831.5,0.362
1838.692,834.5,0.361
1842.338,837.5,0.36
1845.982,840.5,0.359
1849.626,843.5,0.358
1853.259,846.5,0.357
1856.914,849.5,0.356
1860.552,852.5,0.355
1864.187,855.5,0.354
1867.837,858.5,0.353
1871.467,861.5,0.352
1875.105,864.5,0.351
1878.763,867.5,0.35
1882.405,870.5,0.349
1886.033,873.5,0.348
1889.675,876.5,0.347
1893.309,879.5,0.346
1896.938,882.5,0.345
1900.572,885.5,0.344
1904.206,888.5,0.343
1907.843,891.5,0.342
1911.462,894.5,0.342
1915.088,897.5,0.341
1918.713,900.5,0.34
1922.348,903.5,0.339
1925.979,906.5,0.338
1929.593,909.5,0.338
1933.22,912.5,0.337
1936.844,915.5,0.336
1940.468,918.5,0.336
1944.088,921.5,0.335
1947.69,924.5,0.334
1951.312,927.5,0.333
1954.93,930.5,0.333
1958.543,933.5,0.332
1962.166,936.5,0.331
1965.777,939.5,0.331
1969.39,942.5,0.33
1972.995,945.5,0.33
1976.608,948.5,0.329
1980.212,951.5,0.329
1983.824,954.5,0.328
1987.434,957.5,0.328
1991.041,960.5,0.327
1994.654,963.5,0.326
1998.262,966.5,0.326
2001.86,969.5,0.326
2005.467,972.5,0.325
2009.059,975.5,0.325
2012.669,978.5,0.324
2016.271,981.5,0.324
2019.868,984.5,0.323
2023.475,987.5,0.323
2027.072,990.5,0.322
2030.672,993.5,0.322
2034.265,996.5,0.322
2037.871,999.5,0.321
2041.458,1002.5,0.321
2045.064,1005.5,0.32
2048.655,1008.5,0.32
2052.247,1011.5,0.319
2055.844,1014.5,0.319
2059.427,1017.5,0.319
2063.02,1020.5,0.318
2066.616,1023.5,0.318
2070.203,1026.5,0.318
2073.781,1029.5,0.317
2077.375,1032.5,0.317
2080.963,1035.5,0.317
2084.547,1038.5,0.316
2088.141,1041.5,0.316
2091.716,1044.5,0.316
2095.305,1047.5,0.315
2098.887,1050.5,0.315
2102.48,1053.5,0.315
2107.476,1056.5,0.314
2113.331,1059.5,0.314
2121.149,1062.5,0.313
2164.0,1069.28,0.311
2224.0,1071.172,0.308
2284.0,1071.721,0.307
2344.0,1071.958,0.305
2404.0,1072.063,0.304
2424.0,1072.082,0.303