File: Wood/Calibration_Data/TUBS/TUBS_Wood_TGA_N2_40K_R1.csv
Time (s),Temperature (K),Mass (mg)
0.0,304.978,0.96
45.0,304.805,0.954
132.0,304.628,0.948
362.0,304.48,0.942
703.0,304.404,0.94
1103.0,304.41,0.94
1203.788,305.0,0.938
1210.812,308.0,0.938
1215.946,311.0,0.941
1220.631,314.0,0.942
1225.232,317.0,0.941
1229.782,320.0,0.94
1234.34,323.0,0.939
1238.883,326.0,0.939
1243.422,329.0,0.938
1247.973,332.0,0.937
1252.516,335.0,0.937
1257.07,338.0,0.936
1261.603,341.0,0.935
1266.139,344.0,0.934
1270.673,347.0,0.934
1275.205,350.0,0.933
1279.748,353.0,0.932
1284.267,356.0,0.932
1288.801,359.0,0.931
1293.316,362.0,0.93
1297.848,365.0,0.93
1302.384,368.0,0.93
1306.873,371.0,0.929
1311.407,374.0,0.929
1315.925,377.0,0.929
1320.416,380.0,0.928
1324.924,383.0,0.928
1329.419,386.0,0.928
1333.926,389.0,0.928
1338.407,392.0,0.928
1342.894,395.0,0.928
1347.373,398.0,0.928
1351.85,401.0,0.928
1356.322,404.0,0.928
1360.781,407.0,0.928
1365.237,410.0,0.928
1369.688,413.0,0.928
1374.135,416.0,0.927
1378.583,419.0,0.927
1383.029,422.0,0.927
1387.466,425.0,0.927
1391.9,428.0,0.927
1396.347,431.0,0.927
1400.765,434.0,0.927
1405.194,437.0,0.927
1409.609,440.0,0.926
1414.025,443.0,0.926
1418.441,446.0,0.926
1422.831,449.0,0.926
1427.237,452.0,0.925
1431.634,455.0,0.925
1436.026,458.0,0.925
1440.409,461.0,0.924
1444.819,464.0,0.923
1449.201,467.0,0.923
1453.587,470.0,0.922
1457.977,473.0,0.921
1462.344,476.0,0.92
1466.725,479.0,0.919
1471.102,482.0,0.919
1475.479,485.0,0.918
1479.855,488.0,0.917
1484.231,491.0,0.916
1488.608,494.0,0.915
1492.979,497.0,0.914
1497.347,500.0,0.913
1501.711,503.0,0.912
1506.093,506.0,0.912
1510.46,509.0,0.911
1514.842,512.0,0.909
1519.218,515.0,0.908
1523.609,518.0,0.906
1527.972,521.0,0.905
1532.348,524.0,0.903
1536.738,527.0,0.901
1541.124,530.0,0.899
1545.507,533.0,0.897
1549.896,536.0,0.895
1554.292,539.0,0.892
1558.682,542.0,0.889
1563.067,545.0,0.886
1567.465,548.0,0.883
1571.872,551.0,0.879
1576.268,554.0,0.876
1580.666,557.0,0.871
1585.077,560.0,0.867
1589.481,563.0,0.863
1593.884,566.0,0.858
1598.3,569.0,0.854
1602.721,572.0,0.848
1607.132,575.0,0.843
1611.549,578.0,0.837
1615.984,581.0,0.831
1620.414,584.0,0.825
1624.828,587.0,0.818
1629.273,590.0,0.81
1633.709,593.0,0.803
1638.146,596.0,0.795
1642.579,599.0,0.786
1647.036,602.0,0.777
1651.478,605.0,0.767
1655.934,608.0,0.756
1660.379,611.0,0.745
1664.869,614.0,0.732
1669.308,617.0,0.72
1673.773,620.0,0.707
1678.254,623.0,0.693
1682.717,626.0,0.678
1687.192,629.0,0.663
1691.67,632.0,0.648
1696.147,635.0,0.632
1700.63,638.0,0.615
1705.122,641.0,0.599
1709.621,644.0,0.581
1714.117,647.0,0.563
1718.616,650.0,0.545
1723.131,653.0,0.525
1727.64,656.0,0.506
1732.161,659.0,0.485
1736.686,662.0,0.464
1741.211,665.0,0.441
1745.747,668.0,0.417
1750.267,671.0,0.393
1754.797,674.0,0.368
1759.34,677.0,0.343
1763.875,680.0,0.319
1768.393,683.0,0.297
1772.907,686.0,0.278
1777.427,689.0,0.263
1781.956,692.0,0.251
1786.474,695.0,0.243
1791.018,698.0,0.237
1795.537,701.0,0.234
1800.076,704.0,0.232
1804.619,707.0,0.229
1809.156,710.0,0.227
1813.699,713.0,0.226
1818.235,716.0,0.224
1822.766,719.0,0.222
1827.329,722.0,0.221
1831.87,725.0,0.219
1836.417,728.0,0.217
1840.961,731.0,0.216
1845.515,734.0,0.214
1850.059,737.0,0.213
1854.613,740.0,0.212
1859.154,743.0,0.211
1863.722,746.0,0.209
1868.267,749.0,0.208
1872.822,752.0,0.206
1877.39,755.0,0.205
1881.921,758.0,0.204
1886.473,761.0,0.203
1891.037,764.0,0.202
1895.587,767.0,0.201
1900.13,770.0,0.2
1904.692,773.0,0.199
1909.235,776.0,0.198
1913.783,779.0,0.198
1918.335,782.0,0.197
1922.888,785.0,0.196
1927.431,788.0,0.195
1931.98,791.0,0.194
1936.527,794.0,0.194
1941.084,797.0,0.193
1945.641,800.0,0.192
1950.178,803.0,0.192
1954.741,806.0,0.191
1959.286,809.0,0.191
1963.831,812.0,0.19
1968.373,815.0,0.189
1972.918,818.0,0.189
1977.48,821.0,0.188
1982.033,824.0,0.188
1986.574,827.0,0.187
1991.111,830.0,0.187
1995.658,833.0,0.186
2000.202,836.0,0.186
2004.75,839.0,0.185
2009.294,842.0,0.185
2013.83,845.0,0.184
2018.376,848.0,0.184
2022.935,851.0,0.183
2027.458,854.0,0.183
2032.033,857.0,0.182
2036.568,860.0,0.182
2041.11,863.0,0.181
2045.646,866.0,0.181
2050.195,869.0,0.18
2054.719,872.0,0.18
2059.255,875.0,0.18
2063.8,878.0,0.179
2068.336,881.0,0.179
2072.859,884.0,0.178
2077.394,887.0,0.178
2081.928,890.0,0.177
2086.447,893.0,0.177
2090.977,896.0,0.177
2095.499,899.0,0.176
2100.029,902.0,0.176
2104.542,905.0,0.176
2109.065,908.0,0.175
2113.585,911.0,0.175
2118.107,914.0,0.175
2122.626,917.0,0.174
2127.148,920.0,0.174
2131.663,923.0,0.173
2136.185,926.0,0.173
2140.694,929.0,0.173
2145.21,932.0,0.172
2149.733,935.0,0.172
2154.245,938.0,0.172
2158.757,941.0,0.172
2163.268,944.0,0.171
2167.788,947.0,0.171
2172.293,950.0,0.17
2176.799,953.0,0.17
2181.313,956.0,0.17
2185.836,959.0,0.17
2190.336,962.0,0.17
2194.842,965.0,0.169
2199.352,968.0,0.169
2203.857,971.0,0.169
2208.355,974.0,0.168
2212.863,977.0,0.168
2217.36,980.0,0.168
2221.872,983.0,0.168
2226.361,986.0,0.167
2230.871,989.0,0.167
2235.376,992.0,0.167
2239.872,995.0,0.167
2244.381,998.0,0.166
2248.886,1001.0,0.166
2253.392,1004.0,0.166
2257.89,1007.0,0.166
2262.379,1010.0,0.165
2266.871,1013.0,0.165
2271.369,1016.0,0.165
2275.857,1019.0,0.164
2280.359,1022.0,0.164
2284.845,1025.0,0.164
2289.334,1028.0,0.164
2293.819,1031.0,0.164
2298.326,1034.0,0.163
2302.83,1037.0,0.163
2307.324,1040.0,0.163
2311.812,1043.0,0.163
2316.304,1046.0,0.163
2320.805,1049.0,0.162
2325.288,1052.0,0.162
2329.796,1055.0,0.162
2334.263,1058.0,0.162
2341.559,1061.0,0.161
2350.237,1064.0,0.161
2385.0,1069.562,0.16
2445.0,1071.728,0.159
2505.0,1072.257,0.158
2565.0,1072.506,0.158
2625.0,1072.635,0.157
2655.0,1072.671,0.157