File: Wood/Calibration_Data/TUBS/TUBS_TGA_N2_20K_R1.csv
Time (s),Temperature (K),Mass (mg)
0.0,304.035,1.09
9.0,305.056,1.089
18.0,305.006,1.088
27.0,304.966,1.087
36.0,304.938,1.086
45.0,304.909,1.085
54.0,304.865,1.084
63.0,304.848,1.084
72.0,304.825,1.083
81.0,304.801,1.082
90.0,304.761,1.082
99.0,304.745,1.082
108.0,304.742,1.081
117.0,304.725,1.08
126.0,304.687,1.08
135.0,304.686,1.079
144.0,304.666,1.079
153.0,304.648,1.079
162.0,304.649,1.079
171.0,304.628,1.078
180.0,304.606,1.078
189.0,304.616,1.078
198.0,304.612,1.077
207.0,304.593,1.077
216.0,304.582,1.077
225.0,304.546,1.077
234.0,304.561,1.076
243.0,304.562,1.076
252.0,304.542,1.076
261.0,304.528,1.076
270.0,304.532,1.076
279.0,304.527,1.076
288.0,304.524,1.075
297.0,304.512,1.075
306.0,304.512,1.075
315.0,304.484,1.075
324.0,304.506,1.075
333.0,304.489,1.075
342.0,304.483,1.074
351.0,304.48,1.074
360.0,304.47,1.074
369.0,304.486,1.074
378.0,304.475,1.074
387.0,304.473,1.074
396.0,304.475,1.074
405.0,304.454,1.074
414.0,304.471,1.074
423.0,304.459,1.074
432.0,304.474,1.073
441.0,304.474,1.073
450.0,304.459,1.073
459.0,304.456,1.073
468.0,304.471,1.073
477.0,304.46,1.073
486.0,304.442,1.073
495.0,304.456,1.073
504.0,304.457,1.073
513.0,304.452,1.073
522.0,304.453,1.073
531.0,304.454,1.073
540.0,304.452,1.073
549.0,304.452,1.073
558.0,304.449,1.073
567.0,304.463,1.072
576.0,304.445,1.073
585.0,304.443,1.072
594.0,304.461,1.072
603.0,304.451,1.072
612.0,304.448,1.072
621.0,304.43,1.072
630.0,304.434,1.072
639.0,304.452,1.072
648.0,304.451,1.072
657.0,304.452,1.072
666.0,304.464,1.072
675.0,304.465,1.072
684.0,304.446,1.072
693.0,304.456,1.072
702.0,304.451,1.072
711.0,304.453,1.072
720.0,304.459,1.072
729.0,304.455,1.072
738.0,304.455,1.072
747.0,304.451,1.072
756.0,304.447,1.072
765.0,304.456,1.072
774.0,304.447,1.072
783.0,304.458,1.072
792.0,304.45,1.072
801.0,304.468,1.072
810.0,304.464,1.071
819.0,304.455,1.071
828.0,304.468,1.071
837.0,304.45,1.072
846.0,304.464,1.071
855.0,304.468,1.071
864.0,304.459,1.071
873.0,304.464,1.071
882.0,304.468,1.071
891.0,304.463,1.071
900.0,304.46,1.071
909.0,304.45,1.071
918.0,304.455,1.071
927.0,304.461,1.071
936.0,304.463,1.071
945.0,304.442,1.071
954.0,304.455,1.071
963.0,304.473,1.071
972.0,304.463,1.071
981.0,304.471,1.071
990.0,304.457,1.071
999.0,304.448,1.071
1008.0,304.445,1.071
1017.0,304.446,1.071
1026.0,304.459,1.071
1035.0,304.435,1.071
1044.0,304.435,1.071
1053.0,304.443,1.071
1062.0,304.458,1.071
1071.0,304.454,1.071
1080.0,304.451,1.071
1089.0,304.449,1.071
1098.0,304.444,1.071
1107.0,304.453,1.071
1116.0,304.44,1.071
1125.0,304.443,1.071
1134.0,304.464,1.071
1143.0,304.446,1.071
1152.0,304.449,1.071
1161.0,304.443,1.071
1170.0,304.457,1.071
1179.0,304.463,1.071
1188.0,304.452,1.071
1197.0,304.448,1.071
1206.0,305.862,1.069
1215.0,310.375,1.072
1224.0,316.047,1.074
1233.0,321.914,1.072
1242.0,327.776,1.071
1251.0,333.676,1.07
1260.0,339.597,1.068
1269.0,345.514,1.067
1278.0,351.424,1.065
1287.0,357.355,1.064
1296.0,363.296,1.062
1305.0,369.248,1.062
1314.0,375.2,1.061
1323.0,381.192,1.061
1332.0,387.167,1.06
1341.0,393.166,1.06
1350.0,399.189,1.06
1359.0,405.22,1.06
1368.0,411.257,1.06
1377.0,417.315,1.06
1386.0,423.383,1.06
1395.0,429.474,1.06
1404.0,435.556,1.059
1413.0,441.667,1.059
1422.0,447.785,1.058
1431.0,453.919,1.057
1440.0,460.055,1.056
1449.0,466.209,1.055
1458.0,472.377,1.053
1467.0,478.541,1.051
1476.0,484.694,1.049
1485.0,490.869,1.046
1494.0,497.049,1.043
1503.0,503.215,1.04
1512.0,509.379,1.037
1521.0,515.562,1.032
1530.0,521.73,1.028
1539.0,527.891,1.022
1548.0,534.046,1.015
1557.0,540.196,1.007
1566.0,546.342,0.998
1575.0,552.501,0.988
1584.0,558.63,0.976
1593.0,564.766,0.964
1602.0,570.901,0.951
1611.0,577.024,0.937
1620.0,583.174,0.92
1629.0,589.293,0.899
1638.0,595.406,0.878
1647.0,601.499,0.855
1656.0,607.59,0.83
1665.0,613.65,0.802
1674.0,619.686,0.772
1683.0,625.718,0.738
1692.0,631.726,0.703
1701.0,637.748,0.666
1710.0,643.762,0.627
1719.0,649.75,0.586
1728.0,655.743,0.541
1737.0,661.709,0.492
1746.0,667.67,0.439
1755.0,673.624,0.382
1764.0,679.587,0.324
1773.0,685.559,0.274
1782.0,691.526,0.24
1791.0,697.493,0.223
1800.0,703.457,0.215
1809.0,709.405,0.21
1818.0,715.34,0.206
1827.0,721.297,0.202
1836.0,727.229,0.198
1845.0,733.164,0.194
1854.0,739.092,0.19
1863.0,745.021,0.187
1872.0,750.94,0.183
1881.0,756.855,0.18
1890.0,762.779,0.177
1899.0,768.701,0.174
1908.0,774.611,0.172
1917.0,780.527,0.17
1926.0,786.428,0.168
1935.0,792.34,0.166
1944.0,798.255,0.164
1953.0,804.168,0.162
1962.0,810.091,0.161
1971.0,816.008,0.159
1980.0,821.925,0.158
1989.0,827.848,0.157
1998.0,833.77,0.156
2007.0,839.708,0.155
2016.0,845.635,0.153
2025.0,851.568,0.152
2034.0,857.5,0.151
2043.0,863.446,0.15
2052.0,869.39,0.149
2061.0,875.334,0.148
2070.0,881.279,0.147
2079.0,887.23,0.146
2088.0,893.181,0.145
2097.0,899.135,0.144
2106.0,905.092,0.144
2115.0,911.046,0.143
2124.0,917.031,0.142
2133.0,922.999,0.141
2142.0,928.98,0.141
2151.0,934.946,0.14
2160.0,940.93,0.139
2169.0,946.913,0.139
2178.0,952.885,0.138
2187.0,958.85,0.137
2196.0,964.847,0.137
2205.0,970.827,0.136
2214.0,976.799,0.136
2223.0,982.785,0.135
2232.0,988.769,0.135
2241.0,994.754,0.134
2250.0,1000.743,0.134
2259.0,1006.726,0.133
2268.0,1012.715,0.133
2277.0,1018.704,0.132
2286.0,1024.701,0.132
2295.0,1030.69,0.131
2304.0,1036.673,0.131
2313.0,1042.661,0.13
2322.0,1048.657,0.13
2331.0,1054.646,0.129
2340.0,1059.4,0.129
2349.0,1062.779,0.128
2358.0,1065.15,0.128
2367.0,1066.829,0.128
2376.0,1068.043,0.127
2385.0,1068.921,0.127
2394.0,1069.569,0.127
2403.0,1070.039,0.127
2412.0,1070.409,0.127
2421.0,1070.698,0.126
2430.0,1070.92,0.126
2439.0,1071.106,0.126
2448.0,1071.247,0.126
2457.0,1071.368,0.126
2466.0,1071.477,0.126
2475.0,1071.568,0.126
2484.0,1071.643,0.125
2493.0,1071.72,0.125
2502.0,1071.79,0.125
2511.0,1071.842,0.125
2520.0,1071.901,0.125
2529.0,1071.939,0.125
2538.0,1071.975,0.124
2547.0,1072.015,0.124
2556.0,1072.043,0.124
2565.0,1072.086,0.124
2574.0,1072.112,0.124
2583.0,1072.147,0.124
2592.0,1072.165,0.124
2601.0,1072.182,0.124
2610.0,1072.213,0.124
2619.0,1072.232,0.124
2628.0,1072.256,0.124
2637.0,1072.262,0.123
2646.0,1072.284,0.123
2655.0,1072.296,0.123