File: Wood/Calibration_Data/TUBS/TUBS_Wood_TGA_N2_50K_R15.csv
Time (s),Temperature (K),Mass (mg)
0.0,305.032,0.51
274.0,304.527,0.504
694.0,304.435,0.504
1006.0,304.424,0.504
1206.625,306.0,0.501
1211.492,309.0,0.502
1215.32,312.0,0.505
1218.919,315.0,0.506
1222.469,318.0,0.506
1225.977,321.0,0.506
1229.509,324.0,0.504
1233.036,327.0,0.504
1236.554,330.0,0.503
1240.098,333.0,0.502
1243.641,336.0,0.502
1247.187,339.0,0.501
1250.77,342.0,0.501
1254.337,345.0,0.501
1257.917,348.0,0.5
1261.512,351.0,0.5
1265.097,354.0,0.499
1268.679,357.0,0.499
1272.254,360.0,0.499
1275.858,363.0,0.498
1279.442,366.0,0.498
1283.04,369.0,0.498
1286.636,372.0,0.498
1290.225,375.0,0.498
1293.806,378.0,0.497
1297.404,381.0,0.497
1300.993,384.0,0.497
1304.574,387.0,0.497
1308.163,390.0,0.497
1311.742,393.0,0.497
1315.324,396.0,0.497
1318.89,399.0,0.497
1322.472,402.0,0.497
1326.041,405.0,0.497
1329.601,408.0,0.497
1333.176,411.0,0.497
1336.721,414.0,0.497
1340.292,417.0,0.497
1343.86,420.0,0.497
1347.402,423.0,0.497
1350.949,426.0,0.497
1354.48,429.0,0.497
1358.021,432.0,0.496
1361.548,435.0,0.496
1365.091,438.0,0.496
1368.631,441.0,0.496
1372.16,444.0,0.496
1375.669,447.0,0.495
1379.207,450.0,0.495
1382.704,453.0,0.495
1386.217,456.0,0.495
1389.714,459.0,0.494
1393.225,462.0,0.494
1396.731,465.0,0.494
1400.236,468.0,0.493
1403.731,471.0,0.493
1407.227,474.0,0.492
1410.723,477.0,0.492
1414.22,480.0,0.491
1417.712,483.0,0.49
1421.192,486.0,0.49
1424.686,489.0,0.489
1428.168,492.0,0.488
1431.658,495.0,0.488
1435.145,498.0,0.487
1438.623,501.0,0.486
1442.116,504.0,0.486
1445.586,507.0,0.485
1449.077,510.0,0.484
1452.571,513.0,0.483
1456.046,516.0,0.482
1459.531,519.0,0.481
1463.016,522.0,0.48
1466.513,525.0,0.479
1470.007,528.0,0.477
1473.478,531.0,0.476
1476.98,534.0,0.475
1480.46,537.0,0.473
1483.944,540.0,0.471
1487.448,543.0,0.47
1490.94,546.0,0.468
1494.437,549.0,0.466
1497.924,552.0,0.463
1501.423,555.0,0.462
1504.924,558.0,0.459
1508.41,561.0,0.457
1511.916,564.0,0.454
1515.415,567.0,0.452
1518.928,570.0,0.449
1522.427,573.0,0.447
1525.948,576.0,0.444
1529.445,579.0,0.441
1532.961,582.0,0.438
1536.47,585.0,0.435
1539.982,588.0,0.432
1543.504,591.0,0.428
1547.03,594.0,0.424
1550.558,597.0,0.42
1554.086,600.0,0.416
1557.613,603.0,0.412
1561.147,606.0,0.407
1564.69,609.0,0.402
1568.22,612.0,0.398
1571.764,615.0,0.391
1575.325,618.0,0.386
1578.87,621.0,0.379
1582.424,624.0,0.373
1585.988,627.0,0.366
1589.54,630.0,0.359
1593.101,633.0,0.352
1596.675,636.0,0.344
1600.228,639.0,0.337
1603.799,642.0,0.328
1607.376,645.0,0.32
1610.954,648.0,0.311
1614.535,651.0,0.302
1618.113,654.0,0.294
1621.721,657.0,0.284
1625.309,660.0,0.274
1628.905,663.0,0.264
1632.49,666.0,0.254
1636.105,669.0,0.243
1639.714,672.0,0.231
1643.314,675.0,0.219
1646.928,678.0,0.206
1650.538,681.0,0.194
1654.16,684.0,0.181
1657.783,687.0,0.169
1661.385,690.0,0.158
1664.99,693.0,0.148
1668.613,696.0,0.14
1672.229,699.0,0.133
1675.852,702.0,0.129
1679.476,705.0,0.126
1683.106,708.0,0.124
1686.731,711.0,0.122
1690.35,714.0,0.121
1693.99,717.0,0.12
1697.634,720.0,0.119
1701.258,723.0,0.119
1704.883,726.0,0.118
1708.532,729.0,0.117
1712.166,732.0,0.116
1715.798,735.0,0.115
1719.434,738.0,0.114
1723.071,741.0,0.114
1726.723,744.0,0.113
1730.365,747.0,0.112
1734.006,750.0,0.112
1737.648,753.0,0.111
1741.298,756.0,0.11
1744.948,759.0,0.11
1748.582,762.0,0.109
1752.23,765.0,0.109
1755.875,768.0,0.108
1759.521,771.0,0.107
1763.168,774.0,0.107
1766.822,777.0,0.107
1770.471,780.0,0.106
1774.115,783.0,0.106
1777.75,786.0,0.105
1781.405,789.0,0.105
1785.056,792.0,0.105
1788.701,795.0,0.104
1792.361,798.0,0.104
1796.006,801.0,0.104
1799.654,804.0,0.103
1803.296,807.0,0.103
1806.934,810.0,0.103
1810.59,813.0,0.102
1814.232,816.0,0.102
1817.882,819.0,0.102
1821.537,822.0,0.102
1825.177,825.0,0.101
1828.82,828.0,0.101
1832.463,831.0,0.101
1836.117,834.0,0.101
1839.76,837.0,0.101
1843.409,840.0,0.1
1847.053,843.0,0.1
1850.701,846.0,0.1
1854.353,849.0,0.1
1858.0,852.0,0.099
1861.633,855.0,0.099
1865.282,858.0,0.099
1868.933,861.0,0.099
1872.575,864.0,0.099
1876.213,867.0,0.098
1879.863,870.0,0.098
1883.508,873.0,0.098
1887.149,876.0,0.098
1890.8,879.0,0.097
1894.435,882.0,0.097
1898.073,885.0,0.097
1901.708,888.0,0.097
1905.352,891.0,0.097
1908.987,894.0,0.096
1912.624,897.0,0.096
1916.266,900.0,0.096
1919.909,903.0,0.096
1923.537,906.0,0.096
1927.173,909.0,0.096
1930.808,912.0,0.095
1934.45,915.0,0.095
1938.076,918.0,0.095
1941.72,921.0,0.095
1945.348,924.0,0.095
1948.976,927.0,0.095
1952.616,930.0,0.094
1956.248,933.0,0.094
1959.881,936.0,0.094
1963.517,939.0,0.094
1967.147,942.0,0.094
1970.781,945.0,0.094
1974.403,948.0,0.094
1978.027,951.0,0.093
1981.672,954.0,0.093
1985.294,957.0,0.093
1988.926,960.0,0.093
1992.561,963.0,0.093
1996.203,966.0,0.093
1999.831,969.0,0.093
2003.462,972.0,0.093
2007.091,975.0,0.093
2010.723,978.0,0.092
2014.35,981.0,0.092
2017.983,984.0,0.092
2021.619,987.0,0.092
2025.237,990.0,0.092
2028.875,993.0,0.092
2032.493,996.0,0.092
2036.114,999.0,0.092
2039.742,1002.0,0.092
2043.359,1005.0,0.091
2046.995,1008.0,0.091
2050.613,1011.0,0.091
2054.242,1014.0,0.091
2057.87,1017.0,0.091
2061.483,1020.0,0.091
2065.1,1023.0,0.091
2068.72,1026.0,0.091
2072.345,1029.0,0.091
2075.956,1032.0,0.09
2079.564,1035.0,0.09
2083.176,1038.0,0.09
2086.783,1041.0,0.09
2090.403,1044.0,0.09
2094.011,1047.0,0.09
2097.621,1050.0,0.09
2101.218,1053.0,0.09
2105.298,1056.0,0.09
2110.824,1059.0,0.09
2117.76,1062.0,0.09
2154.0,1068.921,0.089
2214.0,1071.317,0.089
2274.0,1071.982,0.089
2334.0,1072.27,0.088
2394.0,1072.403,0.088
2424.0,1072.434,0.088