File: Wood/Calibration_Data/TUBS/TUBS_TGA_N2_10K_R2.csv
Time (s),Temperature (K),Mass (mg)
0.0,305.085,1.02
9.0,305.029,1.019
18.0,304.987,1.018
27.0,304.961,1.017
36.0,304.925,1.016
45.0,304.887,1.015
54.0,304.848,1.015
63.0,304.84,1.014
72.0,304.804,1.013
81.0,304.799,1.013
90.0,304.774,1.012
99.0,304.736,1.012
108.0,304.748,1.011
117.0,304.729,1.011
126.0,304.684,1.011
135.0,304.68,1.01
144.0,304.669,1.01
153.0,304.656,1.01
162.0,304.643,1.009
171.0,304.635,1.009
180.0,304.631,1.009
189.0,304.607,1.008
198.0,304.598,1.008
207.0,304.592,1.008
216.0,304.587,1.008
225.0,304.586,1.008
234.0,304.57,1.008
243.0,304.565,1.007
252.0,304.57,1.007
261.0,304.551,1.007
270.0,304.549,1.007
279.0,304.536,1.007
288.0,304.538,1.006
297.0,304.523,1.006
306.0,304.523,1.006
315.0,304.51,1.006
324.0,304.49,1.006
333.0,304.511,1.006
342.0,304.501,1.006
351.0,304.487,1.005
360.0,304.497,1.005
369.0,304.484,1.005
378.0,304.487,1.005
387.0,304.495,1.005
396.0,304.482,1.005
405.0,304.478,1.005
414.0,304.479,1.005
423.0,304.473,1.005
432.0,304.485,1.005
441.0,304.469,1.005
450.0,304.477,1.005
459.0,304.485,1.005
468.0,304.484,1.005
477.0,304.459,1.005
486.0,304.463,1.005
495.0,304.472,1.005
504.0,304.471,1.004
513.0,304.459,1.004
522.0,304.468,1.004
531.0,304.464,1.004
540.0,304.458,1.004
549.0,304.46,1.004
558.0,304.456,1.004
567.0,304.448,1.004
576.0,304.467,1.004
585.0,304.451,1.004
594.0,304.462,1.004
603.0,304.457,1.004
612.0,304.461,1.004
621.0,304.457,1.004
630.0,304.464,1.004
639.0,304.463,1.004
648.0,304.473,1.004
657.0,304.452,1.004
666.0,304.457,1.004
675.0,304.443,1.004
684.0,304.473,1.004
693.0,304.463,1.003
702.0,304.456,1.003
711.0,304.481,1.004
720.0,304.452,1.004
729.0,304.442,1.003
738.0,304.463,1.003
747.0,304.47,1.003
756.0,304.453,1.003
765.0,304.45,1.003
774.0,304.452,1.003
783.0,304.456,1.003
792.0,304.463,1.003
801.0,304.456,1.003
810.0,304.446,1.003
819.0,304.437,1.003
828.0,304.453,1.003
837.0,304.438,1.003
846.0,304.452,1.003
855.0,304.459,1.003
864.0,304.462,1.003
873.0,304.439,1.003
882.0,304.447,1.003
891.0,304.457,1.003
900.0,304.455,1.003
909.0,304.463,1.003
918.0,304.453,1.003
927.0,304.446,1.003
936.0,304.455,1.003
945.0,304.454,1.003
954.0,304.454,1.003
963.0,304.447,1.003
972.0,304.455,1.003
981.0,304.458,1.003
990.0,304.449,1.003
999.0,304.447,1.003
1008.0,304.443,1.003
1017.0,304.456,1.003
1026.0,304.454,1.003
1035.0,304.451,1.003
1044.0,304.44,1.003
1053.0,304.45,1.003
1062.0,304.452,1.003
1071.0,304.46,1.003
1080.0,304.467,1.003
1089.0,304.477,1.003
1098.0,304.45,1.003
1107.0,304.457,1.003
1116.0,304.454,1.003
1125.0,304.449,1.003
1134.0,304.472,1.003
1143.0,304.45,1.003
1152.0,304.448,1.003
1161.0,304.449,1.003
1170.0,304.453,1.003
1179.0,304.442,1.003
1188.0,304.457,1.003
1197.0,304.457,1.003
1206.0,305.918,1.001
1215.0,310.453,1.004
1224.0,316.198,1.006
1233.0,322.095,1.004
1242.0,328.037,1.003
1251.0,333.972,1.002
1260.0,339.904,1.0
1269.0,345.846,0.999
1278.0,351.8,0.997
1287.0,357.737,0.996
1296.0,363.702,0.995
1305.0,369.677,0.994
1314.0,375.635,0.993
1323.0,381.62,0.993
1332.0,387.62,0.993
1341.0,393.616,0.993
1350.0,399.643,0.992
1359.0,405.68,0.992
1368.0,411.726,0.993
1377.0,417.794,0.992
1386.0,423.858,0.992
1395.0,429.945,0.992
1404.0,436.056,0.991
1413.0,442.158,0.991
1422.0,448.283,0.99
1431.0,454.405,0.99
1440.0,460.555,0.989
1449.0,466.712,0.987
1458.0,472.867,0.985
1467.0,479.03,0.983
1476.0,485.189,0.981
1485.0,491.356,0.979
1494.0,497.525,0.976
1503.0,503.699,0.973
1512.0,509.869,0.969
1521.0,516.022,0.965
1530.0,522.195,0.961
1539.0,528.345,0.955
1548.0,534.501,0.949
1557.0,540.658,0.941
1566.0,546.793,0.933
1575.0,552.927,0.923
1584.0,559.062,0.913
1593.0,565.171,0.902
1602.0,571.283,0.89
1611.0,577.399,0.877
1620.0,583.502,0.863
1629.0,589.589,0.848
1638.0,595.679,0.831
1647.0,601.74,0.811
1656.0,607.803,0.79
1665.0,613.857,0.765
1674.0,619.885,0.738
1683.0,625.922,0.709
1692.0,631.939,0.677
1701.0,637.954,0.642
1710.0,643.949,0.606
1719.0,649.936,0.568
1728.0,655.912,0.527
1737.0,661.869,0.482
1746.0,667.816,0.432
1755.0,673.772,0.379
1764.0,679.706,0.326
1773.0,685.659,0.279
1782.0,691.616,0.247
1791.0,697.59,0.23
1800.0,703.531,0.223
1809.0,709.481,0.219
1818.0,715.416,0.215
1827.0,721.357,0.211
1836.0,727.286,0.208
1845.0,733.225,0.204
1854.0,739.155,0.201
1863.0,745.082,0.198
1872.0,751.006,0.195
1881.0,756.936,0.193
1890.0,762.863,0.19
1899.0,768.785,0.188
1908.0,774.712,0.186
1917.0,780.636,0.184
1926.0,786.572,0.183
1935.0,792.508,0.181
1944.0,798.427,0.18
1953.0,804.358,0.178
1962.0,810.289,0.177
1971.0,816.229,0.176
1980.0,822.165,0.175
1989.0,828.097,0.173
1998.0,834.04,0.172
2007.0,839.987,0.171
2016.0,845.92,0.17
2025.0,851.862,0.169
2034.0,857.807,0.168
2043.0,863.756,0.167
2052.0,869.702,0.166
2061.0,875.648,0.165
2070.0,881.607,0.164
2079.0,887.545,0.164
2088.0,893.514,0.163
2097.0,899.468,0.162
2106.0,905.437,0.161
2115.0,911.4,0.16
2124.0,917.372,0.16
2133.0,923.338,0.159
2142.0,929.303,0.158
2151.0,935.277,0.158
2160.0,941.246,0.157
2169.0,947.219,0.156
2178.0,953.187,0.156
2187.0,959.164,0.155
2196.0,965.135,0.155
2205.0,971.115,0.154
2214.0,977.081,0.154
2223.0,983.047,0.154
2232.0,989.022,0.153
2241.0,995.008,0.153
2250.0,1000.98,0.152
2259.0,1006.96,0.152
2268.0,1012.948,0.151
2277.0,1018.937,0.151
2286.0,1024.918,0.151
2295.0,1030.903,0.15
2304.0,1036.892,0.15
2313.0,1042.895,0.15
2322.0,1048.882,0.149
2331.0,1054.86,0.149
2340.0,1059.571,0.148
2349.0,1062.929,0.148
2358.0,1065.262,0.148
2367.0,1066.92,0.147
2376.0,1068.092,0.147
2385.0,1068.942,0.147
2394.0,1069.565,0.147
2403.0,1070.024,0.147
2412.0,1070.371,0.146
2421.0,1070.639,0.146
2430.0,1070.85,0.146
2439.0,1071.033,0.146
2448.0,1071.159,0.146
2457.0,1071.281,0.146
2466.0,1071.377,0.146
2475.0,1071.46,0.146
2484.0,1071.541,0.145
2493.0,1071.598,0.145
2502.0,1071.649,0.145
2511.0,1071.703,0.145
2520.0,1071.752,0.145
2529.0,1071.781,0.144
2538.0,1071.822,0.144
2547.0,1071.848,0.144
2556.0,1071.882,0.144
2565.0,1071.914,0.144
2574.0,1071.935,0.144
2583.0,1071.957,0.144
2592.0,1071.979,0.144
2601.0,1072.002,0.144
2610.0,1072.01,0.144
2619.0,1072.031,0.144
2628.0,1072.063,0.144
2637.0,1072.061,0.143
2646.0,1072.074,0.143
2655.0,1072.085,0.143