File: Wood/Calibration_Data/TUBS/TUBS_TGA_N2_50K_R2.csv
Time (s),Temperature (K),Mass (mg)
0.0,305.014,1.019
43.0,304.837,1.013
108.0,304.726,1.007
212.0,304.571,1.003
363.0,304.497,0.999
666.0,304.459,0.997
979.0,304.439,0.997
1116.0,304.459,0.997
1207.712,307.0,0.993
1212.579,310.0,0.995
1216.507,313.0,0.998
1220.235,316.0,0.999
1223.861,319.0,0.999
1227.489,322.0,0.999
1231.093,325.0,0.998
1234.702,328.0,0.997
1238.294,331.0,0.996
1241.9,334.0,0.995
1245.525,337.0,0.995
1249.145,340.0,0.994
1252.755,343.0,0.993
1256.352,346.0,0.993
1259.981,349.0,0.992
1263.61,352.0,0.991
1267.211,355.0,0.99
1270.823,358.0,0.989
1274.447,361.0,0.989
1278.072,364.0,0.989
1281.681,367.0,0.988
1285.3,370.0,0.988
1288.904,373.0,0.987
1292.515,376.0,0.987
1296.125,379.0,0.987
1299.743,382.0,0.986
1303.349,385.0,0.986
1306.942,388.0,0.986
1310.549,391.0,0.985
1314.153,394.0,0.985
1317.744,397.0,0.985
1321.339,400.0,0.985
1324.928,403.0,0.985
1328.521,406.0,0.985
1332.095,409.0,0.985
1335.672,412.0,0.985
1339.256,415.0,0.985
1342.829,418.0,0.985
1346.389,421.0,0.985
1349.968,424.0,0.985
1353.531,427.0,0.985
1357.076,430.0,0.985
1360.631,433.0,0.985
1364.186,436.0,0.985
1367.736,439.0,0.985
1371.278,442.0,0.984
1374.823,445.0,0.984
1378.351,448.0,0.984
1381.894,451.0,0.984
1385.426,454.0,0.984
1388.958,457.0,0.983
1392.476,460.0,0.983
1396.007,463.0,0.982
1399.514,466.0,0.982
1403.039,469.0,0.981
1406.547,472.0,0.981
1410.06,475.0,0.98
1413.566,478.0,0.979
1417.073,481.0,0.978
1420.583,484.0,0.977
1424.101,487.0,0.976
1427.584,490.0,0.975
1431.106,493.0,0.974
1434.587,496.0,0.973
1438.101,499.0,0.972
1441.594,502.0,0.971
1445.086,505.0,0.97
1448.586,508.0,0.969
1452.079,511.0,0.968
1455.589,514.0,0.966
1459.09,517.0,0.965
1462.587,520.0,0.963
1466.08,523.0,0.962
1469.58,526.0,0.96
1473.075,529.0,0.959
1476.583,532.0,0.957
1480.097,535.0,0.955
1483.606,538.0,0.952
1487.111,541.0,0.95
1490.615,544.0,0.946
1494.104,547.0,0.944
1497.629,550.0,0.94
1501.13,553.0,0.937
1504.641,556.0,0.933
1508.154,559.0,0.929
1511.674,562.0,0.925
1515.181,565.0,0.921
1518.687,568.0,0.916
1522.209,571.0,0.911
1525.732,574.0,0.906
1529.261,577.0,0.9
1532.8,580.0,0.895
1536.316,583.0,0.889
1539.847,586.0,0.882
1543.39,589.0,0.876
1546.914,592.0,0.868
1550.45,595.0,0.861
1553.992,598.0,0.853
1557.538,601.0,0.844
1561.077,604.0,0.835
1564.616,607.0,0.825
1568.175,610.0,0.814
1571.723,613.0,0.803
1575.284,616.0,0.791
1578.84,619.0,0.778
1582.393,622.0,0.764
1585.974,625.0,0.75
1589.531,628.0,0.736
1593.122,631.0,0.72
1596.682,634.0,0.704
1600.258,637.0,0.688
1603.834,640.0,0.671
1607.427,643.0,0.653
1611.024,646.0,0.635
1614.611,649.0,0.617
1618.194,652.0,0.598
1621.809,655.0,0.578
1625.409,658.0,0.558
1629.01,661.0,0.537
1632.63,664.0,0.514
1636.242,667.0,0.491
1639.865,670.0,0.467
1643.493,673.0,0.442
1647.122,676.0,0.415
1650.741,679.0,0.388
1654.357,682.0,0.361
1657.988,685.0,0.336
1661.606,688.0,0.312
1665.226,691.0,0.293
1668.839,694.0,0.277
1672.459,697.0,0.264
1676.081,700.0,0.256
1679.708,703.0,0.249
1683.33,706.0,0.246
1686.964,709.0,0.243
1690.592,712.0,0.241
1694.234,715.0,0.239
1697.851,718.0,0.237
1701.493,721.0,0.235
1705.123,724.0,0.233
1708.768,727.0,0.231
1712.412,730.0,0.23
1716.047,733.0,0.228
1719.682,736.0,0.227
1723.321,739.0,0.225
1726.946,742.0,0.224
1730.598,745.0,0.222
1734.238,748.0,0.221
1737.885,751.0,0.219
1741.522,754.0,0.218
1745.164,757.0,0.217
1748.804,760.0,0.216
1752.443,763.0,0.215
1756.083,766.0,0.214
1759.726,769.0,0.212
1763.368,772.0,0.212
1767.013,775.0,0.211
1770.652,778.0,0.21
1774.294,781.0,0.209
1777.929,784.0,0.208
1781.576,787.0,0.207
1785.22,790.0,0.206
1788.842,793.0,0.205
1792.497,796.0,0.205
1796.139,799.0,0.204
1799.785,802.0,0.204
1803.421,805.0,0.203
1807.058,808.0,0.202
1810.709,811.0,0.202
1814.345,814.0,0.201
1817.982,817.0,0.2
1821.627,820.0,0.2
1825.277,823.0,0.199
1828.916,826.0,0.198
1832.557,829.0,0.198
1836.203,832.0,0.197
1839.838,835.0,0.197
1843.484,838.0,0.196
1847.135,841.0,0.196
1850.778,844.0,0.195
1854.408,847.0,0.195
1858.046,850.0,0.194
1861.676,853.0,0.194
1865.315,856.0,0.193
1868.956,859.0,0.193
1872.596,862.0,0.192
1876.22,865.0,0.192
1879.853,868.0,0.192
1883.492,871.0,0.191
1887.128,874.0,0.191
1890.766,877.0,0.19
1894.399,880.0,0.19
1898.034,883.0,0.189
1901.664,886.0,0.189
1905.292,889.0,0.189
1908.921,892.0,0.188
1912.548,895.0,0.188
1916.171,898.0,0.187
1919.794,901.0,0.187
1923.42,904.0,0.186
1927.027,907.0,0.186
1930.657,910.0,0.186
1934.272,913.0,0.185
1937.9,916.0,0.185
1941.516,919.0,0.185
1945.13,922.0,0.184
1948.741,925.0,0.184
1952.348,928.0,0.184
1955.961,931.0,0.183
1959.576,934.0,0.183
1963.186,937.0,0.183
1966.796,940.0,0.182
1970.406,943.0,0.182
1974.012,946.0,0.182
1977.622,949.0,0.182
1981.23,952.0,0.182
1984.831,955.0,0.181
1988.429,958.0,0.181
1992.029,961.0,0.181
1995.64,964.0,0.181
1999.233,967.0,0.18
2002.828,970.0,0.18
2006.427,973.0,0.18
2010.02,976.0,0.179
2013.603,979.0,0.179
2017.207,982.0,0.179
2020.789,985.0,0.179
2024.379,988.0,0.179
2027.968,991.0,0.179
2031.555,994.0,0.179
2035.141,997.0,0.178
2038.73,1000.0,0.178
2042.313,1003.0,0.178
2045.898,1006.0,0.177
2049.472,1009.0,0.177
2053.049,1012.0,0.177
2056.644,1015.0,0.177
2060.227,1018.0,0.177
2063.803,1021.0,0.176
2067.385,1024.0,0.176
2070.958,1027.0,0.176
2074.543,1030.0,0.176
2078.121,1033.0,0.176
2081.709,1036.0,0.176
2085.277,1039.0,0.175
2088.859,1042.0,0.175
2092.435,1045.0,0.175
2096.021,1048.0,0.175
2099.605,1051.0,0.175
2103.169,1054.0,0.175
2108.624,1057.0,0.174
2114.66,1060.0,0.174
2122.663,1063.0,0.174
2174.0,1070.326,0.173
2234.0,1071.894,0.172
2294.0,1072.393,0.171
2354.0,1072.619,0.17
2414.0,1072.723,0.169
2424.0,1072.725,0.169