File: Wood/Calibration_Data/TUBS/TUBS_Wood_TGA_N2_50K_R4.csv
Time (s),Temperature (K),Mass (mg)
0.0,303.875,4.02
15.0,304.873,4.014
33.0,304.817,4.008
52.0,304.736,4.002
73.0,304.699,3.996
97.0,304.664,3.99
124.0,304.6,3.984
153.0,304.572,3.978
187.0,304.534,3.972
225.0,304.51,3.966
269.0,304.468,3.96
319.0,304.443,3.954
381.0,304.426,3.948
452.0,304.422,3.942
545.0,304.409,3.936
664.0,304.432,3.93
824.0,304.422,3.924
1062.0,304.452,3.918
1206.455,306.5,3.914
1211.386,309.5,3.913
1215.436,312.5,3.915
1219.22,315.5,3.917
1222.876,318.5,3.916
1226.505,321.5,3.915
1230.117,324.5,3.914
1233.713,327.5,3.913
1237.313,330.5,3.912
1240.938,333.5,3.91
1244.554,336.5,3.909
1248.15,339.5,3.907
1251.768,342.5,3.905
1255.379,345.5,3.903
1259.012,348.5,3.901
1262.634,351.5,3.898
1266.272,354.5,3.895
1269.893,357.5,3.892
1273.498,360.5,3.889
1277.122,363.5,3.885
1280.729,366.5,3.881
1284.343,369.5,3.879
1287.955,372.5,3.875
1291.561,375.5,3.872
1295.161,378.5,3.87
1298.76,381.5,3.867
1302.357,384.5,3.866
1305.932,387.5,3.864
1309.514,390.5,3.863
1313.11,393.5,3.862
1316.668,396.5,3.861
1320.25,399.5,3.861
1323.818,402.5,3.86
1327.404,405.5,3.86
1330.983,408.5,3.86
1334.539,411.5,3.86
1338.111,414.5,3.859
1341.665,417.5,3.859
1345.24,420.5,3.859
1348.78,423.5,3.859
1352.34,426.5,3.858
1355.898,429.5,3.858
1359.442,432.5,3.858
1362.984,435.5,3.857
1366.53,438.5,3.857
1370.064,441.5,3.857
1373.608,444.5,3.856
1377.143,447.5,3.855
1380.664,450.5,3.855
1384.193,453.5,3.854
1387.712,456.5,3.853
1391.235,459.5,3.852
1394.733,462.5,3.851
1398.254,465.5,3.85
1401.772,468.5,3.848
1405.275,471.5,3.846
1408.789,474.5,3.844
1412.279,477.5,3.842
1415.789,480.5,3.839
1419.288,483.5,3.837
1422.795,486.5,3.833
1426.288,489.5,3.83
1429.786,492.5,3.825
1433.279,495.5,3.821
1436.763,498.5,3.815
1440.267,501.5,3.81
1443.757,504.5,3.804
1447.248,507.5,3.799
1450.751,510.5,3.792
1454.247,513.5,3.786
1457.725,516.5,3.779
1461.227,519.5,3.772
1464.71,522.5,3.764
1468.206,525.5,3.756
1471.696,528.5,3.748
1475.19,531.5,3.739
1478.678,534.5,3.729
1482.175,537.5,3.719
1485.666,540.5,3.708
1489.176,543.5,3.696
1492.671,546.5,3.683
1496.16,549.5,3.669
1499.664,552.5,3.654
1503.145,555.5,3.639
1506.633,558.5,3.622
1510.125,561.5,3.604
1513.614,564.5,3.586
1517.12,567.5,3.565
1520.615,570.5,3.544
1524.109,573.5,3.52
1527.602,576.5,3.496
1531.106,579.5,3.469
1534.625,582.5,3.441
1538.169,585.5,3.411
1541.709,588.5,3.381
1545.247,591.5,3.349
1548.787,594.5,3.315
1552.339,597.5,3.28
1555.88,600.5,3.243
1559.423,603.5,3.205
1562.969,606.5,3.165
1566.517,609.5,3.123
1570.063,612.5,3.078
1573.618,615.5,3.031
1577.183,618.5,2.981
1580.746,621.5,2.929
1584.303,624.5,2.875
1587.879,627.5,2.818
1591.46,630.5,2.759
1595.042,633.5,2.697
1598.622,636.5,2.634
1602.215,639.5,2.567
1605.799,642.5,2.5
1609.393,645.5,2.429
1612.987,648.5,2.357
1616.607,651.5,2.281
1620.214,654.5,2.203
1623.832,657.5,2.123
1627.465,660.5,2.037
1631.085,663.5,1.949
1634.726,666.5,1.854
1638.361,669.5,1.756
1642.007,672.5,1.653
1645.631,675.5,1.547
1649.244,678.5,1.44
1652.851,681.5,1.336
1656.437,684.5,1.239
1660.018,687.5,1.15
1663.587,690.5,1.074
1667.168,693.5,1.015
1670.738,696.5,0.972
1674.322,699.5,0.943
1677.927,702.5,0.923
1681.531,705.5,0.908
1685.135,708.5,0.896
1688.745,711.5,0.886
1692.364,714.5,0.876
1695.971,717.5,0.867
1699.593,720.5,0.859
1703.228,723.5,0.851
1706.846,726.5,0.842
1710.467,729.5,0.835
1714.104,732.5,0.827
1717.724,735.5,0.82
1721.362,738.5,0.812
1724.989,741.5,0.806
1728.621,744.5,0.799
1732.261,747.5,0.792
1735.901,750.5,0.786
1739.532,753.5,0.78
1743.176,756.5,0.774
1746.818,759.5,0.768
1750.45,762.5,0.763
1754.092,765.5,0.758
1757.736,768.5,0.753
1761.371,771.5,0.748
1765.011,774.5,0.743
1768.649,777.5,0.739
1772.291,780.5,0.735
1775.922,783.5,0.73
1779.557,786.5,0.726
1783.201,789.5,0.723
1786.836,792.5,0.718
1790.461,795.5,0.715
1794.095,798.5,0.711
1797.739,801.5,0.707
1801.353,804.5,0.704
1804.995,807.5,0.7
1808.609,810.5,0.696
1812.247,813.5,0.694
1815.868,816.5,0.69
1819.489,819.5,0.687
1823.121,822.5,0.684
1826.748,825.5,0.68
1830.369,828.5,0.678
1833.988,831.5,0.675
1837.609,834.5,0.672
1841.239,837.5,0.669
1844.861,840.5,0.666
1848.493,843.5,0.664
1852.119,846.5,0.661
1855.733,849.5,0.659
1859.361,852.5,0.657
1862.986,855.5,0.654
1866.607,858.5,0.652
1870.236,861.5,0.65
1873.86,864.5,0.648
1877.48,867.5,0.646
1881.112,870.5,0.643
1884.737,873.5,0.641
1888.36,876.5,0.639
1892.046,879.5,0.637
1895.687,882.5,0.635
1899.316,885.5,0.633
1902.948,888.5,0.631
1906.566,891.5,0.629
1910.19,894.5,0.627
1913.805,897.5,0.625
1917.443,900.5,0.624
1921.061,903.5,0.622
1924.679,906.5,0.62
1928.29,909.5,0.618
1931.916,912.5,0.616
1935.528,915.5,0.615
1939.146,918.5,0.613
1942.764,921.5,0.612
1946.369,924.5,0.61
1949.98,927.5,0.609
1953.595,930.5,0.607
1957.205,933.5,0.606
1960.828,936.5,0.604
1964.445,939.5,0.603
1968.062,942.5,0.601
1971.675,945.5,0.6
1975.29,948.5,0.598
1978.901,951.5,0.597
1982.513,954.5,0.595
1986.121,957.5,0.594
1989.742,960.5,0.593
1993.355,963.5,0.592
1996.97,966.5,0.591
2000.588,969.5,0.59
2004.199,972.5,0.589
2007.821,975.5,0.588
2011.434,978.5,0.587
2015.061,981.5,0.586
2018.667,984.5,0.585
2022.285,987.5,0.584
2025.902,990.5,0.583
2029.511,993.5,0.582
2033.134,996.5,0.581
2036.742,999.5,0.58
2040.353,1002.5,0.58
2043.961,1005.5,0.579
2047.573,1008.5,0.578
2051.179,1011.5,0.577
2054.793,1014.5,0.576
2058.41,1017.5,0.575
2062.01,1020.5,0.575
2065.615,1023.5,0.574
2069.218,1026.5,0.573
2072.828,1029.5,0.572
2076.428,1032.5,0.572
2080.041,1035.5,0.571
2083.651,1038.5,0.57
2087.24,1041.5,0.569
2090.847,1044.5,0.568
2094.456,1047.5,0.568
2098.066,1050.5,0.567
2101.677,1053.5,0.566
2106.541,1056.5,0.565
2112.59,1059.5,0.564
2120.579,1062.5,0.562
2164.0,1069.113,0.557
2224.0,1070.891,0.552
2284.0,1071.427,0.549
2344.0,1071.661,0.546
2404.0,1071.769,0.544
2424.0,1071.796,0.543