File: Wood/Calibration_Data/TUBS/TUBS_TGA_N2_20K_R3.csv
Time (s),Temperature (K),Mass (mg)
0.0,305.115,0.98
9.0,305.054,0.979
18.0,305.009,0.978
27.0,304.977,0.977
36.0,304.936,0.976
45.0,304.902,0.976
54.0,304.881,0.975
63.0,304.848,0.974
72.0,304.829,0.974
81.0,304.8,0.973
90.0,304.774,0.973
99.0,304.762,0.973
108.0,304.737,0.972
117.0,304.736,0.972
126.0,304.707,0.971
135.0,304.698,0.971
144.0,304.68,0.971
153.0,304.668,0.97
162.0,304.652,0.97
171.0,304.631,0.97
180.0,304.634,0.97
189.0,304.621,0.969
198.0,304.607,0.969
207.0,304.604,0.969
216.0,304.599,0.969
225.0,304.578,0.969
234.0,304.569,0.968
243.0,304.569,0.968
252.0,304.557,0.968
261.0,304.547,0.968
270.0,304.55,0.968
279.0,304.529,0.968
288.0,304.544,0.967
297.0,304.524,0.967
306.0,304.514,0.967
315.0,304.51,0.967
324.0,304.51,0.967
333.0,304.508,0.967
342.0,304.507,0.967
351.0,304.519,0.967
360.0,304.494,0.967
369.0,304.486,0.966
378.0,304.487,0.966
387.0,304.49,0.966
396.0,304.494,0.966
405.0,304.495,0.966
414.0,304.49,0.966
423.0,304.474,0.966
432.0,304.497,0.966
441.0,304.49,0.966
450.0,304.493,0.966
459.0,304.486,0.966
468.0,304.477,0.966
477.0,304.483,0.966
486.0,304.466,0.966
495.0,304.468,0.966
504.0,304.467,0.966
513.0,304.468,0.967
522.0,304.468,0.967
531.0,304.467,0.966
540.0,304.466,0.965
549.0,304.464,0.965
558.0,304.458,0.965
567.0,304.466,0.965
576.0,304.475,0.965
585.0,304.473,0.964
594.0,304.483,0.964
603.0,304.464,0.964
612.0,304.476,0.964
621.0,304.459,0.965
630.0,304.477,0.965
639.0,304.479,0.964
648.0,304.467,0.964
657.0,304.477,0.964
666.0,304.447,0.964
675.0,304.468,0.965
684.0,304.469,0.965
693.0,304.471,0.965
702.0,304.461,0.964
711.0,304.462,0.964
720.0,304.467,0.964
729.0,304.474,0.964
738.0,304.45,0.964
747.0,304.46,0.964
756.0,304.452,0.964
765.0,304.45,0.964
774.0,304.448,0.964
783.0,304.452,0.964
792.0,304.467,0.964
801.0,304.461,0.964
810.0,304.462,0.964
819.0,304.469,0.964
828.0,304.467,0.964
837.0,304.469,0.964
846.0,304.458,0.964
855.0,304.456,0.964
864.0,304.475,0.964
873.0,304.476,0.964
882.0,304.48,0.964
891.0,304.486,0.964
900.0,304.478,0.964
909.0,304.485,0.964
918.0,304.468,0.964
927.0,304.468,0.964
936.0,304.462,0.964
945.0,304.464,0.964
954.0,304.472,0.964
963.0,304.471,0.964
972.0,304.462,0.964
981.0,304.474,0.964
990.0,304.456,0.964
999.0,304.456,0.964
1008.0,304.462,0.964
1017.0,304.478,0.964
1026.0,304.452,0.964
1035.0,304.465,0.964
1044.0,304.46,0.964
1053.0,304.457,0.963
1062.0,304.461,0.963
1071.0,304.461,0.963
1080.0,304.462,0.963
1089.0,304.462,0.964
1098.0,304.447,0.964
1107.0,304.464,0.964
1116.0,304.465,0.964
1125.0,304.467,0.964
1134.0,304.474,0.964
1143.0,304.449,0.964
1152.0,304.475,0.964
1161.0,304.45,0.964
1170.0,304.47,0.964
1179.0,304.453,0.964
1188.0,304.463,0.964
1197.0,304.469,0.964
1206.0,305.823,0.961
1215.0,310.335,0.965
1224.0,316.011,0.967
1233.0,321.871,0.965
1242.0,327.762,0.964
1251.0,333.651,0.963
1260.0,339.534,0.962
1269.0,345.477,0.961
1278.0,351.378,0.959
1287.0,357.309,0.958
1296.0,363.262,0.957
1305.0,369.204,0.956
1314.0,375.156,0.956
1323.0,381.133,0.955
1332.0,387.111,0.955
1341.0,393.125,0.955
1350.0,399.128,0.955
1359.0,405.156,0.955
1368.0,411.199,0.955
1377.0,417.264,0.955
1386.0,423.334,0.955
1395.0,429.418,0.955
1404.0,435.519,0.954
1413.0,441.62,0.954
1422.0,447.743,0.953
1431.0,453.865,0.952
1440.0,460.012,0.952
1449.0,466.163,0.95
1458.0,472.314,0.948
1467.0,478.478,0.947
1476.0,484.65,0.945
1485.0,490.814,0.942
1494.0,496.99,0.94
1503.0,503.16,0.937
1512.0,509.337,0.933
1521.0,515.501,0.929
1530.0,521.663,0.925
1539.0,527.822,0.919
1548.0,533.993,0.913
1557.0,540.143,0.906
1566.0,546.277,0.898
1575.0,552.432,0.888
1584.0,558.566,0.878
1593.0,564.695,0.868
1602.0,570.813,0.857
1611.0,576.928,0.844
1620.0,583.034,0.831
1629.0,589.135,0.816
1638.0,595.224,0.8
1647.0,601.293,0.782
1656.0,607.357,0.761
1665.0,613.422,0.738
1674.0,619.467,0.712
1683.0,625.504,0.684
1692.0,631.542,0.653
1701.0,637.562,0.621
1710.0,643.564,0.587
1719.0,649.562,0.55
1728.0,655.543,0.511
1737.0,661.533,0.469
1746.0,667.489,0.422
1755.0,673.451,0.372
1764.0,679.413,0.322
1773.0,685.381,0.279
1782.0,691.354,0.248
1791.0,697.329,0.232
1800.0,703.289,0.226
1809.0,709.232,0.221
1818.0,715.179,0.218
1827.0,721.119,0.214
1836.0,727.057,0.211
1845.0,732.988,0.208
1854.0,738.925,0.205
1863.0,744.85,0.202
1872.0,750.786,0.199
1881.0,756.703,0.197
1890.0,762.642,0.194
1899.0,768.575,0.192
1908.0,774.508,0.19
1917.0,780.433,0.189
1926.0,786.359,0.188
1935.0,792.298,0.186
1944.0,798.221,0.185
1953.0,804.151,0.183
1962.0,810.104,0.182
1971.0,816.028,0.181
1980.0,821.972,0.18
1989.0,827.908,0.179
1998.0,833.85,0.177
2007.0,839.79,0.177
2016.0,845.738,0.176
2025.0,851.678,0.175
2034.0,857.623,0.174
2043.0,863.564,0.173
2052.0,869.52,0.172
2061.0,875.457,0.171
2070.0,881.403,0.17
2079.0,887.361,0.17
2088.0,893.304,0.169
2097.0,899.274,0.168
2106.0,905.227,0.168
2115.0,911.194,0.167
2124.0,917.156,0.166
2133.0,923.119,0.166
2142.0,929.08,0.165
2151.0,935.058,0.164
2160.0,941.018,0.164
2169.0,946.991,0.163
2178.0,952.969,0.163
2187.0,958.939,0.162
2196.0,964.899,0.162
2205.0,970.877,0.161
2214.0,976.852,0.161
2223.0,982.814,0.16
2232.0,988.798,0.16
2241.0,994.765,0.16
2250.0,1000.752,0.159
2259.0,1006.727,0.159
2268.0,1012.72,0.159
2277.0,1018.705,0.158
2286.0,1024.705,0.158
2295.0,1030.711,0.158
2304.0,1036.706,0.157
2313.0,1042.7,0.157
2322.0,1048.705,0.157
2331.0,1054.712,0.156
2340.0,1059.579,0.156
2349.0,1063.007,0.155
2358.0,1065.388,0.155
2367.0,1067.059,0.155
2376.0,1068.258,0.155
2385.0,1069.115,0.155
2394.0,1069.733,0.155
2403.0,1070.21,0.154
2412.0,1070.555,0.154
2421.0,1070.816,0.154
2430.0,1071.035,0.154
2439.0,1071.206,0.154
2448.0,1071.348,0.154
2457.0,1071.464,0.154
2466.0,1071.556,0.154
2475.0,1071.644,0.153
2484.0,1071.722,0.153
2493.0,1071.781,0.153
2502.0,1071.842,0.153
2511.0,1071.886,0.153
2520.0,1071.916,0.153
2529.0,1071.963,0.153
2538.0,1072.001,0.153
2547.0,1072.024,0.153
2556.0,1072.065,0.152
2565.0,1072.085,0.152
2574.0,1072.11,0.152
2583.0,1072.129,0.152
2592.0,1072.151,0.152
2601.0,1072.17,0.152
2610.0,1072.182,0.152
2619.0,1072.203,0.152
2628.0,1072.202,0.152
2637.0,1072.22,0.151
2646.0,1072.231,0.151
2655.0,1072.241,0.151