File: Wood/Calibration_Data/TUBS/TUBS_TGA_N2_50K_R1.csv
Time (s),Temperature (K),Mass (mg)
0.0,305.0,0.989
48.0,304.803,0.983
130.0,304.669,0.977
247.0,304.543,0.973
414.0,304.476,0.971
546.0,304.452,0.971
782.0,304.456,0.969
1171.0,304.454,0.969
1206.01,306.0,0.966
1211.009,309.0,0.966
1215.086,312.0,0.969
1218.839,315.0,0.971
1222.466,318.0,0.971
1226.083,321.0,0.971
1229.672,324.0,0.97
1233.265,327.0,0.969
1236.838,330.0,0.968
1240.434,333.0,0.967
1244.049,336.0,0.967
1247.642,339.0,0.966
1251.252,342.0,0.965
1254.857,345.0,0.965
1258.475,348.0,0.964
1262.08,351.0,0.963
1265.692,354.0,0.962
1269.307,357.0,0.961
1272.919,360.0,0.961
1276.531,363.0,0.96
1280.136,366.0,0.96
1283.76,369.0,0.96
1287.372,372.0,0.959
1290.989,375.0,0.959
1294.601,378.0,0.958
1298.199,381.0,0.958
1301.803,384.0,0.958
1305.412,387.0,0.958
1309.025,390.0,0.958
1312.617,393.0,0.957
1316.21,396.0,0.957
1319.811,399.0,0.957
1323.405,402.0,0.957
1326.989,405.0,0.957
1330.563,408.0,0.957
1334.152,411.0,0.957
1337.722,414.0,0.957
1341.3,417.0,0.957
1344.874,420.0,0.957
1348.442,423.0,0.957
1352.012,426.0,0.957
1355.565,429.0,0.956
1359.125,432.0,0.956
1362.687,435.0,0.956
1366.239,438.0,0.956
1369.791,441.0,0.956
1373.335,444.0,0.956
1376.871,447.0,0.956
1380.409,450.0,0.956
1383.95,453.0,0.955
1387.462,456.0,0.955
1390.994,459.0,0.954
1394.526,462.0,0.954
1398.031,465.0,0.953
1401.546,468.0,0.953
1405.091,471.0,0.952
1408.597,474.0,0.952
1412.101,477.0,0.951
1415.626,480.0,0.95
1419.112,483.0,0.949
1422.633,486.0,0.947
1426.143,489.0,0.946
1429.648,492.0,0.945
1433.142,495.0,0.945
1436.653,498.0,0.943
1440.161,501.0,0.943
1443.662,504.0,0.942
1447.145,507.0,0.941
1450.658,510.0,0.94
1454.158,513.0,0.939
1457.672,516.0,0.937
1461.153,519.0,0.936
1464.657,522.0,0.934
1468.159,525.0,0.933
1471.667,528.0,0.931
1475.166,531.0,0.929
1478.677,534.0,0.927
1482.174,537.0,0.925
1485.68,540.0,0.923
1489.19,543.0,0.92
1492.697,546.0,0.917
1496.213,549.0,0.914
1499.716,552.0,0.911
1503.221,555.0,0.908
1506.736,558.0,0.904
1510.261,561.0,0.9
1513.77,564.0,0.895
1517.284,567.0,0.891
1520.815,570.0,0.886
1524.332,573.0,0.881
1527.847,576.0,0.876
1531.377,579.0,0.87
1534.91,582.0,0.865
1538.437,585.0,0.859
1541.974,588.0,0.852
1545.505,591.0,0.845
1549.038,594.0,0.838
1552.589,597.0,0.83
1556.125,600.0,0.822
1559.669,603.0,0.813
1563.221,606.0,0.803
1566.763,609.0,0.793
1570.316,612.0,0.782
1573.875,615.0,0.771
1577.436,618.0,0.759
1581.006,621.0,0.746
1584.573,624.0,0.732
1588.138,627.0,0.717
1591.708,630.0,0.703
1595.284,633.0,0.688
1598.868,636.0,0.672
1602.455,639.0,0.655
1606.032,642.0,0.639
1609.628,645.0,0.621
1613.222,648.0,0.603
1616.811,651.0,0.585
1620.42,654.0,0.566
1624.029,657.0,0.547
1627.642,660.0,0.526
1631.257,663.0,0.504
1634.883,666.0,0.483
1638.5,669.0,0.46
1642.126,672.0,0.435
1645.753,675.0,0.41
1649.398,678.0,0.384
1653.012,681.0,0.359
1656.639,684.0,0.334
1660.27,687.0,0.311
1663.884,690.0,0.291
1667.507,693.0,0.274
1671.133,696.0,0.262
1674.762,699.0,0.252
1678.384,702.0,0.246
1682.013,705.0,0.242
1685.636,708.0,0.239
1689.272,711.0,0.237
1692.911,714.0,0.234
1696.547,717.0,0.232
1700.179,720.0,0.231
1703.82,723.0,0.229
1707.44,726.0,0.227
1711.079,729.0,0.226
1714.72,732.0,0.224
1718.362,735.0,0.223
1721.995,738.0,0.221
1725.626,741.0,0.22
1729.269,744.0,0.218
1732.901,747.0,0.217
1736.553,750.0,0.215
1740.189,753.0,0.214
1743.821,756.0,0.213
1747.462,759.0,0.212
1751.104,762.0,0.211
1754.744,765.0,0.209
1758.386,768.0,0.208
1762.034,771.0,0.207
1765.67,774.0,0.206
1769.303,777.0,0.205
1772.954,780.0,0.205
1776.586,783.0,0.204
1780.225,786.0,0.203
1783.865,789.0,0.202
1787.51,792.0,0.201
1791.137,795.0,0.201
1794.798,798.0,0.2
1798.441,801.0,0.2
1802.079,804.0,0.199
1805.718,807.0,0.198
1809.363,810.0,0.197
1813.007,813.0,0.197
1816.647,816.0,0.196
1820.284,819.0,0.196
1823.934,822.0,0.195
1827.573,825.0,0.194
1831.21,828.0,0.194
1834.86,831.0,0.193
1838.487,834.0,0.193
1842.131,837.0,0.192
1845.772,840.0,0.192
1849.413,843.0,0.192
1853.052,846.0,0.191
1856.734,849.0,0.19
1860.379,852.0,0.19
1864.017,855.0,0.189
1867.649,858.0,0.189
1871.293,861.0,0.188
1874.922,864.0,0.188
1878.559,867.0,0.188
1882.192,870.0,0.187
1885.824,873.0,0.187
1889.467,876.0,0.186
1893.092,879.0,0.186
1896.721,882.0,0.185
1900.355,885.0,0.185
1903.978,888.0,0.184
1907.617,891.0,0.184
1911.247,894.0,0.183
1914.87,897.0,0.183
1918.495,900.0,0.183
1922.115,903.0,0.182
1925.742,906.0,0.182
1929.355,909.0,0.182
1932.977,912.0,0.181
1936.591,915.0,0.181
1940.212,918.0,0.18
1943.821,921.0,0.18
1947.433,924.0,0.18
1951.048,927.0,0.179
1954.651,930.0,0.179
1958.264,933.0,0.179
1961.874,936.0,0.178
1965.485,939.0,0.178
1969.095,942.0,0.178
1972.7,945.0,0.177
1976.301,948.0,0.177
1979.889,951.0,0.177
1983.503,954.0,0.176
1987.103,957.0,0.176
1990.714,960.0,0.176
1994.302,963.0,0.176
1997.904,966.0,0.175
2001.499,969.0,0.175
2005.088,972.0,0.175
2008.677,975.0,0.174
2012.275,978.0,0.174
2015.868,981.0,0.174
2019.451,984.0,0.173
2023.044,987.0,0.173
2026.618,990.0,0.173
2030.206,993.0,0.173
2033.798,996.0,0.172
2037.369,999.0,0.172
2040.949,1002.0,0.172
2044.533,1005.0,0.171
2048.112,1008.0,0.171
2051.687,1011.0,0.171
2055.272,1014.0,0.17
2058.848,1017.0,0.17
2062.421,1020.0,0.17
2065.999,1023.0,0.169
2069.578,1026.0,0.169
2073.145,1029.0,0.169
2076.714,1032.0,0.168
2080.296,1035.0,0.168
2083.855,1038.0,0.168
2087.435,1041.0,0.168
2091.023,1044.0,0.167
2094.602,1047.0,0.167
2098.181,1050.0,0.167
2101.77,1053.0,0.167
2106.718,1056.0,0.166
2112.403,1059.0,0.166
2119.685,1062.0,0.165
2154.0,1068.863,0.164
2214.0,1071.608,0.163
2274.0,1072.283,0.162
2334.0,1072.56,0.161
2394.0,1072.696,0.16
2424.0,1072.744,0.16