File: Wood/Calibration_Data/TUBS/TUBS_Wood_TGA_N2_50K_R11.csv
Time (s),Temperature (K),Mass (mg)
0.0,304.986,0.99978
9.0,304.961,0.9988
18.0,304.927,0.99767
27.0,304.868,0.99657
36.0,304.841,0.99564
45.0,304.81,0.99487
54.0,304.791,0.99403
63.0,304.773,0.99319
72.0,304.744,0.99253
81.0,304.734,0.99189
90.0,304.722,0.99121
99.0,304.685,0.99067
108.0,304.661,0.99017
117.0,304.657,0.98966
126.0,304.649,0.98922
135.0,304.63,0.98879
144.0,304.637,0.98847
153.0,304.607,0.98812
162.0,304.593,0.9877
171.0,304.591,0.98735
180.0,304.594,0.98715
189.0,304.579,0.98684
198.0,304.563,0.98651
207.0,304.564,0.98624
216.0,304.54,0.98608
225.0,304.537,0.9858
234.0,304.545,0.9856
243.0,304.534,0.98544
253.0,304.525,0.98536
262.0,304.514,0.98516
271.0,304.52,0.98491
280.0,304.518,0.98462
289.0,304.516,0.98447
298.0,304.492,0.98418
307.0,304.488,0.98399
316.0,304.485,0.98383
325.0,304.497,0.98376
334.0,304.483,0.98359
343.0,304.489,0.98341
352.0,304.502,0.98321
361.0,304.496,0.98305
370.0,304.483,0.98295
379.0,304.469,0.98296
392.0,304.471,0.98291
401.0,304.465,0.98276
410.0,304.466,0.98261
419.0,304.455,0.98248
428.0,304.472,0.98244
437.0,304.446,0.98228
446.0,304.435,0.98225
455.0,304.439,0.98218
464.0,304.44,0.9819
473.0,304.443,0.98191
482.0,304.435,0.9819
491.0,304.448,0.9818
500.0,304.446,0.98176
510.0,304.441,0.98179
519.0,304.432,0.98174
528.0,304.45,0.98158
537.0,304.443,0.98161
546.0,304.449,0.9815
556.0,304.441,0.98142
566.0,304.44,0.98138
575.0,304.444,0.9813
585.0,304.43,0.9813
595.0,304.463,0.98126
604.0,304.451,0.98128
614.0,304.435,0.98124
623.0,304.445,0.98109
632.0,304.429,0.98093
641.0,304.448,0.98093
651.0,304.432,0.98096
660.0,304.432,0.98102
669.0,304.425,0.98103
678.0,304.427,0.9809
687.0,304.425,0.98094
726.0,304.446,0.98093
735.0,304.424,0.98081
746.0,304.449,0.98076
769.0,304.44,0.98073
778.0,304.451,0.98076
787.0,304.423,0.98082
796.0,304.446,0.98066
805.0,304.444,0.98056
841.0,304.452,0.98049
850.0,304.441,0.98037
876.0,304.438,0.98034
885.0,304.426,0.98026
894.0,304.426,0.98018
905.0,304.422,0.98023
914.0,304.43,0.98023
923.0,304.441,0.98016
934.0,304.431,0.98015
944.0,304.423,0.98013
955.0,304.414,0.98016
965.0,304.426,0.98011
974.0,304.423,0.98007
984.0,304.422,0.98008
993.0,304.429,0.98011
1002.0,304.435,0.98007
1013.0,304.417,0.98013
1022.0,304.432,0.9801
1031.0,304.44,0.98015
1046.0,304.46,0.98015
1064.0,304.448,0.98008
1089.0,304.432,0.98005
1098.0,304.442,0.97991
1107.0,304.451,0.97986
1119.0,304.444,0.97983
1128.0,304.437,0.97976
1142.0,304.43,0.97976
1151.0,304.441,0.97982
1161.0,304.421,0.97985
1186.0,304.439,0.97981
1196.0,304.438,0.97977
1208.363,307.0,0.97732
1214.559,311.5,0.98059
1219.986,316.0,0.98222
1225.3,320.5,0.98174
1230.622,325.0,0.98029
1235.933,329.5,0.97887
1241.291,334.0,0.97781
1246.662,338.5,0.97701
1252.017,343.0,0.97608
1257.416,347.5,0.97505
1262.796,352.0,0.974
1268.199,356.5,0.97291
1273.601,361.0,0.9719
1278.993,365.5,0.97103
1284.395,370.0,0.97026
1289.787,374.5,0.96954
1295.192,379.0,0.9691
1300.571,383.5,0.96888
1305.954,388.0,0.96871
1311.325,392.5,0.96857
1316.691,397.0,0.96842
1322.06,401.5,0.96828
1327.42,406.0,0.96815
1332.768,410.5,0.96811
1338.11,415.0,0.96802
1343.444,419.5,0.96787
1348.77,424.0,0.96775
1354.089,428.5,0.96764
1359.402,433.0,0.9675
1364.696,437.5,0.96727
1370.008,442.0,0.96693
1375.287,446.5,0.96647
1380.57,451.0,0.96596
1385.831,455.5,0.96533
1391.104,460.0,0.96458
1396.36,464.5,0.96363
1401.611,469.0,0.96258
1406.856,473.5,0.96126
1412.111,478.0,0.95967
1417.335,482.5,0.95798
1422.561,487.0,0.95618
1427.791,491.5,0.95432
1433.013,496.0,0.95236
1438.242,500.5,0.95032
1443.467,505.0,0.94819
1448.708,509.5,0.94586
1453.921,514.0,0.94337
1459.15,518.5,0.94061
1464.38,523.0,0.93747
1469.597,527.5,0.93392
1474.829,532.0,0.93001
1480.069,536.5,0.92565
1485.294,541.0,0.92082
1490.531,545.5,0.91543
1495.763,550.0,0.90941
1501.009,554.5,0.90287
1506.257,559.0,0.89591
1511.509,563.5,0.8886
1516.766,568.0,0.88091
1522.022,572.5,0.87283
1527.287,577.0,0.86434
1532.551,581.5,0.8553
1537.832,586.0,0.84566
1543.103,590.5,0.83542
1548.388,595.0,0.8243
1553.673,599.5,0.81219
1558.983,604.0,0.79896
1564.279,608.5,0.78452
1569.594,613.0,0.76879
1574.906,617.5,0.75173
1580.236,622.0,0.73308
1585.567,626.5,0.71322
1590.903,631.0,0.69204
1596.252,635.5,0.66949
1601.613,640.0,0.64598
1606.981,644.5,0.62151
1612.353,649.0,0.59584
1617.717,653.5,0.56908
1623.109,658.0,0.54081
1628.512,662.5,0.51065
1633.93,667.0,0.47846
1639.328,671.5,0.44409
1644.758,676.0,0.40735
1650.174,680.5,0.36955
1655.592,685.0,0.33229
1661.011,689.5,0.29859
1666.422,694.0,0.27153
1671.833,698.5,0.25336
1677.256,703.0,0.24253
1682.69,707.5,0.23641
1688.122,712.0,0.23272
1693.554,716.5,0.22974
1699.001,721.0,0.22697
1704.455,725.5,0.22431
1709.907,730.0,0.22171
1715.354,734.5,0.21929
1720.816,739.0,0.21701
1726.276,743.5,0.21478
1731.736,748.0,0.21261
1737.198,752.5,0.21059
1742.661,757.0,0.20863
1748.126,761.5,0.20679
1753.596,766.0,0.20506
1759.061,770.5,0.20345
1764.54,775.0,0.20202
1770.0,779.5,0.20065
1775.483,784.0,0.19937
1780.947,788.5,0.19823
1786.427,793.0,0.1971
1791.884,797.5,0.19605
1797.359,802.0,0.19505
1802.827,806.5,0.19407
1808.293,811.0,0.1931
1813.764,815.5,0.19219
1819.222,820.0,0.19131
1824.692,824.5,0.19049
1830.17,829.0,0.1897
1835.628,833.5,0.18898
1841.101,838.0,0.18829
1846.563,842.5,0.18761
1852.028,847.0,0.18682
1857.501,851.5,0.18603
1862.976,856.0,0.18525
1868.441,860.5,0.18448
1873.907,865.0,0.18384
1879.366,869.5,0.18317
1884.827,874.0,0.18241
1890.296,878.5,0.1818
1895.758,883.0,0.18121
1901.217,887.5,0.1806
1906.666,892.0,0.18
1912.125,896.5,0.17952
1917.573,901.0,0.179
1923.024,905.5,0.17843
1928.47,910.0,0.17797
1933.926,914.5,0.17745
1939.37,919.0,0.17689
1944.811,923.5,0.17634
1950.25,928.0,0.17585
1955.681,932.5,0.17546
1961.131,937.0,0.17504
1966.578,941.5,0.17455
1972.014,946.0,0.17405
1977.442,950.5,0.17369
1982.884,955.0,0.17327
1988.315,959.5,0.17295
1993.752,964.0,0.17264
1999.188,968.5,0.17221
2004.626,973.0,0.1718
2010.059,977.5,0.17151
2015.5,982.0,0.17119
2020.926,986.5,0.1708
2026.367,991.0,0.1705
2031.809,995.5,0.17022
2037.241,1000.0,0.16997
2042.672,1004.5,0.1697
2048.101,1009.0,0.16938
2053.519,1013.5,0.16909
2058.948,1018.0,0.1689
2064.371,1022.5,0.16868
2069.794,1027.0,0.16848
2075.208,1031.5,0.16823
2080.629,1036.0,0.16796
2086.043,1040.5,0.16769
2091.46,1045.0,0.16742
2096.868,1049.5,0.16717
2102.27,1054.0,0.16695
2109.483,1058.5,0.1667
2120.119,1063.0,0.16611
2204.0,1071.194,0.1649
2294.0,1072.16,0.1634
2384.0,1072.437,0.1625
2424.0,1072.493,0.16206