File: Wood/Calibration_Data/TUBS/TUBS_Wood_TGA_N2_40K_R2.csv
Time (s),Temperature (K),Mass (mg)
0.0,304.968,0.98
51.0,304.779,0.974
165.0,304.565,0.968
390.0,304.406,0.964
964.0,304.397,0.962
1210.15,307.5,0.96
1215.478,310.5,0.963
1220.268,313.5,0.965
1224.9,316.5,0.965
1229.504,319.5,0.964
1234.078,322.5,0.963
1238.62,325.5,0.962
1243.16,328.5,0.962
1247.708,331.5,0.961
1252.263,334.5,0.96
1256.798,337.5,0.96
1261.342,340.5,0.959
1265.853,343.5,0.958
1270.407,346.5,0.958
1274.944,349.5,0.957
1279.48,352.5,0.956
1284.015,355.5,0.956
1288.565,358.5,0.955
1293.075,361.5,0.955
1297.607,364.5,0.954
1302.133,367.5,0.954
1306.653,370.5,0.953
1311.168,373.5,0.953
1315.684,376.5,0.953
1320.174,379.5,0.953
1324.696,382.5,0.953
1329.182,385.5,0.953
1333.67,388.5,0.952
1338.176,391.5,0.952
1342.648,394.5,0.952
1347.127,397.5,0.952
1351.597,400.5,0.952
1356.073,403.5,0.952
1360.542,406.5,0.952
1364.991,409.5,0.952
1369.442,412.5,0.952
1373.882,415.5,0.952
1378.335,418.5,0.952
1382.782,421.5,0.952
1387.207,424.5,0.952
1391.641,427.5,0.952
1396.067,430.5,0.952
1400.493,433.5,0.952
1404.913,436.5,0.951
1409.339,439.5,0.951
1413.753,442.5,0.951
1418.139,445.5,0.951
1422.545,448.5,0.95
1426.944,451.5,0.95
1431.345,454.5,0.95
1435.748,457.5,0.949
1440.123,460.5,0.949
1444.509,463.5,0.948
1448.892,466.5,0.948
1453.266,469.5,0.947
1457.652,472.5,0.946
1462.031,475.5,0.945
1466.406,478.5,0.945
1470.796,481.5,0.944
1475.147,484.5,0.943
1479.52,487.5,0.942
1483.89,490.5,0.941
1488.269,493.5,0.94
1492.619,496.5,0.939
1496.994,499.5,0.939
1501.366,502.5,0.938
1505.746,505.5,0.937
1510.094,508.5,0.936
1514.475,511.5,0.935
1518.854,514.5,0.933
1523.231,517.5,0.932
1527.597,520.5,0.931
1531.98,523.5,0.929
1536.357,526.5,0.928
1540.734,529.5,0.926
1545.115,532.5,0.924
1549.495,535.5,0.922
1553.87,538.5,0.919
1558.264,541.5,0.917
1562.66,544.5,0.913
1567.05,547.5,0.911
1571.448,550.5,0.908
1575.847,553.5,0.904
1580.241,556.5,0.9
1584.633,559.5,0.896
1589.022,562.5,0.892
1593.426,565.5,0.888
1597.845,568.5,0.883
1602.253,571.5,0.878
1606.662,574.5,0.873
1611.091,577.5,0.868
1615.499,580.5,0.863
1619.926,583.5,0.856
1624.354,586.5,0.85
1628.777,589.5,0.843
1633.224,592.5,0.836
1637.654,595.5,0.828
1642.087,598.5,0.82
1646.525,601.5,0.811
1650.991,604.5,0.802
1655.433,607.5,0.792
1659.88,610.5,0.781
1664.335,613.5,0.77
1668.789,616.5,0.758
1673.249,619.5,0.745
1677.706,622.5,0.732
1682.182,625.5,0.718
1686.659,628.5,0.704
1691.13,631.5,0.689
1695.62,634.5,0.674
1700.104,637.5,0.658
1704.585,640.5,0.642
1709.061,643.5,0.625
1713.579,646.5,0.608
1718.062,649.5,0.59
1722.582,652.5,0.572
1727.085,655.5,0.553
1731.608,658.5,0.533
1736.114,661.5,0.512
1740.639,664.5,0.491
1745.172,667.5,0.468
1749.686,670.5,0.445
1754.229,673.5,0.421
1758.759,676.5,0.396
1763.289,679.5,0.373
1767.808,682.5,0.351
1772.337,685.5,0.332
1776.869,688.5,0.315
1781.389,691.5,0.303
1785.905,694.5,0.294
1790.444,697.5,0.289
1794.982,700.5,0.285
1799.496,703.5,0.282
1804.045,706.5,0.28
1808.574,709.5,0.278
1813.127,712.5,0.277
1817.658,715.5,0.275
1822.207,718.5,0.273
1826.753,721.5,0.272
1831.291,724.5,0.27
1835.841,727.5,0.268
1840.382,730.5,0.267
1844.945,733.5,0.266
1849.492,736.5,0.265
1854.024,739.5,0.263
1858.584,742.5,0.262
1863.146,745.5,0.261
1867.682,748.5,0.259
1872.239,751.5,0.258
1876.784,754.5,0.257
1881.334,757.5,0.256
1885.882,760.5,0.255
1890.439,763.5,0.254
1894.986,766.5,0.253
1899.537,769.5,0.252
1904.077,772.5,0.251
1908.633,775.5,0.25
1913.181,778.5,0.25
1917.722,781.5,0.249
1922.278,784.5,0.248
1926.825,787.5,0.247
1931.372,790.5,0.247
1935.915,793.5,0.246
1940.467,796.5,0.245
1945.008,799.5,0.245
1949.561,802.5,0.244
1954.118,805.5,0.244
1958.633,808.5,0.243
1963.187,811.5,0.243
1967.735,814.5,0.242
1972.286,817.5,0.241
1976.826,820.5,0.241
1981.387,823.5,0.24
1985.916,826.5,0.24
1990.46,829.5,0.239
1995.015,832.5,0.239
1999.557,835.5,0.238
2004.12,838.5,0.238
2008.686,841.5,0.238
2013.223,844.5,0.237
2017.775,847.5,0.237
2022.312,850.5,0.236
2026.857,853.5,0.236
2031.409,856.5,0.236
2035.945,859.5,0.235
2040.484,862.5,0.235
2045.006,865.5,0.234
2049.555,868.5,0.234
2054.092,871.5,0.233
2058.622,874.5,0.233
2063.158,877.5,0.233
2067.684,880.5,0.232
2072.241,883.5,0.232
2076.755,886.5,0.231
2081.283,889.5,0.231
2085.806,892.5,0.231
2090.342,895.5,0.23
2094.868,898.5,0.23
2099.392,901.5,0.23
2103.912,904.5,0.229
2108.442,907.5,0.229
2112.964,910.5,0.229
2117.481,913.5,0.229
2122.003,916.5,0.228
2126.533,919.5,0.228
2131.045,922.5,0.228
2135.572,925.5,0.227
2140.106,928.5,0.227
2144.617,931.5,0.227
2149.139,934.5,0.226
2153.665,937.5,0.226
2158.192,940.5,0.226
2162.694,943.5,0.225
2167.217,946.5,0.225
2171.75,949.5,0.225
2176.261,952.5,0.225
2180.78,955.5,0.224
2185.284,958.5,0.224
2189.796,961.5,0.224
2194.322,964.5,0.224
2198.834,967.5,0.224
2203.363,970.5,0.224
2207.864,973.5,0.223
2212.378,976.5,0.223
2216.888,979.5,0.223
2221.386,982.5,0.223
2225.9,985.5,0.223
2230.405,988.5,0.223
2234.901,991.5,0.222
2239.407,994.5,0.222
2243.909,997.5,0.222
2248.424,1000.5,0.222
2252.914,1003.5,0.222
2257.416,1006.5,0.221
2261.909,1009.5,0.221
2266.409,1012.5,0.221
2270.897,1015.5,0.221
2275.401,1018.5,0.221
2279.904,1021.5,0.221
2284.407,1024.5,0.221
2288.889,1027.5,0.22
2293.391,1030.5,0.22
2297.877,1033.5,0.22
2302.379,1036.5,0.22
2306.879,1039.5,0.22
2311.365,1042.5,0.22
2315.863,1045.5,0.219
2320.351,1048.5,0.219
2324.85,1051.5,0.219
2329.364,1054.5,0.219
2333.859,1057.5,0.219
2340.705,1060.5,0.218
2348.923,1063.5,0.218
2395.0,1070.15,0.217
2455.0,1071.754,0.217
2515.0,1072.2,0.216
2575.0,1072.403,0.215
2635.0,1072.497,0.215
2655.0,1072.517,0.215