File: Wood/Calibration_Data/TUBS/TUBS_Cone_30kW_hor_R2.csv
Time (s),Mass (g),HRR (kW/m2)
0.0,85.97,0.9
10.0,85.83,0.0
20.0,85.73,0.0
30.0,85.35,8.5
40.0,84.2,155.0
50.0,83.37,145.9
60.0,82.75,100.0
70.0,82.2,84.5
80.0,81.65,73.6
90.0,81.15,69.9
100.0,80.64,68.1
110.0,80.15,63.0
120.0,79.7,63.7
130.0,79.27,61.0
140.0,78.8,62.2
150.0,78.37,59.2
160.0,77.95,56.1
170.0,77.54,59.4
180.0,77.09,57.2
190.0,76.7,54.1
200.0,76.26,50.9
210.0,75.86,54.2
220.0,75.44,52.9
230.0,75.0,55.5
240.0,74.56,56.6
250.0,74.15,56.4
260.0,73.74,51.5
270.0,73.28,52.5
280.0,72.85,58.9
290.0,72.37,59.3
300.0,71.94,56.0
310.0,71.52,55.9
320.0,71.07,58.4
330.0,70.61,54.8
340.0,70.2,57.5
350.0,69.74,57.7
360.0,69.3,57.4
370.0,68.88,56.8
380.0,68.44,59.0
390.0,67.97,55.8
400.0,67.57,56.7
410.0,67.12,56.9
420.0,66.67,54.7
430.0,66.25,55.5
440.0,65.81,55.8
450.0,65.35,57.9
460.0,64.94,59.3
470.0,64.5,54.5
480.0,64.04,54.5
490.0,63.63,56.1
500.0,63.19,55.0
510.0,62.73,58.5
520.0,62.33,54.3
530.0,61.88,57.6
540.0,61.43,52.7
550.0,61.01,58.5
560.0,60.57,55.1
570.0,60.14,54.9
580.0,59.7,55.5
590.0,59.24,55.9
600.0,58.84,56.8
610.0,58.39,56.4
620.0,57.97,54.9
630.0,57.52,53.4
640.0,57.08,56.6
650.0,56.64,51.4
660.0,56.23,54.9
670.0,55.78,54.3
680.0,55.38,56.1
690.0,54.93,48.6
700.0,54.51,52.2
710.0,54.11,52.5
720.0,53.66,51.7
730.0,53.24,49.0
740.0,52.85,53.4
750.0,52.43,52.6
760.0,52.04,46.7
770.0,51.63,51.6
780.0,51.24,51.4
790.0,50.83,50.7
800.0,50.41,49.2
810.0,50.01,48.2
820.0,49.59,50.2
830.0,49.21,47.2
840.0,48.8,49.7
850.0,48.37,50.4
860.0,48.02,47.4
870.0,47.62,49.9
880.0,47.21,47.4
890.0,46.81,50.5
900.0,46.43,48.0
910.0,46.01,48.4
920.0,45.66,47.3
930.0,45.24,50.2
940.0,44.87,46.5
950.0,44.48,48.6
960.0,44.1,49.9
970.0,43.69,50.1
980.0,43.34,49.5
990.0,42.91,48.8
1000.0,42.54,48.6
1010.0,42.14,48.4
1020.0,41.77,52.3
1030.0,41.34,50.4
1040.0,41.0,46.6
1050.0,40.57,49.1
1060.0,40.19,53.1
1070.0,39.79,51.3
1080.0,39.4,48.8
1090.0,38.98,51.9
1100.0,38.59,54.4
1110.0,38.18,54.8
1120.0,37.76,51.4
1130.0,37.35,53.4
1140.0,36.92,51.4
1150.0,36.48,51.4
1160.0,36.07,54.2
1170.0,35.65,56.4
1180.0,35.16,55.5
1190.0,34.75,51.8
1200.0,34.31,57.2
1210.0,33.86,57.3
1220.0,33.38,58.4
1230.0,32.94,57.6
1240.0,32.46,62.2
1250.0,31.99,60.9
1260.0,31.52,60.0
1270.0,31.02,61.9
1280.0,30.53,63.7
1290.0,30.03,64.5
1300.0,29.53,63.5
1310.0,28.97,63.5
1320.0,28.48,69.1
1330.0,27.95,67.6
1340.0,27.41,66.1
1350.0,26.9,66.7
1360.0,26.38,68.6
1370.0,25.86,67.6
1380.0,25.35,67.6
1390.0,24.82,68.9
1400.0,24.29,67.6
1410.0,23.78,68.8
1420.0,23.27,68.6
1430.0,22.74,66.3
1440.0,22.24,65.2
1450.0,21.74,64.8
1460.0,21.27,61.8
1470.0,20.86,58.7
1480.0,20.4,59.6
1490.0,19.98,57.6
1500.0,19.61,54.7
1510.0,19.25,50.1
1520.0,18.89,48.2
1530.0,18.59,42.7
1540.0,18.3,44.5
1550.0,18.01,41.3
1560.0,17.77,40.9
1570.0,17.52,38.7
1580.0,17.26,38.3
1590.0,17.04,35.4
1600.0,16.82,35.0
1610.0,16.61,35.2
1620.0,16.43,33.0
1630.0,16.25,31.7
1640.0,16.05,29.0
1650.0,15.86,26.8
1660.0,15.69,26.1
1670.0,15.52,24.6
1680.0,15.36,27.2
1690.0,15.19,24.6
1700.0,15.03,23.9
1710.0,14.87,23.5
1720.0,14.72,21.5
1730.0,14.56,20.5
1740.0,14.45,20.7
1750.0,14.29,20.7
1760.0,14.16,19.6
1770.0,14.02,17.4
1780.0,13.9,16.3
1790.0,13.76,16.0
1800.0,13.63,18.0
1810.0,13.54,15.5
1820.0,13.4,14.3
1830.0,13.29,16.6
1840.0,13.18,15.5
1850.0,13.04,15.8
1860.0,12.94,14.6
1870.0,12.86,15.8
1880.0,12.75,12.3
1890.0,12.65,13.1
1900.0,12.53,12.8
1910.0,12.43,13.4
1920.0,12.34,14.1
1930.0,12.25,14.5
1940.0,12.14,10.9
1950.0,12.05,10.0
1960.0,11.96,13.4
1970.0,11.87,12.9
1980.0,11.79,13.5
1990.0,11.69,11.3
2000.0,11.6,12.2
2010.0,11.51,9.4
2020.0,11.42,13.5
2030.0,11.34,10.9
2040.0,11.25,10.4
2050.0,11.17,11.8
2060.0,11.09,9.4
2070.0,11.0,12.7
2080.0,10.92,9.7
2090.0,10.85,6.0
2100.0,10.78,10.9
2110.0,10.7,9.4
2120.0,10.62,10.6
2130.0,10.54,8.3
2140.0,10.47,7.7
2150.0,10.4,10.2
2160.0,10.32,8.4
2170.0,10.24,9.1
2180.0,10.16,8.9
2190.0,10.09,10.6
2200.0,10.02,9.2
2210.0,9.93,8.5
2220.0,9.87,8.6
2230.0,9.79,7.8
2240.0,9.72,9.8
2250.0,9.64,10.0
2260.0,9.58,7.4
2270.0,9.51,7.9
2280.0,9.44,5.0
2290.0,9.37,7.2
2300.0,9.3,7.5
2310.0,9.23,6.1
2320.0,9.15,7.6
2330.0,9.08,6.1
2340.0,9.02,7.4
2350.0,8.96,9.8
2360.0,8.88,7.0
2370.0,8.81,3.8
2380.0,8.74,6.6
2390.0,8.67,9.2
2400.0,8.6,8.3
2410.0,8.53,7.6
2420.0,8.46,6.6
2430.0,8.41,6.6
2440.0,8.34,8.5
2450.0,8.26,4.6
2460.0,8.19,10.0
2470.0,8.14,7.1
2480.0,8.07,8.8
2490.0,8.0,6.6
2500.0,7.94,6.8
2510.0,7.87,3.6
2520.0,7.8,5.8
2530.0,7.73,3.7
2540.0,7.68,5.4
2550.0,7.61,3.6
2560.0,7.54,5.5
2570.0,7.49,8.4
2580.0,7.43,5.3
2590.0,7.37,6.8
2600.0,7.29,7.7
2610.0,7.23,7.5
2620.0,7.16,7.1
2630.0,7.09,7.2
2640.0,7.04,3.5
2650.0,6.98,3.5
2660.0,6.91,4.5
2670.0,6.84,5.9
2680.0,6.76,4.1
2690.0,6.71,4.0
2700.0,6.66,3.1