File: Wood/Calibration_Data/TUBS/TUBS_Wood_TGA_N2_50K_R3.csv
Time (s),Temperature (K),Mass (mg)
0.0,305.021,0.969
52.0,304.817,0.963
142.0,304.639,0.959
313.0,304.494,0.953
369.0,304.491,0.953
714.0,304.443,0.951
846.0,304.448,0.951
1180.0,304.461,0.949
1207.691,307.0,0.947
1212.431,310.0,0.949
1216.315,313.0,0.951
1220.008,316.0,0.952
1223.617,319.0,0.952
1227.213,322.0,0.952
1230.798,325.0,0.951
1234.384,328.0,0.95
1237.972,331.0,0.949
1241.573,334.0,0.948
1245.162,337.0,0.948
1248.745,340.0,0.948
1252.375,343.0,0.947
1255.987,346.0,0.946
1259.584,349.0,0.945
1263.2,352.0,0.945
1266.818,355.0,0.943
1270.408,358.0,0.943
1274.02,361.0,0.943
1277.633,364.0,0.943
1281.242,367.0,0.942
1284.843,370.0,0.942
1288.453,373.0,0.941
1292.067,376.0,0.941
1295.673,379.0,0.941
1299.275,382.0,0.941
1302.883,385.0,0.94
1306.475,388.0,0.94
1310.074,391.0,0.94
1313.665,394.0,0.939
1317.254,397.0,0.939
1320.853,400.0,0.939
1324.439,403.0,0.939
1328.018,406.0,0.939
1331.607,409.0,0.939
1335.18,412.0,0.939
1338.744,415.0,0.939
1342.308,418.0,0.939
1345.888,421.0,0.939
1349.438,424.0,0.939
1353.0,427.0,0.939
1356.553,430.0,0.939
1360.113,433.0,0.939
1363.661,436.0,0.939
1367.205,439.0,0.939
1370.755,442.0,0.938
1374.302,445.0,0.938
1377.823,448.0,0.938
1381.368,451.0,0.938
1384.906,454.0,0.937
1388.413,457.0,0.937
1391.942,460.0,0.937
1395.449,463.0,0.936
1398.968,466.0,0.936
1402.485,469.0,0.935
1405.997,472.0,0.934
1409.517,475.0,0.934
1413.022,478.0,0.933
1416.523,481.0,0.932
1420.027,484.0,0.931
1423.526,487.0,0.93
1427.03,490.0,0.929
1430.509,493.0,0.928
1434.023,496.0,0.927
1437.522,499.0,0.926
1441.015,502.0,0.925
1444.521,505.0,0.924
1448.016,508.0,0.923
1451.512,511.0,0.922
1455.011,514.0,0.921
1458.509,517.0,0.919
1462.005,520.0,0.918
1465.501,523.0,0.916
1469.008,526.0,0.915
1472.504,529.0,0.913
1476.002,532.0,0.912
1479.508,535.0,0.91
1483.018,538.0,0.908
1486.512,541.0,0.905
1490.022,544.0,0.903
1493.524,547.0,0.9
1497.031,550.0,0.897
1500.539,553.0,0.893
1504.038,556.0,0.89
1507.551,559.0,0.886
1511.066,562.0,0.883
1514.579,565.0,0.878
1518.093,568.0,0.874
1521.622,571.0,0.869
1525.134,574.0,0.865
1528.658,577.0,0.86
1532.181,580.0,0.855
1535.71,583.0,0.849
1539.229,586.0,0.843
1542.757,589.0,0.836
1546.292,592.0,0.829
1549.835,595.0,0.822
1553.384,598.0,0.814
1556.923,601.0,0.806
1560.453,604.0,0.798
1564.005,607.0,0.788
1567.558,610.0,0.778
1571.111,613.0,0.768
1574.664,616.0,0.757
1578.224,619.0,0.745
1581.789,622.0,0.732
1585.356,625.0,0.719
1588.928,628.0,0.705
1592.493,631.0,0.69
1596.065,634.0,0.675
1599.638,637.0,0.659
1603.215,640.0,0.644
1606.801,643.0,0.628
1610.398,646.0,0.611
1613.988,649.0,0.593
1617.592,652.0,0.576
1621.191,655.0,0.557
1624.798,658.0,0.538
1628.402,661.0,0.519
1632.016,664.0,0.498
1635.631,667.0,0.476
1639.257,670.0,0.453
1642.876,673.0,0.431
1646.502,676.0,0.406
1650.123,679.0,0.382
1653.752,682.0,0.357
1657.381,685.0,0.333
1661.004,688.0,0.311
1664.613,691.0,0.293
1668.235,694.0,0.277
1671.855,697.0,0.265
1675.477,700.0,0.256
1679.113,703.0,0.25
1682.743,706.0,0.246
1686.368,709.0,0.244
1689.999,712.0,0.242
1693.638,715.0,0.24
1697.275,718.0,0.238
1700.9,721.0,0.236
1704.53,724.0,0.234
1708.174,727.0,0.233
1711.804,730.0,0.231
1715.44,733.0,0.23
1719.076,736.0,0.229
1722.715,739.0,0.227
1726.358,742.0,0.226
1729.988,745.0,0.224
1733.628,748.0,0.223
1737.269,751.0,0.222
1740.914,754.0,0.221
1744.548,757.0,0.219
1748.195,760.0,0.219
1751.826,763.0,0.217
1755.466,766.0,0.217
1759.108,769.0,0.215
1762.746,772.0,0.214
1766.386,775.0,0.214
1770.018,778.0,0.213
1773.672,781.0,0.212
1777.314,784.0,0.211
1780.959,787.0,0.21
1784.594,790.0,0.209
1788.243,793.0,0.208
1791.886,796.0,0.208
1795.525,799.0,0.207
1799.178,802.0,0.207
1802.812,805.0,0.206
1806.452,808.0,0.206
1810.107,811.0,0.205
1813.738,814.0,0.204
1817.379,817.0,0.204
1821.019,820.0,0.203
1824.659,823.0,0.203
1828.302,826.0,0.202
1831.949,829.0,0.202
1835.592,832.0,0.201
1839.228,835.0,0.201
1842.873,838.0,0.2
1846.515,841.0,0.2
1850.146,844.0,0.199
1853.79,847.0,0.199
1857.422,850.0,0.199
1861.064,853.0,0.198
1864.73,856.0,0.198
1868.377,859.0,0.197
1872.035,862.0,0.196
1875.672,865.0,0.196
1879.308,868.0,0.195
1882.925,871.0,0.195
1886.563,874.0,0.195
1890.201,877.0,0.195
1893.828,880.0,0.194
1897.463,883.0,0.194
1901.095,886.0,0.193
1904.726,889.0,0.193
1908.351,892.0,0.193
1911.98,895.0,0.192
1915.603,898.0,0.192
1919.222,901.0,0.191
1922.844,904.0,0.191
1926.472,907.0,0.191
1930.079,910.0,0.19
1933.715,913.0,0.19
1937.336,916.0,0.19
1940.96,919.0,0.189
1944.578,922.0,0.189
1948.203,925.0,0.189
1951.83,928.0,0.189
1955.436,931.0,0.188
1959.053,934.0,0.188
1962.666,937.0,0.188
1966.281,940.0,0.187
1969.893,943.0,0.187
1973.512,946.0,0.187
1977.128,949.0,0.187
1980.726,952.0,0.187
1984.337,955.0,0.186
1987.941,958.0,0.186
1991.555,961.0,0.186
1995.158,964.0,0.186
1998.765,967.0,0.185
2002.36,970.0,0.185
2005.971,973.0,0.185
2009.569,976.0,0.184
2013.172,979.0,0.184
2016.767,982.0,0.184
2020.362,985.0,0.184
2023.962,988.0,0.184
2027.558,991.0,0.183
2031.159,994.0,0.183
2034.745,997.0,0.183
2038.329,1000.0,0.183
2041.913,1003.0,0.183
2045.515,1006.0,0.182
2049.109,1009.0,0.182
2052.695,1012.0,0.182
2056.283,1015.0,0.182
2059.869,1018.0,0.182
2063.453,1021.0,0.182
2067.031,1024.0,0.181
2070.621,1027.0,0.181
2074.2,1030.0,0.181
2077.785,1033.0,0.181
2081.373,1036.0,0.181
2084.958,1039.0,0.181
2088.54,1042.0,0.18
2092.131,1045.0,0.18
2095.704,1048.0,0.18
2099.286,1051.0,0.18
2102.887,1054.0,0.18
2108.143,1057.0,0.18
2114.161,1060.0,0.18
2122.158,1063.0,0.179
2174.0,1070.238,0.178
2234.0,1071.757,0.177
2294.0,1072.272,0.176
2354.0,1072.477,0.176
2414.0,1072.578,0.175
2424.0,1072.584,0.175