File: Wood/Calibration_Data/TUBS/TUBS_Wood_TGA_N2_5K_R1.csv
Time (s),Temperature (K),Mass (mg)
0.0,304.84,0.98
39.0,304.68,0.974
114.0,304.564,0.968
293.0,304.416,0.962
582.0,304.38,0.96
649.0,304.356,0.956
896.0,304.348,0.956
1024.0,304.354,0.956
1150.0,304.342,0.956
1251.116,307.0,0.955
1290.622,310.0,0.955
1327.699,313.0,0.954
1363.618,316.0,0.953
1399.698,319.0,0.953
1435.471,322.0,0.952
1471.541,325.0,0.951
1507.719,328.0,0.95
1543.78,331.0,0.949
1579.805,334.0,0.948
1615.824,337.0,0.948
1651.831,340.0,0.947
1687.785,343.0,0.946
1724.012,346.0,0.946
1759.869,349.0,0.946
1795.911,352.0,0.945
1831.881,355.0,0.946
1867.81,358.0,0.945
1903.748,361.0,0.945
1939.739,364.0,0.945
1975.802,367.0,0.945
2011.692,370.0,0.945
2047.667,373.0,0.945
2083.443,376.0,0.945
2119.122,379.0,0.945
2154.95,382.0,0.944
2190.813,385.0,0.944
2226.708,388.0,0.945
2262.041,391.0,0.944
2298.108,394.0,0.944
2333.898,397.0,0.944
2369.875,400.0,0.944
2405.536,403.0,0.944
2441.069,406.0,0.944
2477.0,409.0,0.944
2512.728,412.0,0.944
2548.329,415.0,0.943
2584.085,418.0,0.943
2619.843,421.0,0.943
2655.488,424.0,0.942
2691.168,427.0,0.942
2727.031,430.0,0.941
2762.56,433.0,0.94
2798.232,436.0,0.939
2833.977,439.0,0.939
2869.702,442.0,0.938
2905.277,445.0,0.937
2941.012,448.0,0.936
2976.506,451.0,0.935
3012.165,454.0,0.935
3047.87,457.0,0.934
3083.41,460.0,0.933
3119.093,463.0,0.933
3154.66,466.0,0.932
3190.393,469.0,0.931
3225.977,472.0,0.931
3261.492,475.0,0.93
3297.424,478.0,0.929
3332.864,481.0,0.928
3368.629,484.0,0.927
3404.325,487.0,0.926
3439.957,490.0,0.924
3475.616,493.0,0.923
3511.333,496.0,0.922
3547.082,499.0,0.92
3582.675,502.0,0.918
3618.425,505.0,0.916
3654.067,508.0,0.914
3689.962,511.0,0.911
3725.524,514.0,0.909
3761.2,517.0,0.905
3797.085,520.0,0.902
3832.877,523.0,0.898
3868.618,526.0,0.894
3904.367,529.0,0.89
3940.136,532.0,0.886
3975.908,535.0,0.88
4011.753,538.0,0.875
4047.406,541.0,0.87
4083.269,544.0,0.864
4119.167,547.0,0.857
4154.903,550.0,0.851
4190.667,553.0,0.843
4226.47,556.0,0.835
4262.231,559.0,0.827
4298.0,562.0,0.818
4333.795,565.0,0.808
4369.7,568.0,0.797
4405.5,571.0,0.786
4441.472,574.0,0.774
4477.329,577.0,0.761
4513.149,580.0,0.748
4548.987,583.0,0.733
4584.767,586.0,0.718
4620.632,589.0,0.702
4656.44,592.0,0.686
4692.4,595.0,0.669
4728.247,598.0,0.651
4764.225,601.0,0.632
4800.025,604.0,0.613
4836.127,607.0,0.594
4871.978,610.0,0.573
4907.894,613.0,0.552
4943.827,616.0,0.53
4979.832,619.0,0.507
5015.776,622.0,0.483
5051.741,625.0,0.457
5087.791,628.0,0.431
5123.57,631.0,0.403
5159.685,634.0,0.376
5195.5,637.0,0.35
5231.468,640.0,0.325
5267.44,643.0,0.303
5303.453,646.0,0.287
5339.346,649.0,0.276
5375.261,652.0,0.269
5411.364,655.0,0.265
5447.31,658.0,0.263
5483.406,661.0,0.261
5519.37,664.0,0.258
5555.376,667.0,0.256
5591.549,670.0,0.254
5627.655,673.0,0.253
5663.663,676.0,0.251
5699.734,679.0,0.249
5735.882,682.0,0.247
5772.055,685.0,0.245
5808.037,688.0,0.244
5844.131,691.0,0.242
5880.337,694.0,0.24
5916.389,697.0,0.239
5952.628,700.0,0.237
5988.667,703.0,0.235
6024.857,706.0,0.234
6061.089,709.0,0.233
6097.387,712.0,0.231
6133.422,715.0,0.23
6169.648,718.0,0.229
6205.962,721.0,0.228
6242.148,724.0,0.226
6278.468,727.0,0.225
6314.612,730.0,0.224
6350.75,733.0,0.224
6386.864,736.0,0.223
6423.045,739.0,0.222
6459.393,742.0,0.221
6495.482,745.0,0.22
6531.762,748.0,0.219
6568.0,751.0,0.219
6604.169,754.0,0.218
6640.349,757.0,0.217
6676.54,760.0,0.217
6712.719,763.0,0.216
6748.94,766.0,0.215
6785.171,769.0,0.215
6821.163,772.0,0.214
6857.378,775.0,0.214
6893.516,778.0,0.213
6929.613,781.0,0.212
6965.732,784.0,0.212
7001.86,787.0,0.211
7037.976,790.0,0.211
7074.091,793.0,0.211
7110.304,796.0,0.21
7146.354,799.0,0.209
7182.391,802.0,0.209
7218.518,805.0,0.208
7254.648,808.0,0.208
7290.788,811.0,0.207
7326.772,814.0,0.207
7362.976,817.0,0.206
7399.235,820.0,0.206
7435.221,823.0,0.205
7471.378,826.0,0.205
7507.528,829.0,0.204
7543.571,832.0,0.204
7579.85,835.0,0.204
7616.059,838.0,0.203
7652.198,841.0,0.203
7688.172,844.0,0.202
7724.376,847.0,0.202
7760.455,850.0,0.201
7796.593,853.0,0.201
7832.632,856.0,0.2
7868.747,859.0,0.2
7905.021,862.0,0.2
7941.138,865.0,0.199
7977.121,868.0,0.199
8012.877,871.0,0.199
8048.924,874.0,0.198
8085.08,877.0,0.198
8121.291,880.0,0.198
8157.213,883.0,0.198
8193.561,886.0,0.197
8229.696,889.0,0.197
8266.0,892.0,0.196
8302.125,895.0,0.196
8338.353,898.0,0.196
8374.701,901.0,0.195
8410.782,904.0,0.195
8446.893,907.0,0.195
8483.167,910.0,0.195
8519.301,913.0,0.194
8555.456,916.0,0.194
8591.687,919.0,0.194
8627.852,922.0,0.194
8663.978,925.0,0.193
8700.091,928.0,0.193
8736.302,931.0,0.193
8772.376,934.0,0.193
8808.647,937.0,0.193
8844.721,940.0,0.192
8880.774,943.0,0.192
8917.036,946.0,0.192
8953.207,949.0,0.191
8989.393,952.0,0.191
9025.447,955.0,0.191
9061.583,958.0,0.191
9097.771,961.0,0.191
9133.903,964.0,0.19
9170.0,967.0,0.19
9206.118,970.0,0.19
9242.263,973.0,0.19
9278.465,976.0,0.19
9314.662,979.0,0.189
9350.987,982.0,0.189
9387.099,985.0,0.188
9423.396,988.0,0.188
9459.525,991.0,0.188
9495.675,994.0,0.188
9531.823,997.0,0.187
9567.911,1000.0,0.187
9604.025,1003.0,0.187
9640.046,1006.0,0.186
9676.16,1009.0,0.186
9712.208,1012.0,0.186
9748.271,1015.0,0.186
9784.275,1018.0,0.185
9820.247,1021.0,0.185
9856.395,1024.0,0.185
9892.494,1027.0,0.184
9928.519,1030.0,0.184
9964.586,1033.0,0.184
10000.506,1036.0,0.184
10036.55,1039.0,0.183
10072.607,1042.0,0.183
10108.608,1045.0,0.183
10144.591,1048.0,0.183
10180.593,1051.0,0.183
10216.524,1054.0,0.182
10252.57,1057.0,0.182
10288.571,1060.0,0.182
10324.977,1063.0,0.177
10360.634,1066.0,0.182
10396.441,1069.0,0.181
10450.0,1072.2,0.181
10510.0,1072.765,0.181
10570.0,1072.873,0.18
10630.0,1072.905,0.18
10690.0,1072.93,0.18
10740.0,1072.938,0.18