File: Wood/Calibration_Data/TUBS/TUBS_Wood_TGA_N2_50K_R10.csv
Time (s),Temperature (K),Mass (mg)
0.0,305.033,1.02984
8.0,304.987,1.02919
16.0,304.944,1.02822
24.0,304.919,1.0274
32.0,304.885,1.02675
40.0,304.866,1.02622
48.0,304.829,1.02553
56.0,304.806,1.02494
64.0,304.79,1.02427
72.0,304.769,1.02382
80.0,304.76,1.02325
88.0,304.735,1.02272
96.0,304.709,1.02229
104.0,304.698,1.02199
112.0,304.691,1.02165
120.0,304.668,1.02138
128.0,304.662,1.02103
136.0,304.668,1.02068
144.0,304.644,1.02036
152.0,304.644,1.02012
160.0,304.613,1.01989
168.0,304.598,1.01963
176.0,304.58,1.0194
184.0,304.57,1.01928
192.0,304.577,1.01902
200.0,304.566,1.01878
209.0,304.576,1.01865
217.0,304.554,1.01842
225.0,304.549,1.01828
233.0,304.536,1.01813
241.0,304.531,1.01798
254.0,304.519,1.01782
262.0,304.523,1.01762
270.0,304.51,1.01747
278.0,304.516,1.01726
288.0,304.497,1.01702
296.0,304.489,1.01674
308.0,304.488,1.01665
316.0,304.504,1.01646
324.0,304.492,1.01636
332.0,304.493,1.01621
347.0,304.48,1.0161
358.0,304.489,1.01601
370.0,304.472,1.01591
378.0,304.48,1.01577
396.0,304.477,1.01577
407.0,304.466,1.01568
415.0,304.457,1.01551
425.0,304.456,1.01534
434.0,304.455,1.01517
445.0,304.456,1.01524
455.0,304.455,1.01508
463.0,304.452,1.01484
473.0,304.447,1.01493
484.0,304.452,1.01493
492.0,304.448,1.0148
508.0,304.459,1.01472
519.0,304.442,1.01462
529.0,304.44,1.01453
544.0,304.437,1.01456
554.0,304.441,1.01448
565.0,304.434,1.01442
582.0,304.439,1.01432
593.0,304.446,1.01427
601.0,304.441,1.01436
614.0,304.429,1.01431
634.0,304.435,1.01423
651.0,304.428,1.01417
667.0,304.423,1.01411
675.0,304.444,1.0142
691.0,304.427,1.0142
715.0,304.443,1.01411
725.0,304.43,1.01402
742.0,304.436,1.01407
758.0,304.444,1.01404
772.0,304.429,1.01406
780.0,304.443,1.01392
796.0,304.446,1.01387
819.0,304.444,1.01396
828.0,304.447,1.0139
836.0,304.43,1.01366
857.0,304.423,1.01356
874.0,304.44,1.0135
889.0,304.431,1.01339
913.0,304.427,1.01338
934.0,304.436,1.0133
959.0,304.454,1.01325
967.0,304.433,1.01314
983.0,304.452,1.01317
999.0,304.404,1.0132
1028.0,304.436,1.01318
1036.0,304.443,1.01326
1069.0,304.423,1.01325
1081.0,304.433,1.01318
1101.0,304.441,1.01312
1117.0,304.439,1.01319
1125.0,304.44,1.01301
1144.0,304.45,1.01294
1152.0,304.451,1.01308
1162.0,304.427,1.01314
1186.0,304.447,1.01306
1199.0,304.451,1.01297
1209.686,308.0,1.0106
1215.213,312.0,1.01378
1220.151,316.0,1.01487
1224.967,320.0,1.01444
1229.743,324.0,1.01325
1234.524,328.0,1.01197
1239.304,332.0,1.01111
1244.09,336.0,1.01048
1248.902,340.0,1.00979
1253.712,344.0,1.00899
1258.531,348.0,1.00813
1263.317,352.0,1.00724
1268.125,356.0,1.00636
1272.968,360.0,1.00554
1277.788,364.0,1.00479
1282.593,368.0,1.00412
1287.421,372.0,1.00352
1292.23,376.0,1.00302
1297.024,380.0,1.00273
1301.83,384.0,1.00275
1306.647,388.0,1.00273
1311.436,392.0,1.00256
1316.228,396.0,1.00242
1321.019,400.0,1.00237
1325.794,404.0,1.00236
1330.576,408.0,1.00226
1335.34,412.0,1.00217
1340.102,416.0,1.00213
1344.852,420.0,1.00206
1349.609,424.0,1.00197
1354.358,428.0,1.00191
1359.102,432.0,1.0018
1363.843,436.0,1.00157
1368.572,440.0,1.00126
1373.294,444.0,1.00091
1378.014,448.0,1.00054
1382.724,452.0,1.00018
1387.428,456.0,0.99972
1392.122,460.0,0.99908
1396.818,464.0,0.9983
1401.5,468.0,0.99748
1406.183,472.0,0.9966
1410.856,476.0,0.99552
1415.531,480.0,0.99419
1420.212,484.0,0.99284
1424.885,488.0,0.99143
1429.546,492.0,0.98983
1434.213,496.0,0.98811
1438.879,500.0,0.98631
1443.545,504.0,0.98437
1448.209,508.0,0.98228
1452.874,512.0,0.98004
1457.547,516.0,0.97761
1462.209,520.0,0.97496
1466.863,524.0,0.97201
1471.537,528.0,0.9687
1476.199,532.0,0.96511
1480.859,536.0,0.96115
1485.527,540.0,0.95677
1490.204,544.0,0.9519
1494.869,548.0,0.94658
1499.552,552.0,0.94078
1504.229,556.0,0.93454
1508.929,560.0,0.92796
1513.605,564.0,0.9213
1518.293,568.0,0.91439
1522.991,572.0,0.90702
1527.682,576.0,0.89917
1532.378,580.0,0.89099
1537.081,584.0,0.88246
1541.79,588.0,0.87345
1546.5,592.0,0.86378
1551.212,596.0,0.85344
1555.945,600.0,0.84227
1560.657,604.0,0.83026
1565.391,608.0,0.81718
1570.144,612.0,0.80296
1574.875,616.0,0.78776
1579.624,620.0,0.77137
1584.374,624.0,0.75389
1589.134,628.0,0.73536
1593.899,632.0,0.71579
1598.654,636.0,0.69527
1603.434,640.0,0.67378
1608.211,644.0,0.65155
1613.008,648.0,0.6283
1617.779,652.0,0.60421
1622.593,656.0,0.57896
1627.396,660.0,0.55249
1632.215,664.0,0.52446
1637.036,668.0,0.49479
1641.866,672.0,0.46324
1646.704,676.0,0.43005
1651.528,680.0,0.39607
1656.357,684.0,0.36273
1661.185,688.0,0.33205
1666.006,692.0,0.30622
1670.832,696.0,0.28666
1675.657,700.0,0.27388
1680.487,704.0,0.26623
1685.32,708.0,0.26163
1690.164,712.0,0.25843
1695.014,716.0,0.25573
1699.849,720.0,0.2532
1704.696,724.0,0.25075
1709.541,728.0,0.24842
1714.394,732.0,0.24621
1719.245,736.0,0.24408
1724.089,740.0,0.24199
1728.95,744.0,0.23991
1733.808,748.0,0.23789
1738.649,752.0,0.23604
1743.522,756.0,0.23429
1748.379,760.0,0.2326
1753.234,764.0,0.23106
1758.097,768.0,0.22959
1762.952,772.0,0.22814
1767.798,776.0,0.2268
1772.656,780.0,0.22561
1777.522,784.0,0.22447
1782.376,788.0,0.22335
1787.243,792.0,0.2224
1792.094,796.0,0.22149
1796.956,800.0,0.22053
1801.808,804.0,0.21963
1806.667,808.0,0.21874
1811.527,812.0,0.21786
1816.387,816.0,0.21699
1821.231,820.0,0.21615
1826.094,824.0,0.2154
1830.957,828.0,0.21472
1835.805,832.0,0.21402
1840.669,836.0,0.21327
1845.518,840.0,0.21256
1850.37,844.0,0.21186
1855.229,848.0,0.21119
1860.088,852.0,0.21056
1864.943,856.0,0.20997
1869.81,860.0,0.20941
1874.655,864.0,0.20883
1879.508,868.0,0.20822
1884.358,872.0,0.20751
1889.208,876.0,0.20681
1894.044,880.0,0.20618
1898.887,884.0,0.2056
1903.723,888.0,0.20495
1908.567,892.0,0.20432
1913.391,896.0,0.2038
1918.229,900.0,0.20334
1923.068,904.0,0.20282
1927.892,908.0,0.20228
1932.729,912.0,0.20175
1937.559,916.0,0.20126
1942.389,920.0,0.20082
1947.219,924.0,0.20037
1952.046,928.0,0.19997
1956.863,932.0,0.19959
1961.691,936.0,0.19915
1966.513,940.0,0.19871
1971.34,944.0,0.19829
1976.159,948.0,0.19793
1980.989,952.0,0.19757
1985.796,956.0,0.19724
1990.612,960.0,0.19694
1995.437,964.0,0.19664
2000.248,968.0,0.19631
2005.063,972.0,0.19595
2009.873,976.0,0.19566
2014.688,980.0,0.19541
2019.505,984.0,0.19518
2024.303,988.0,0.19495
2029.102,992.0,0.19465
2033.908,996.0,0.19437
2038.72,1000.0,0.19404
2043.512,1004.0,0.19375
2048.317,1008.0,0.19351
2053.117,1012.0,0.19326
2057.901,1016.0,0.19305
2062.692,1020.0,0.19281
2067.487,1024.0,0.19254
2072.292,1028.0,0.19231
2077.067,1032.0,0.19209
2081.855,1036.0,0.19188
2086.643,1040.0,0.19166
2091.426,1044.0,0.19141
2096.204,1048.0,0.19116
2100.987,1052.0,0.1909
2106.914,1056.0,0.19076
2114.85,1060.0,0.19055
2154.0,1068.461,0.18937
2234.0,1071.317,0.18791
2314.0,1071.882,0.18677
2394.0,1072.073,0.18601
2424.0,1072.112,0.18569