File: Wood/Calibration_Data/TUBS/TUBS_TGA_N2_30K_R3.csv
Time (s),Temperature (K),Mass (mg)
0.0,305.074,1.02
9.0,305.038,1.018
18.0,304.999,1.018
27.0,304.928,1.017
36.0,304.925,1.016
45.0,304.878,1.015
54.0,304.861,1.014
63.0,304.822,1.014
72.0,304.804,1.013
81.0,304.78,1.012
90.0,304.753,1.012
99.0,304.753,1.011
108.0,304.737,1.011
117.0,304.743,1.011
126.0,304.698,1.01
135.0,304.68,1.01
144.0,304.678,1.01
153.0,304.674,1.009
162.0,304.659,1.009
171.0,304.651,1.009
180.0,304.627,1.008
189.0,304.603,1.008
198.0,304.605,1.008
207.0,304.601,1.008
216.0,304.595,1.008
225.0,304.594,1.007
234.0,304.578,1.007
243.0,304.562,1.007
252.0,304.562,1.007
261.0,304.566,1.007
270.0,304.546,1.007
279.0,304.532,1.006
288.0,304.536,1.006
297.0,304.547,1.006
306.0,304.555,1.006
315.0,304.54,1.006
324.0,304.518,1.006
333.0,304.516,1.006
342.0,304.51,1.005
351.0,304.491,1.005
360.0,304.5,1.005
369.0,304.504,1.005
378.0,304.499,1.005
387.0,304.499,1.005
396.0,304.485,1.005
405.0,304.482,1.005
414.0,304.484,1.005
423.0,304.491,1.004
432.0,304.488,1.005
441.0,304.483,1.005
450.0,304.482,1.005
459.0,304.478,1.004
468.0,304.48,1.004
477.0,304.492,1.004
486.0,304.48,1.004
495.0,304.483,1.004
504.0,304.493,1.004
513.0,304.478,1.004
522.0,304.482,1.004
531.0,304.495,1.004
540.0,304.482,1.004
549.0,304.479,1.004
558.0,304.484,1.004
567.0,304.464,1.004
576.0,304.465,1.004
585.0,304.496,1.004
594.0,304.485,1.004
603.0,304.498,1.004
612.0,304.479,1.003
621.0,304.487,1.004
630.0,304.466,1.004
639.0,304.468,1.004
648.0,304.475,1.003
657.0,304.46,1.003
666.0,304.473,1.003
675.0,304.455,1.003
684.0,304.457,1.003
693.0,304.47,1.003
702.0,304.468,1.003
711.0,304.478,1.003
720.0,304.455,1.003
729.0,304.472,1.003
738.0,304.479,1.003
747.0,304.463,1.003
756.0,304.456,1.003
765.0,304.468,1.003
774.0,304.452,1.003
783.0,304.481,1.003
792.0,304.459,1.003
801.0,304.466,1.003
810.0,304.461,1.003
819.0,304.466,1.003
828.0,304.446,1.003
837.0,304.458,1.003
846.0,304.452,1.003
855.0,304.473,1.003
864.0,304.471,1.003
873.0,304.473,1.003
882.0,304.462,1.003
891.0,304.479,1.003
900.0,304.464,1.003
909.0,304.481,1.003
918.0,304.456,1.003
927.0,304.491,1.003
936.0,304.482,1.003
945.0,304.469,1.003
954.0,304.465,1.003
963.0,304.469,1.003
972.0,304.496,1.003
981.0,304.472,1.003
990.0,304.466,1.003
999.0,304.47,1.003
1008.0,304.473,1.003
1017.0,304.463,1.003
1026.0,304.461,1.003
1035.0,304.462,1.002
1044.0,304.474,1.002
1053.0,304.466,1.002
1062.0,304.46,1.002
1071.0,304.47,1.002
1080.0,304.484,1.002
1089.0,304.46,1.002
1098.0,304.474,1.003
1107.0,304.479,1.003
1116.0,304.476,1.003
1125.0,304.47,1.003
1134.0,304.457,1.003
1143.0,304.453,1.002
1152.0,304.476,1.003
1161.0,304.458,1.003
1170.0,304.456,1.003
1179.0,304.476,1.003
1188.0,304.46,1.003
1197.0,304.458,1.003
1206.0,305.883,1.0
1215.0,310.452,1.004
1224.0,316.175,1.005
1233.0,322.054,1.003
1242.0,328.0,1.002
1251.0,333.899,1.001
1260.0,339.833,1.0
1269.0,345.736,0.999
1278.0,351.674,0.997
1287.0,357.623,0.996
1296.0,363.549,0.995
1305.0,369.53,0.994
1314.0,375.488,0.993
1323.0,381.472,0.993
1332.0,387.456,0.992
1341.0,393.472,0.992
1350.0,399.495,0.992
1359.0,405.517,0.992
1368.0,411.573,0.992
1377.0,417.628,0.992
1386.0,423.709,0.992
1395.0,429.793,0.992
1404.0,435.878,0.991
1413.0,441.995,0.991
1422.0,448.112,0.99
1431.0,454.248,0.99
1440.0,460.397,0.988
1449.0,466.539,0.987
1458.0,472.708,0.985
1467.0,478.858,0.983
1476.0,485.037,0.981
1485.0,491.214,0.978
1494.0,497.376,0.975
1503.0,503.55,0.972
1512.0,509.718,0.968
1521.0,515.884,0.964
1530.0,522.05,0.96
1539.0,528.21,0.954
1548.0,534.361,0.948
1557.0,540.511,0.94
1566.0,546.648,0.932
1575.0,552.789,0.922
1584.0,558.929,0.911
1593.0,565.041,0.9
1602.0,571.165,0.888
1611.0,577.276,0.876
1620.0,583.373,0.861
1629.0,589.462,0.846
1638.0,595.536,0.829
1647.0,601.608,0.81
1656.0,607.676,0.788
1665.0,613.736,0.764
1674.0,619.785,0.737
1683.0,625.812,0.707
1692.0,631.839,0.675
1701.0,637.851,0.641
1710.0,643.854,0.605
1719.0,649.85,0.566
1728.0,655.821,0.525
1737.0,661.782,0.48
1746.0,667.735,0.431
1755.0,673.701,0.378
1764.0,679.651,0.326
1773.0,685.618,0.28
1782.0,691.586,0.248
1791.0,697.533,0.232
1800.0,703.491,0.225
1809.0,709.428,0.22
1818.0,715.374,0.217
1827.0,721.307,0.213
1836.0,727.248,0.21
1845.0,733.17,0.206
1854.0,739.109,0.203
1863.0,745.024,0.2
1872.0,750.96,0.198
1881.0,756.883,0.195
1890.0,762.805,0.192
1899.0,768.732,0.19
1908.0,774.655,0.188
1917.0,780.587,0.187
1926.0,786.514,0.185
1935.0,792.446,0.183
1944.0,798.37,0.182
1953.0,804.298,0.181
1962.0,810.22,0.179
1971.0,816.165,0.178
1980.0,822.101,0.177
1989.0,828.019,0.176
1998.0,833.953,0.175
2007.0,839.9,0.174
2016.0,845.84,0.173
2025.0,851.769,0.172
2034.0,857.707,0.171
2043.0,863.646,0.17
2052.0,869.589,0.169
2061.0,875.538,0.168
2070.0,881.486,0.167
2079.0,887.434,0.166
2088.0,893.383,0.165
2097.0,899.351,0.165
2106.0,905.303,0.164
2115.0,911.254,0.163
2124.0,917.215,0.163
2133.0,923.174,0.162
2142.0,929.154,0.161
2151.0,935.112,0.16
2160.0,941.069,0.16
2169.0,947.043,0.159
2178.0,953.008,0.159
2187.0,958.977,0.158
2196.0,964.952,0.158
2205.0,970.925,0.158
2214.0,976.901,0.157
2223.0,982.88,0.157
2232.0,988.853,0.156
2241.0,994.84,0.156
2250.0,1000.826,0.155
2259.0,1006.808,0.155
2268.0,1012.796,0.155
2277.0,1018.795,0.154
2286.0,1024.781,0.154
2295.0,1030.788,0.154
2304.0,1036.786,0.153
2313.0,1042.795,0.153
2322.0,1048.789,0.153
2331.0,1054.795,0.152
2340.0,1059.641,0.152
2349.0,1063.049,0.151
2358.0,1065.423,0.151
2367.0,1067.09,0.151
2376.0,1068.27,0.151
2385.0,1069.124,0.15
2394.0,1069.743,0.15
2403.0,1070.198,0.15
2412.0,1070.553,0.15
2421.0,1070.809,0.15
2430.0,1071.011,0.15
2439.0,1071.183,0.15
2448.0,1071.327,0.149
2457.0,1071.431,0.149
2466.0,1071.526,0.149
2475.0,1071.599,0.149
2484.0,1071.676,0.149
2493.0,1071.736,0.149
2502.0,1071.78,0.149
2511.0,1071.836,0.149
2520.0,1071.876,0.148
2529.0,1071.911,0.148
2538.0,1071.947,0.148
2547.0,1071.971,0.148
2556.0,1072.007,0.148
2565.0,1072.023,0.148
2574.0,1072.04,0.148
2583.0,1072.065,0.148
2592.0,1072.094,0.148
2601.0,1072.104,0.148
2610.0,1072.113,0.148
2619.0,1072.129,0.147
2628.0,1072.146,0.147
2637.0,1072.145,0.147
2646.0,1072.159,0.147
2655.0,1072.163,0.147