File: Wood/Calibration_Data/TUBS/TUBS_TGA_N2_30K_R2.csv
Time (s),Temperature (K),Mass (mg)
0.0,304.98,1.0
45.0,304.796,0.994
137.0,304.607,0.988
458.0,304.392,0.982
701.0,304.401,0.982
1117.0,304.422,0.98
1212.066,307.5,0.98
1218.966,310.5,0.983
1225.449,313.5,0.982
1231.816,316.5,0.981
1238.077,319.5,0.98
1244.348,322.5,0.98
1250.536,325.5,0.979
1256.727,328.5,0.979
1262.868,331.5,0.978
1269.016,334.5,0.977
1275.138,337.5,0.977
1281.233,340.5,0.976
1287.345,343.5,0.975
1293.454,346.5,0.975
1299.516,349.5,0.974
1305.607,352.5,0.973
1311.661,355.5,0.973
1317.713,358.5,0.972
1323.747,361.5,0.972
1329.766,364.5,0.971
1335.804,367.5,0.971
1341.797,370.5,0.971
1347.813,373.5,0.97
1353.807,376.5,0.97
1359.796,379.5,0.97
1365.805,382.5,0.97
1371.759,385.5,0.97
1377.706,388.5,0.97
1383.647,391.5,0.97
1389.607,394.5,0.97
1395.543,397.5,0.97
1401.481,400.5,0.97
1407.419,403.5,0.97
1413.35,406.5,0.97
1419.257,409.5,0.97
1425.151,412.5,0.97
1431.046,415.5,0.97
1436.948,418.5,0.97
1442.838,421.5,0.969
1448.73,424.5,0.969
1454.627,427.5,0.969
1460.504,430.5,0.969
1466.375,433.5,0.969
1472.22,436.5,0.969
1478.101,439.5,0.968
1483.976,442.5,0.968
1489.82,445.5,0.968
1495.675,448.5,0.967
1501.512,451.5,0.967
1507.354,454.5,0.967
1513.179,457.5,0.966
1519.014,460.5,0.965
1524.877,463.5,0.965
1530.709,466.5,0.964
1536.545,469.5,0.963
1542.379,472.5,0.962
1548.212,475.5,0.961
1554.018,478.5,0.96
1559.876,481.5,0.959
1565.688,484.5,0.958
1571.525,487.5,0.957
1577.354,490.5,0.957
1583.171,493.5,0.956
1589.018,496.5,0.955
1594.843,499.5,0.954
1600.686,502.5,0.953
1606.528,505.5,0.951
1612.356,508.5,0.95
1618.218,511.5,0.949
1624.061,514.5,0.948
1629.888,517.5,0.946
1635.745,520.5,0.944
1641.596,523.5,0.942
1647.462,526.5,0.94
1653.324,529.5,0.938
1659.178,532.5,0.936
1665.05,535.5,0.933
1670.917,538.5,0.93
1676.766,541.5,0.927
1682.667,544.5,0.923
1688.536,547.5,0.92
1694.403,550.5,0.916
1700.291,553.5,0.912
1706.165,556.5,0.908
1712.066,559.5,0.903
1717.963,562.5,0.898
1723.831,565.5,0.893
1729.748,568.5,0.888
1735.649,571.5,0.882
1741.561,574.5,0.876
1747.464,577.5,0.871
1753.375,580.5,0.864
1759.305,583.5,0.857
1765.218,586.5,0.849
1771.148,589.5,0.841
1777.073,592.5,0.832
1783.017,595.5,0.823
1788.933,598.5,0.813
1794.901,601.5,0.803
1800.846,604.5,0.791
1806.773,607.5,0.78
1812.734,610.5,0.768
1818.679,613.5,0.754
1824.649,616.5,0.74
1830.617,619.5,0.726
1836.554,622.5,0.711
1842.547,625.5,0.695
1848.538,628.5,0.679
1854.524,631.5,0.663
1860.526,634.5,0.646
1866.503,637.5,0.628
1872.501,640.5,0.61
1878.493,643.5,0.593
1884.512,646.5,0.573
1890.516,649.5,0.553
1896.544,652.5,0.532
1902.559,655.5,0.511
1908.595,658.5,0.488
1914.643,661.5,0.464
1920.652,664.5,0.439
1926.689,667.5,0.414
1932.724,670.5,0.389
1938.763,673.5,0.364
1944.794,676.5,0.341
1950.818,679.5,0.321
1956.831,682.5,0.305
1962.867,685.5,0.292
1968.876,688.5,0.284
1974.921,691.5,0.279
1980.957,694.5,0.276
1986.994,697.5,0.273
1993.034,700.5,0.271
1999.072,703.5,0.269
2005.11,706.5,0.268
2011.158,709.5,0.266
2017.209,712.5,0.265
2023.268,715.5,0.263
2029.337,718.5,0.261
2035.388,721.5,0.259
2041.441,724.5,0.258
2047.493,727.5,0.257
2053.566,730.5,0.255
2059.621,733.5,0.254
2065.697,736.5,0.252
2071.75,739.5,0.251
2077.821,742.5,0.249
2083.888,745.5,0.248
2089.958,748.5,0.247
2096.008,751.5,0.246
2102.092,754.5,0.245
2108.142,757.5,0.244
2114.198,760.5,0.243
2120.278,763.5,0.242
2126.33,766.5,0.241
2132.392,769.5,0.24
2138.44,772.5,0.239
2144.521,775.5,0.238
2150.572,778.5,0.237
2156.64,781.5,0.237
2162.692,784.5,0.236
2168.756,787.5,0.235
2174.81,790.5,0.235
2180.86,793.5,0.234
2186.914,796.5,0.233
2192.958,799.5,0.233
2199.006,802.5,0.232
2205.066,805.5,0.232
2211.113,808.5,0.231
2217.166,811.5,0.23
2223.189,814.5,0.23
2229.248,817.5,0.229
2235.298,820.5,0.229
2241.343,823.5,0.228
2247.401,826.5,0.228
2253.455,829.5,0.227
2259.476,832.5,0.227
2265.525,835.5,0.226
2271.575,838.5,0.226
2277.623,841.5,0.225
2283.674,844.5,0.225
2289.731,847.5,0.224
2295.795,850.5,0.224
2301.834,853.5,0.223
2307.875,856.5,0.223
2313.922,859.5,0.223
2319.976,862.5,0.222
2326.006,865.5,0.222
2332.045,868.5,0.221
2338.084,871.5,0.221
2344.13,874.5,0.22
2350.163,877.5,0.22
2356.193,880.5,0.22
2362.236,883.5,0.219
2368.27,886.5,0.219
2374.31,889.5,0.219
2380.361,892.5,0.218
2386.389,895.5,0.218
2392.412,898.5,0.217
2398.462,901.5,0.217
2404.478,904.5,0.217
2410.521,907.5,0.216
2416.533,910.5,0.216
2422.566,913.5,0.216
2428.581,916.5,0.215
2434.614,919.5,0.215
2440.631,922.5,0.215
2446.671,925.5,0.214
2452.687,928.5,0.214
2458.72,931.5,0.214
2464.758,934.5,0.214
2470.764,937.5,0.213
2476.79,940.5,0.213
2482.822,943.5,0.213
2488.857,946.5,0.213
2494.878,949.5,0.212
2500.9,952.5,0.212
2506.913,955.5,0.212
2512.939,958.5,0.212
2518.962,961.5,0.211
2524.978,964.5,0.211
2531.014,967.5,0.211
2537.028,970.5,0.211
2543.052,973.5,0.211
2549.089,976.5,0.211
2555.117,979.5,0.21
2561.124,982.5,0.21
2567.152,985.5,0.21
2573.171,988.5,0.21
2579.173,991.5,0.21
2585.195,994.5,0.209
2591.2,997.5,0.209
2597.192,1000.5,0.209
2603.202,1003.5,0.209
2609.22,1006.5,0.209
2615.22,1009.5,0.208
2621.23,1012.5,0.208
2627.239,1015.5,0.208
2633.23,1018.5,0.208
2639.255,1021.5,0.208
2645.252,1024.5,0.208
2651.272,1027.5,0.207
2657.27,1030.5,0.207
2663.274,1033.5,0.207
2669.269,1036.5,0.207
2675.303,1039.5,0.207
2681.296,1042.5,0.207
2687.31,1045.5,0.207
2693.311,1048.5,0.206
2699.328,1051.5,0.206
2705.34,1054.5,0.206
2711.338,1057.5,0.206
2717.356,1060.5,0.206
2725.439,1063.5,0.205
2740.0,1067.067,0.205
2800.0,1071.42,0.204
2860.0,1072.127,0.203
2920.0,1072.386,0.203
2980.0,1072.511,0.202
3040.0,1072.576,0.202