File: Wood/Calibration_Data/TUBS/TUBS_Wood_TGA_N2_20K_R1.csv
Time (s),Temperature (K),Mass (mg)
0.0,304.913,1.03
40.0,304.73,1.024
109.0,304.585,1.018
255.0,304.43,1.012
468.0,304.358,1.01
562.0,304.342,1.008
1208.615,305.5,1.004
1219.913,308.5,1.009
1230.03,311.5,1.007
1239.822,314.5,1.006
1249.436,317.5,1.006
1258.974,320.5,1.005
1268.376,323.5,1.005
1277.746,326.5,1.004
1287.006,329.5,1.004
1296.149,332.5,1.003
1305.351,335.5,1.002
1314.464,338.5,1.001
1323.549,341.5,1.0
1332.594,344.5,0.999
1341.669,347.5,0.999
1350.666,350.5,0.998
1359.683,353.5,0.997
1368.687,356.5,0.997
1377.65,359.5,0.996
1386.596,362.5,0.996
1395.591,365.5,0.995
1404.508,368.5,0.995
1413.427,371.5,0.995
1422.332,374.5,0.995
1431.261,377.5,0.995
1440.182,380.5,0.994
1449.069,383.5,0.994
1457.929,386.5,0.994
1466.808,389.5,0.994
1475.672,392.5,0.994
1484.529,395.5,0.994
1493.375,398.5,0.994
1502.188,401.5,0.994
1511.038,404.5,0.994
1519.874,407.5,0.994
1528.703,410.5,0.994
1537.545,413.5,0.994
1546.327,416.5,0.993
1555.143,419.5,0.993
1563.997,422.5,0.993
1572.764,425.5,0.993
1581.565,428.5,0.993
1590.385,431.5,0.993
1599.178,434.5,0.993
1608.006,437.5,0.992
1616.777,440.5,0.992
1625.562,443.5,0.992
1634.355,446.5,0.991
1643.173,449.5,0.99
1651.953,452.5,0.99
1660.733,455.5,0.989
1669.499,458.5,0.989
1678.288,461.5,0.988
1687.08,464.5,0.987
1695.837,467.5,0.986
1704.626,470.5,0.985
1713.426,473.5,0.984
1722.203,476.5,0.983
1730.957,479.5,0.982
1739.784,482.5,0.982
1748.551,485.5,0.981
1757.358,488.5,0.98
1766.13,491.5,0.979
1774.939,494.5,0.978
1783.74,497.5,0.977
1792.528,500.5,0.975
1801.353,503.5,0.974
1810.201,506.5,0.973
1819.018,509.5,0.971
1827.829,512.5,0.97
1836.689,515.5,0.968
1845.493,518.5,0.966
1854.32,521.5,0.964
1863.199,524.5,0.961
1872.035,527.5,0.959
1880.864,530.5,0.956
1889.731,533.5,0.953
1898.549,536.5,0.949
1907.412,539.5,0.946
1916.302,542.5,0.942
1925.159,545.5,0.937
1934.021,548.5,0.933
1942.898,551.5,0.928
1951.755,554.5,0.923
1960.692,557.5,0.918
1969.554,560.5,0.913
1978.449,563.5,0.907
1987.366,566.5,0.901
1996.258,569.5,0.894
2005.172,572.5,0.887
2014.077,575.5,0.88
2023.009,578.5,0.872
2031.918,581.5,0.863
2040.81,584.5,0.854
2049.73,587.5,0.844
2058.668,590.5,0.834
2067.616,593.5,0.822
2076.537,596.5,0.81
2085.491,599.5,0.798
2094.448,602.5,0.785
2103.389,605.5,0.771
2112.367,608.5,0.756
2121.321,611.5,0.74
2130.26,614.5,0.723
2139.258,617.5,0.707
2148.211,620.5,0.69
2157.212,623.5,0.672
2166.221,626.5,0.654
2175.165,629.5,0.635
2184.167,632.5,0.615
2193.147,635.5,0.595
2202.178,638.5,0.574
2211.208,641.5,0.552
2220.203,644.5,0.53
2229.23,647.5,0.506
2238.248,650.5,0.481
2247.277,653.5,0.454
2256.318,656.5,0.428
2265.36,659.5,0.4
2274.402,662.5,0.372
2283.455,665.5,0.345
2292.466,668.5,0.321
2301.508,671.5,0.3
2310.547,674.5,0.283
2319.553,677.5,0.272
2328.572,680.5,0.265
2337.618,683.5,0.261
2346.656,686.5,0.258
2355.695,689.5,0.256
2364.739,692.5,0.254
2373.778,695.5,0.252
2382.832,698.5,0.25
2391.883,701.5,0.248
2400.948,704.5,0.246
2409.994,707.5,0.244
2419.059,710.5,0.243
2428.119,713.5,0.241
2437.19,716.5,0.239
2446.264,719.5,0.238
2455.337,722.5,0.236
2464.429,725.5,0.234
2473.483,728.5,0.233
2482.574,731.5,0.231
2491.657,734.5,0.23
2500.726,737.5,0.228
2509.798,740.5,0.227
2518.893,743.5,0.226
2527.994,746.5,0.225
2537.075,749.5,0.224
2546.175,752.5,0.222
2555.258,755.5,0.221
2564.327,758.5,0.22
2573.413,761.5,0.219
2582.526,764.5,0.218
2591.574,767.5,0.218
2600.679,770.5,0.217
2609.755,773.5,0.216
2618.847,776.5,0.215
2627.919,779.5,0.214
2636.994,782.5,0.214
2646.064,785.5,0.213
2655.14,788.5,0.212
2664.196,791.5,0.212
2673.256,794.5,0.211
2682.35,797.5,0.21
2691.403,800.5,0.21
2700.461,803.5,0.209
2709.517,806.5,0.208
2718.57,809.5,0.208
2727.638,812.5,0.207
2736.684,815.5,0.207
2745.754,818.5,0.206
2754.793,821.5,0.205
2763.845,824.5,0.205
2772.913,827.5,0.204
2781.976,830.5,0.204
2791.039,833.5,0.204
2800.122,836.5,0.203
2809.154,839.5,0.202
2818.201,842.5,0.202
2827.279,845.5,0.201
2836.319,848.5,0.201
2845.386,851.5,0.2
2854.438,854.5,0.2
2863.503,857.5,0.199
2872.545,860.5,0.199
2881.597,863.5,0.199
2890.641,866.5,0.198
2899.722,869.5,0.198
2908.73,872.5,0.197
2917.791,875.5,0.197
2926.834,878.5,0.196
2935.864,881.5,0.196
2944.917,884.5,0.196
2953.962,887.5,0.195
2963.021,890.5,0.195
2972.083,893.5,0.194
2981.122,896.5,0.194
2990.154,899.5,0.194
2999.204,902.5,0.193
3008.217,905.5,0.193
3017.261,908.5,0.193
3026.302,911.5,0.192
3035.361,914.5,0.192
3044.408,917.5,0.192
3053.434,920.5,0.191
3062.465,923.5,0.191
3071.514,926.5,0.191
3080.548,929.5,0.19
3089.585,932.5,0.19
3098.605,935.5,0.19
3107.658,938.5,0.189
3116.66,941.5,0.189
3125.713,944.5,0.189
3134.751,947.5,0.189
3143.792,950.5,0.188
3152.839,953.5,0.188
3161.906,956.5,0.188
3170.961,959.5,0.188
3180.006,962.5,0.187
3189.059,965.5,0.187
3198.106,968.5,0.187
3207.139,971.5,0.187
3216.166,974.5,0.186
3225.205,977.5,0.186
3234.224,980.5,0.186
3243.276,983.5,0.185
3252.306,986.5,0.186
3261.373,989.5,0.185
3270.382,992.5,0.185
3279.433,995.5,0.185
3288.466,998.5,0.185
3297.5,1001.5,0.184
3306.584,1004.5,0.184
3315.615,1007.5,0.184
3324.634,1010.5,0.184
3333.642,1013.5,0.183
3342.667,1016.5,0.183
3351.701,1019.5,0.183
3360.727,1022.5,0.182
3369.769,1025.5,0.182
3378.804,1028.5,0.182
3387.806,1031.5,0.182
3396.86,1034.5,0.181
3405.843,1037.5,0.181
3414.892,1040.5,0.181
3423.895,1043.5,0.181
3432.913,1046.5,0.181
3441.961,1049.5,0.18
3450.954,1052.5,0.18
3459.982,1055.5,0.18
3469.003,1058.5,0.18
3478.041,1061.5,0.179
3487.056,1064.5,0.179
3500.089,1067.5,0.179
3550.0,1071.514,0.178
3610.0,1072.31,0.177
3670.0,1072.541,0.176
3730.0,1072.649,0.176
3790.0,1072.713,0.175
3810.0,1072.728,0.175