File: Wood/Calibration_Data/TUBS/TUBS_Wood_TGA_N2_50K_R9.csv
Time (s),Temperature (K),Mass (mg)
0.0,304.972,2.01966
9.0,304.929,2.01765
18.0,304.888,2.01534
27.0,304.844,2.01315
36.0,304.835,2.01133
45.0,304.796,2.00956
54.0,304.768,2.00784
63.0,304.744,2.00615
72.0,304.731,2.00463
81.0,304.714,2.00314
90.0,304.713,2.00169
99.0,304.672,2.00042
108.0,304.665,1.99934
117.0,304.653,1.99822
126.0,304.635,1.99707
135.0,304.615,1.99602
144.0,304.613,1.99508
153.0,304.62,1.99414
162.0,304.585,1.99315
171.0,304.57,1.99236
180.0,304.58,1.99168
189.0,304.54,1.99082
198.0,304.553,1.99003
207.0,304.55,1.98932
216.0,304.546,1.98859
225.0,304.528,1.98793
234.0,304.521,1.98732
243.0,304.518,1.98665
252.0,304.504,1.98616
261.0,304.49,1.98563
270.0,304.485,1.98503
279.0,304.482,1.98448
288.0,304.478,1.98394
297.0,304.47,1.98338
306.0,304.48,1.98285
315.0,304.467,1.98246
324.0,304.47,1.98207
333.0,304.452,1.98169
342.0,304.456,1.98129
351.0,304.443,1.98088
360.0,304.455,1.9805
369.0,304.448,1.98008
378.0,304.444,1.97986
387.0,304.452,1.97953
396.0,304.43,1.97916
405.0,304.453,1.97889
414.0,304.453,1.97851
423.0,304.445,1.97818
432.0,304.446,1.97791
441.0,304.433,1.9776
450.0,304.434,1.97736
459.0,304.444,1.97699
468.0,304.448,1.97678
477.0,304.445,1.97657
486.0,304.43,1.97625
495.0,304.426,1.97608
504.0,304.433,1.97583
513.0,304.422,1.97563
522.0,304.434,1.97539
531.0,304.432,1.97518
540.0,304.428,1.97505
549.0,304.427,1.97491
558.0,304.436,1.97473
567.0,304.409,1.97448
577.0,304.411,1.97431
586.0,304.427,1.97401
600.0,304.427,1.97387
609.0,304.429,1.97371
618.0,304.436,1.97356
627.0,304.437,1.97338
636.0,304.429,1.97312
652.0,304.43,1.97304
662.0,304.443,1.9729
671.0,304.424,1.97264
681.0,304.446,1.97251
691.0,304.446,1.97241
702.0,304.431,1.97225
712.0,304.432,1.97214
722.0,304.436,1.97201
737.0,304.443,1.97188
746.0,304.451,1.9717
755.0,304.432,1.97153
772.0,304.421,1.97144
787.0,304.429,1.97133
796.0,304.445,1.97118
805.0,304.434,1.97104
820.0,304.442,1.97093
829.0,304.432,1.97073
842.0,304.443,1.97059
852.0,304.437,1.97044
879.0,304.448,1.97035
889.0,304.431,1.97022
899.0,304.448,1.97002
913.0,304.444,1.97006
922.0,304.421,1.96991
931.0,304.429,1.96979
942.0,304.432,1.96976
954.0,304.438,1.96972
964.0,304.428,1.96955
974.0,304.431,1.96938
989.0,304.445,1.96932
1001.0,304.437,1.96937
1010.0,304.45,1.96925
1019.0,304.448,1.96915
1036.0,304.456,1.96915
1056.0,304.439,1.9691
1070.0,304.44,1.969
1087.0,304.424,1.96884
1119.0,304.429,1.96877
1130.0,304.428,1.96867
1139.0,304.43,1.96856
1153.0,304.435,1.96858
1172.0,304.438,1.96859
1182.0,304.424,1.96849
1191.0,304.451,1.96833
1205.319,305.5,1.96619
1212.445,310.0,1.96746
1218.102,314.5,1.97023
1223.476,319.0,1.97012
1228.826,323.5,1.96892
1234.172,328.0,1.96728
1239.522,332.5,1.96583
1244.91,337.0,1.96445
1250.276,341.5,1.9629
1255.681,346.0,1.96111
1261.081,350.5,1.95908
1266.477,355.0,1.95682
1271.896,359.5,1.95454
1277.276,364.0,1.95239
1282.69,368.5,1.95043
1288.068,373.0,1.94863
1293.464,377.5,1.94724
1298.851,382.0,1.94622
1304.226,386.5,1.94546
1309.61,391.0,1.94497
1314.998,395.5,1.94463
1320.356,400.0,1.94441
1325.722,404.5,1.94429
1331.076,409.0,1.94415
1336.405,413.5,1.94399
1341.742,418.0,1.94382
1347.098,422.5,1.94362
1352.409,427.0,1.94338
1357.723,431.5,1.94311
1363.025,436.0,1.94276
1368.339,440.5,1.94231
1373.646,445.0,1.94169
1378.923,449.5,1.94101
1384.21,454.0,1.94017
1389.479,458.5,1.93914
1394.74,463.0,1.93792
1399.999,467.5,1.93637
1405.264,472.0,1.93443
1410.511,476.5,1.932
1415.75,481.0,1.92913
1420.98,485.5,1.92586
1426.237,490.0,1.92215
1431.471,494.5,1.918
1436.713,499.0,1.91359
1441.939,503.5,1.90911
1447.159,508.0,1.90445
1452.399,512.5,1.89946
1457.635,517.0,1.89423
1462.866,521.5,1.88861
1468.096,526.0,1.88227
1473.326,530.5,1.87528
1478.566,535.0,1.86751
1483.808,539.5,1.85865
1489.042,544.0,1.84871
1494.301,548.5,1.83755
1499.549,553.0,1.82524
1504.795,557.5,1.81188
1510.051,562.0,1.79759
1515.301,566.5,1.78224
1520.566,571.0,1.76574
1525.829,575.5,1.74813
1531.103,580.0,1.72932
1536.382,584.5,1.70924
1541.664,589.0,1.688
1546.945,593.5,1.66528
1552.236,598.0,1.64055
1557.545,602.5,1.61392
1562.856,607.0,1.58507
1568.163,611.5,1.55352
1573.486,616.0,1.51934
1578.811,620.5,1.4824
1584.157,625.0,1.44229
1589.494,629.5,1.39978
1594.84,634.0,1.35478
1600.204,638.5,1.3071
1605.576,643.0,1.25733
1610.946,647.5,1.20538
1616.333,652.0,1.15063
1621.728,656.5,1.09305
1627.144,661.0,1.03173
1632.574,665.5,0.96559
1637.983,670.0,0.89517
1643.424,674.5,0.81985
1648.837,679.0,0.74233
1654.248,683.5,0.66639
1659.643,688.0,0.59854
1665.043,692.5,0.54488
1670.439,697.0,0.50812
1675.848,701.5,0.48695
1681.276,706.0,0.47467
1686.696,710.5,0.46649
1692.118,715.0,0.46009
1697.562,719.5,0.45423
1702.996,724.0,0.44865
1708.45,728.5,0.44329
1713.905,733.0,0.43815
1719.347,737.5,0.43322
1724.794,742.0,0.42854
1730.257,746.5,0.42401
1735.719,751.0,0.41966
1741.176,755.5,0.41562
1746.64,760.0,0.41181
1752.105,764.5,0.40831
1757.573,769.0,0.40495
1763.04,773.5,0.40184
1768.508,778.0,0.39903
1773.97,782.5,0.39634
1779.444,787.0,0.39383
1784.913,791.5,0.39151
1790.382,796.0,0.38925
1795.841,800.5,0.38714
1801.301,805.0,0.38511
1806.773,809.5,0.38312
1812.232,814.0,0.38113
1817.685,818.5,0.37927
1823.146,823.0,0.37746
1828.617,827.5,0.37574
1834.091,832.0,0.37411
1839.546,836.5,0.37259
1845.008,841.0,0.37103
1850.465,845.5,0.36952
1855.936,850.0,0.36803
1861.401,854.5,0.36653
1866.857,859.0,0.36509
1872.315,863.5,0.36367
1877.771,868.0,0.36226
1883.227,872.5,0.36083
1888.68,877.0,0.35945
1894.129,881.5,0.3582
1899.572,886.0,0.35694
1905.032,890.5,0.35568
1910.471,895.0,0.35439
1915.926,899.5,0.35319
1921.358,904.0,0.35204
1926.799,908.5,0.35091
1932.241,913.0,0.34981
1937.67,917.5,0.34872
1943.095,922.0,0.34764
1948.538,926.5,0.34655
1953.967,931.0,0.34558
1959.396,935.5,0.34471
1964.813,940.0,0.34385
1970.243,944.5,0.34295
1975.663,949.0,0.34203
1981.089,953.5,0.34109
1986.522,958.0,0.34029
1991.942,962.5,0.33957
1997.377,967.0,0.33888
2002.807,971.5,0.33815
2008.232,976.0,0.33752
2013.658,980.5,0.33691
2019.079,985.0,0.33628
2024.503,989.5,0.33568
2029.935,994.0,0.33509
2035.353,998.5,0.3345
2040.766,1003.0,0.33394
2046.193,1007.5,0.33338
2051.609,1012.0,0.33282
2057.016,1016.5,0.33231
2062.437,1021.0,0.33179
2067.849,1025.5,0.33127
2073.267,1030.0,0.33079
2078.672,1034.5,0.33029
2084.068,1039.0,0.32975
2089.485,1043.5,0.32916
2094.9,1048.0,0.32859
2100.286,1052.5,0.32813
2106.687,1057.0,0.32762
2116.015,1061.5,0.32677
2174.0,1070.245,0.32394
2264.0,1071.919,0.32097
2354.0,1072.291,0.3189
2424.0,1072.404,0.3175