File: Wood/Calibration_Data/TUBS/TUBS_TGA_N2_5K_R2.csv
Time (s),Temperature (K),Mass (mg)
0.0,305.128,0.99
9.0,305.074,0.989
18.0,305.027,0.988
27.0,304.975,0.987
36.0,304.941,0.986
45.0,304.914,0.985
54.0,304.893,0.985
63.0,304.87,0.984
72.0,304.822,0.984
81.0,304.815,0.983
90.0,304.801,0.983
99.0,304.784,0.982
108.0,304.772,0.982
117.0,304.756,0.981
126.0,304.747,0.981
135.0,304.703,0.98
144.0,304.698,0.98
153.0,304.688,0.98
162.0,304.676,0.98
171.0,304.657,0.98
180.0,304.662,0.979
189.0,304.646,0.979
198.0,304.623,0.979
207.0,304.613,0.979
216.0,304.603,0.978
225.0,304.594,0.978
234.0,304.602,0.978
243.0,304.579,0.978
252.0,304.591,0.978
261.0,304.564,0.977
270.0,304.568,0.977
279.0,304.565,0.977
288.0,304.551,0.977
297.0,304.546,0.977
306.0,304.542,0.977
315.0,304.546,0.977
324.0,304.534,0.977
333.0,304.533,0.977
342.0,304.537,0.976
351.0,304.51,0.976
360.0,304.54,0.976
369.0,304.525,0.976
378.0,304.522,0.976
387.0,304.522,0.976
396.0,304.519,0.975
405.0,304.522,0.975
414.0,304.509,0.975
423.0,304.522,0.975
432.0,304.511,0.975
441.0,304.512,0.975
450.0,304.497,0.975
459.0,304.515,0.975
468.0,304.508,0.975
477.0,304.51,0.975
486.0,304.505,0.975
495.0,304.487,0.975
504.0,304.499,0.975
513.0,304.499,0.975
522.0,304.503,0.975
531.0,304.488,0.975
540.0,304.5,0.975
549.0,304.486,0.974
558.0,304.484,0.974
567.0,304.499,0.974
576.0,304.489,0.974
585.0,304.513,0.974
594.0,304.508,0.974
603.0,304.494,0.974
612.0,304.499,0.974
621.0,304.489,0.974
630.0,304.49,0.974
639.0,304.484,0.974
648.0,304.49,0.974
657.0,304.482,0.974
666.0,304.483,0.973
675.0,304.48,0.974
684.0,304.5,0.974
693.0,304.481,0.974
702.0,304.487,0.973
711.0,304.472,0.973
720.0,304.483,0.973
729.0,304.478,0.973
738.0,304.475,0.973
747.0,304.456,0.973
756.0,304.471,0.973
765.0,304.462,0.973
774.0,304.47,0.973
783.0,304.469,0.973
792.0,304.466,0.973
801.0,304.467,0.973
810.0,304.487,0.973
819.0,304.475,0.973
828.0,304.467,0.973
837.0,304.472,0.973
846.0,304.464,0.973
855.0,304.464,0.973
864.0,304.483,0.973
873.0,304.462,0.973
882.0,304.472,0.973
891.0,304.477,0.973
900.0,304.466,0.973
909.0,304.473,0.973
918.0,304.475,0.973
927.0,304.472,0.973
936.0,304.485,0.973
945.0,304.48,0.973
954.0,304.465,0.973
963.0,304.471,0.973
972.0,304.478,0.973
981.0,304.473,0.973
990.0,304.473,0.973
999.0,304.474,0.973
1008.0,304.468,0.973
1017.0,304.489,0.973
1026.0,304.487,0.973
1035.0,304.491,0.973
1044.0,304.473,0.973
1053.0,304.477,0.973
1062.0,304.474,0.973
1071.0,304.499,0.973
1080.0,304.496,0.972
1089.0,304.458,0.972
1098.0,304.483,0.973
1107.0,304.475,0.973
1116.0,304.491,0.973
1125.0,304.489,0.973
1134.0,304.475,0.973
1143.0,304.477,0.973
1152.0,304.483,0.973
1161.0,304.47,0.973
1170.0,304.477,0.973
1179.0,304.48,0.973
1188.0,304.487,0.973
1197.0,304.49,0.973
1206.0,305.941,0.97
1215.0,310.629,0.974
1224.0,316.445,0.975
1233.0,322.388,0.973
1242.0,328.343,0.972
1251.0,334.298,0.971
1260.0,340.228,0.97
1269.0,346.175,0.969
1278.0,352.118,0.967
1287.0,358.068,0.966
1296.0,364.026,0.965
1305.0,370.015,0.964
1314.0,375.983,0.963
1323.0,381.963,0.963
1332.0,387.968,0.962
1341.0,393.968,0.962
1350.0,400.0,0.962
1359.0,406.044,0.962
1368.0,412.1,0.962
1377.0,418.146,0.962
1386.0,424.224,0.961
1395.0,430.302,0.961
1404.0,436.402,0.961
1413.0,442.522,0.96
1422.0,448.64,0.96
1431.0,454.78,0.959
1440.0,460.907,0.958
1449.0,467.068,0.957
1458.0,473.212,0.955
1467.0,479.366,0.953
1476.0,485.533,0.951
1485.0,491.704,0.949
1494.0,497.858,0.946
1503.0,504.025,0.943
1512.0,510.201,0.94
1521.0,516.346,0.936
1530.0,522.504,0.931
1539.0,528.648,0.926
1548.0,534.801,0.92
1557.0,540.944,0.913
1566.0,547.089,0.905
1575.0,553.213,0.895
1584.0,559.341,0.886
1593.0,565.464,0.875
1602.0,571.575,0.863
1611.0,577.686,0.851
1620.0,583.778,0.838
1629.0,589.867,0.823
1638.0,595.94,0.806
1647.0,602.01,0.787
1656.0,608.065,0.766
1665.0,614.109,0.743
1674.0,620.147,0.717
1683.0,626.176,0.688
1692.0,632.196,0.657
1701.0,638.207,0.625
1710.0,644.203,0.59
1719.0,650.198,0.553
1728.0,656.168,0.514
1737.0,662.13,0.471
1746.0,668.077,0.423
1755.0,674.029,0.373
1764.0,679.966,0.322
1773.0,685.93,0.278
1782.0,691.889,0.247
1791.0,697.849,0.232
1800.0,703.788,0.225
1809.0,709.731,0.221
1818.0,715.674,0.217
1827.0,721.61,0.213
1836.0,727.531,0.21
1845.0,733.461,0.207
1854.0,739.392,0.203
1863.0,745.304,0.2
1872.0,751.245,0.198
1881.0,757.149,0.195
1890.0,763.083,0.193
1899.0,768.996,0.191
1908.0,774.927,0.188
1917.0,780.851,0.187
1926.0,786.787,0.185
1935.0,792.711,0.184
1944.0,798.64,0.182
1953.0,804.583,0.181
1962.0,810.505,0.18
1971.0,816.436,0.178
1980.0,822.375,0.177
1989.0,828.308,0.176
1998.0,834.256,0.175
2007.0,840.194,0.174
2016.0,846.129,0.173
2025.0,852.076,0.172
2034.0,858.01,0.171
2043.0,863.962,0.17
2052.0,869.911,0.169
2061.0,875.855,0.168
2070.0,881.814,0.167
2079.0,887.764,0.166
2088.0,893.721,0.166
2097.0,899.676,0.165
2106.0,905.631,0.165
2115.0,911.6,0.163
2124.0,917.554,0.163
2133.0,923.525,0.162
2142.0,929.488,0.161
2151.0,935.455,0.161
2160.0,941.421,0.16
2169.0,947.39,0.16
2178.0,953.346,0.159
2187.0,959.321,0.159
2196.0,965.272,0.158
2205.0,971.241,0.158
2214.0,977.215,0.157
2223.0,983.175,0.157
2232.0,989.137,0.156
2241.0,995.111,0.156
2250.0,1001.077,0.156
2259.0,1007.048,0.155
2268.0,1013.02,0.155
2277.0,1018.994,0.154
2286.0,1024.979,0.154
2295.0,1030.959,0.154
2304.0,1036.955,0.153
2313.0,1042.926,0.153
2322.0,1048.92,0.152
2331.0,1054.921,0.152
2340.0,1059.59,0.152
2349.0,1062.954,0.151
2358.0,1065.295,0.151
2367.0,1066.962,0.151
2376.0,1068.135,0.15
2385.0,1068.983,0.15
2394.0,1069.616,0.15
2403.0,1070.073,0.15
2412.0,1070.429,0.15
2421.0,1070.687,0.15
2430.0,1070.902,0.15
2439.0,1071.075,0.149
2448.0,1071.212,0.149
2457.0,1071.323,0.149
2466.0,1071.415,0.149
2475.0,1071.499,0.149
2484.0,1071.577,0.149
2493.0,1071.638,0.149
2502.0,1071.692,0.149
2511.0,1071.738,0.148
2520.0,1071.78,0.148
2529.0,1071.811,0.148
2538.0,1071.845,0.148
2547.0,1071.879,0.148
2556.0,1071.912,0.148
2565.0,1071.933,0.147
2574.0,1071.967,0.147
2583.0,1071.974,0.147
2592.0,1071.999,0.147
2601.0,1072.023,0.147
2610.0,1072.04,0.147
2619.0,1072.043,0.147
2628.0,1072.071,0.147
2637.0,1072.078,0.147
2646.0,1072.087,0.147
2655.0,1072.096,0.147