File: Wood/Calibration_Data/TUBS/TUBS_Wood_Cone_30kW_hor_R1.csv
Time (s),Mass (g),HRR (kW/m2)
0.0,88.16,0.0
10.0,88.02,0.1
20.0,87.92,0.3
30.0,87.53,22.9
40.0,86.45,145.1
50.0,85.63,134.8
60.0,84.99,108.0
70.0,84.41,90.1
80.0,83.86,80.5
90.0,83.38,76.6
100.0,82.87,70.5
110.0,82.39,71.3
120.0,81.95,69.3
130.0,81.5,67.5
140.0,81.07,65.6
150.0,80.66,65.0
160.0,80.25,64.3
170.0,79.78,61.2
180.0,79.42,55.9
190.0,79.0,58.2
200.0,78.62,54.1
210.0,78.22,56.5
220.0,77.84,58.1
230.0,77.45,56.6
240.0,77.09,54.8
250.0,76.7,53.3
260.0,76.31,53.6
270.0,75.96,48.2
280.0,75.58,53.9
290.0,75.19,49.7
300.0,74.82,49.7
310.0,74.42,49.2
320.0,74.04,49.0
330.0,73.65,51.6
340.0,73.24,55.1
350.0,72.78,52.6
360.0,72.39,51.3
370.0,71.96,49.5
380.0,71.51,48.2
390.0,71.13,50.1
400.0,70.7,48.7
410.0,70.24,51.4
420.0,69.84,50.6
430.0,69.39,53.3
440.0,68.95,49.5
450.0,68.54,52.6
460.0,68.06,49.3
470.0,67.63,48.8
480.0,67.19,48.1
490.0,66.75,48.2
500.0,66.33,48.9
510.0,65.87,47.5
520.0,65.44,49.2
530.0,65.0,48.2
540.0,64.57,50.0
550.0,64.13,47.4
560.0,63.71,42.3
570.0,63.24,48.8
580.0,62.87,45.3
590.0,62.41,45.8
600.0,61.99,44.8
610.0,61.59,44.7
620.0,61.16,47.3
630.0,60.73,47.3
640.0,60.31,43.1
650.0,59.89,47.0
660.0,59.48,43.3
670.0,59.05,48.1
680.0,58.65,45.7
690.0,58.21,45.3
700.0,57.81,41.1
710.0,57.4,43.6
720.0,56.96,41.6
730.0,56.6,40.7
740.0,56.15,41.3
750.0,55.76,43.0
760.0,55.36,46.6
770.0,54.96,43.6
780.0,54.55,44.8
790.0,54.15,41.9
800.0,53.75,41.2
810.0,53.34,42.2
820.0,52.97,42.1
830.0,52.55,41.0
840.0,52.15,41.1
850.0,51.76,39.8
860.0,51.36,40.4
870.0,50.96,41.2
880.0,50.54,43.6
890.0,50.18,42.3
900.0,49.76,40.1
910.0,49.4,41.6
920.0,48.97,43.0
930.0,48.59,42.1
940.0,48.19,40.2
950.0,47.82,41.4
960.0,47.4,43.6
970.0,47.04,41.0
980.0,46.67,40.9
990.0,46.26,39.7
1000.0,45.84,39.6
1010.0,45.48,40.6
1020.0,45.08,38.3
1030.0,44.67,35.9
1040.0,44.28,38.5
1050.0,43.89,40.7
1060.0,43.48,37.6
1070.0,43.11,36.1
1080.0,42.69,37.7
1090.0,42.29,41.0
1100.0,41.91,38.0
1110.0,41.54,39.7
1120.0,41.1,36.9
1130.0,40.69,38.4
1140.0,40.31,40.3
1150.0,39.87,37.9
1160.0,39.5,41.0
1170.0,39.07,38.1
1180.0,38.65,36.3
1190.0,38.26,39.8
1200.0,37.83,41.0
1210.0,37.4,39.6
1220.0,36.98,44.8
1230.0,36.53,44.0
1240.0,36.11,40.3
1250.0,35.68,46.3
1260.0,35.2,43.0
1270.0,34.77,45.2
1280.0,34.33,42.6
1290.0,33.83,47.6
1300.0,33.35,45.2
1310.0,32.97,44.3
1320.0,32.43,49.8
1330.0,31.93,52.1
1340.0,31.43,50.7
1350.0,30.91,49.0
1360.0,30.4,53.0
1370.0,29.92,52.1
1380.0,29.4,54.9
1390.0,28.88,52.2
1400.0,28.37,55.7
1410.0,27.83,55.5
1420.0,27.29,56.5
1430.0,26.78,57.5
1440.0,26.24,59.0
1450.0,25.71,63.4
1460.0,25.19,57.6
1470.0,24.66,59.8
1480.0,24.14,60.8
1490.0,23.61,56.5
1500.0,23.16,59.3
1510.0,22.69,57.3
1520.0,22.2,52.4
1530.0,21.76,49.7
1540.0,21.32,48.4
1550.0,20.87,47.2
1560.0,20.47,50.0
1570.0,20.08,42.6
1580.0,19.69,44.9
1590.0,19.37,42.0
1600.0,19.02,39.6
1610.0,18.68,35.2
1620.0,18.39,32.5
1630.0,18.11,29.8
1640.0,17.82,29.8
1650.0,17.55,31.6
1660.0,17.3,30.4
1670.0,17.04,25.5
1680.0,16.82,25.8
1690.0,16.6,23.1
1700.0,16.38,22.3
1710.0,16.18,22.1
1720.0,15.98,20.1
1730.0,15.78,18.1
1740.0,15.63,15.7
1750.0,15.45,14.4
1760.0,15.27,14.4
1770.0,15.13,16.6
1780.0,14.97,12.7
1790.0,14.82,11.8
1800.0,14.67,11.0
1810.0,14.55,9.3
1820.0,14.41,11.8
1830.0,14.27,10.4
1840.0,14.15,11.8
1850.0,14.03,11.9
1860.0,13.92,11.9
1870.0,13.78,4.2
1880.0,13.68,2.3
1890.0,13.57,0.2
1900.0,13.46,1.6
1910.0,13.34,3.2
1920.0,13.24,1.9
1930.0,13.15,1.6
1940.0,13.04,2.2
1950.0,12.94,0.0
1960.0,12.86,0.5
1970.0,12.75,1.0
1980.0,12.68,0.0
1990.0,12.56,0.0
2000.0,12.46,0.0
2010.0,12.39,0.6
2020.0,12.29,0.0
2030.0,12.21,0.0
2040.0,12.13,1.7
2050.0,12.05,0.0
2060.0,11.96,0.0
2070.0,11.86,0.0
2080.0,11.79,0.0
2090.0,11.7,0.0
2100.0,11.64,0.0
2110.0,11.53,0.0
2120.0,11.46,0.0
2130.0,11.37,0.0
2140.0,11.29,0.0
2150.0,11.21,0.0
2160.0,11.15,0.0
2170.0,11.06,0.0
2180.0,10.99,0.0
2190.0,10.9,0.0
2200.0,10.83,0.0
2210.0,10.76,0.0
2220.0,10.67,0.0
2230.0,10.61,0.0
2240.0,10.53,0.0
2250.0,10.45,0.0
2260.0,10.39,0.0
2270.0,10.31,0.0
2280.0,10.24,0.0
2290.0,10.17,0.0
2300.0,10.09,0.0
2310.0,10.02,0.0
2320.0,9.95,0.0
2330.0,9.88,0.0
2340.0,9.8,0.0
2350.0,9.73,0.0
2360.0,9.65,0.0
2370.0,9.56,0.0
2380.0,9.51,0.0
2390.0,9.44,0.0
2400.0,9.37,0.0
2410.0,9.29,0.0
2420.0,9.22,0.0
2430.0,9.15,0.0
2440.0,9.06,0.0
2450.0,9.02,0.0
2460.0,8.93,0.0
2470.0,8.86,0.0
2480.0,8.8,0.0
2490.0,8.73,0.0
2500.0,8.66,0.0
2510.0,8.59,0.0
2520.0,8.51,0.0
2530.0,8.43,0.0
2540.0,8.37,0.0
2550.0,8.3,0.0
2560.0,8.23,0.0
2570.0,8.17,0.0
2580.0,8.11,0.0
2590.0,8.03,0.0
2600.0,7.96,0.0
2610.0,7.89,0.0
2620.0,7.81,0.0
2630.0,7.76,0.0
2640.0,7.69,0.0
2650.0,7.62,0.0
2660.0,7.57,0.0
2670.0,7.49,0.0
2680.0,7.41,0.0
2690.0,7.35,0.0
2700.0,7.28,0.0