File: Wood/Calibration_Data/TUBS/TUBS_Wood_TGA_N2_593Kiso_R1.csv
Time (s),Temperature (K),Mass (mg)
0.0,305.0,1.02
60.0,304.7,1.011
227.0,304.5,1.002
1005.0,304.4,0.997
1194.0,304.4,0.996
1233.0,356.1,0.997
1251.0,402.0,0.988
1304.0,495.0,0.979
1327.0,520.3,0.97
1342.0,533.3,0.961
1355.0,542.8,0.952
1365.0,549.1,0.943
1374.0,554.1,0.934
1383.0,558.7,0.925
1392.0,562.7,0.916
1401.0,566.3,0.907
1410.0,569.5,0.898
1419.0,572.3,0.888
1428.0,574.8,0.878
1437.0,577.0,0.867
1446.0,579.0,0.857
1455.0,580.7,0.846
1464.0,582.3,0.836
1473.0,583.6,0.826
1482.0,584.8,0.817
1491.0,585.9,0.808
1500.0,586.8,0.799
1509.0,587.6,0.79
1519.0,588.4,0.781
1529.0,589.1,0.772
1539.0,589.7,0.763
1550.0,590.3,0.754
1561.0,590.7,0.745
1573.0,591.2,0.736
1586.0,591.6,0.727
1599.0,592.0,0.718
1673.0,593.1,0.676
1754.0,593.5,0.641
1835.0,593.7,0.612
1916.0,593.7,0.589
1997.0,593.7,0.568
2078.0,593.7,0.551
2159.0,593.7,0.535
2240.0,593.7,0.52
2321.0,593.7,0.506
2402.0,593.7,0.494
2483.0,593.7,0.482
2564.0,593.7,0.47
2645.0,593.7,0.459
2726.0,593.7,0.449
2807.0,593.7,0.439
2888.0,593.7,0.43
2969.0,593.7,0.42
3050.0,593.7,0.412
3131.0,593.7,0.403
3212.0,593.7,0.395
3293.0,593.7,0.388
3374.0,593.7,0.38
3455.0,593.8,0.372
3536.0,593.7,0.366
3617.0,593.8,0.359
3698.0,593.8,0.352
3779.0,593.8,0.346
3860.0,593.8,0.34
3941.0,593.8,0.334
4022.0,593.8,0.329
4103.0,593.8,0.324
4184.0,593.8,0.319
4265.0,593.8,0.314
4346.0,593.8,0.31
4427.0,593.8,0.306
4508.0,593.8,0.301
4589.0,593.8,0.298
4670.0,593.8,0.294
4751.0,593.8,0.29
4832.0,593.8,0.287
4913.0,593.8,0.284
4994.0,593.8,0.281
5075.0,593.8,0.279
5156.0,593.8,0.276
5237.0,593.8,0.274
5318.0,593.8,0.272
5399.0,593.8,0.269
5480.0,593.8,0.268
5561.0,593.8,0.266
5642.0,593.8,0.264
5723.0,593.8,0.263
5804.0,593.8,0.261
5885.0,593.8,0.26
5966.0,593.8,0.259
6047.0,593.8,0.258
6128.0,593.8,0.257
6209.0,593.8,0.256
6290.0,593.8,0.255
6371.0,593.8,0.254
6452.0,593.8,0.253
6533.0,593.8,0.252
6614.0,593.8,0.252
6695.0,593.8,0.251
6776.0,593.8,0.251
6857.0,593.8,0.25
6938.0,593.8,0.25
7019.0,593.8,0.25
7100.0,593.8,0.249
7181.0,593.8,0.249
7262.0,593.8,0.249
7343.0,593.8,0.248
7424.0,593.8,0.248
7505.0,593.8,0.248
7586.0,593.8,0.248
7667.0,593.8,0.247
7748.0,593.8,0.247
7829.0,593.8,0.247
7910.0,593.8,0.247
7991.0,593.8,0.247
8072.0,593.8,0.247
8153.0,593.8,0.246
8234.0,593.8,0.246
8315.0,593.8,0.246
8396.0,593.8,0.246
8477.0,593.8,0.246
8558.0,593.8,0.246
8639.0,593.8,0.246
8720.0,593.8,0.245
8801.0,593.8,0.245
8882.0,593.8,0.245
8963.0,593.8,0.245
9044.0,593.8,0.245
9125.0,593.8,0.245
9206.0,593.8,0.245
9287.0,593.8,0.244
9368.0,593.8,0.244
9449.0,593.8,0.244
9530.0,593.8,0.244
9611.0,593.8,0.244
9692.0,593.8,0.244
9773.0,593.8,0.243
9854.0,593.8,0.243
9935.0,593.8,0.243
10016.0,593.8,0.243
10097.0,593.8,0.243
10178.0,593.8,0.243
10259.0,593.8,0.243
10340.0,593.8,0.243
10421.0,593.8,0.243
10502.0,593.8,0.243
10583.0,593.8,0.243
10664.0,593.8,0.243
10745.0,593.8,0.242
10826.0,593.8,0.243
10907.0,593.8,0.242
10988.0,593.8,0.242
11069.0,593.8,0.242
11150.0,593.8,0.242
11231.0,593.8,0.242
11312.0,593.8,0.242
11393.0,593.8,0.242
11474.0,593.8,0.242
11555.0,593.8,0.242
11636.0,593.8,0.242
11717.0,593.8,0.241
11798.0,593.8,0.241
11879.0,593.8,0.241
11960.0,593.8,0.241
12041.0,593.8,0.241
12122.0,593.8,0.241
12203.0,593.8,0.241
12284.0,593.8,0.241
12365.0,593.8,0.241
12446.0,593.8,0.241
12527.0,593.8,0.241
12608.0,593.8,0.241
12689.0,593.8,0.241
12770.0,593.8,0.241
12851.0,593.8,0.241
12932.0,593.8,0.241
13013.0,593.8,0.24
13094.0,593.8,0.24
13175.0,593.8,0.241
13256.0,593.8,0.24
13337.0,593.8,0.24
13418.0,593.8,0.24
13499.0,593.8,0.24
13580.0,593.8,0.24
13661.0,593.8,0.24
13742.0,593.8,0.24
13823.0,593.8,0.24
13904.0,593.8,0.24
13985.0,593.8,0.24
14066.0,593.8,0.239
14147.0,593.8,0.24
14228.0,593.8,0.239
14309.0,593.8,0.24
14390.0,593.8,0.24
14471.0,593.8,0.24
14552.0,593.8,0.239
14633.0,593.8,0.239
14714.0,593.8,0.239
14795.0,593.8,0.239
14876.0,593.8,0.239
14957.0,593.8,0.239
15038.0,593.8,0.239
15119.0,593.8,0.239
15200.0,593.8,0.239
15281.0,593.8,0.239
15362.0,593.8,0.239
15443.0,593.8,0.239
15524.0,593.8,0.238
15605.0,593.8,0.238
15686.0,593.8,0.238
15767.0,593.8,0.238
15848.0,593.8,0.238
15929.0,593.8,0.238
16010.0,593.8,0.238
16091.0,593.8,0.238
16172.0,593.8,0.238
16253.0,593.8,0.238
16334.0,593.8,0.238
16415.0,593.8,0.238
16496.0,593.8,0.238
16577.0,593.8,0.238
16658.0,593.8,0.238
16739.0,593.8,0.238
16820.0,593.8,0.238
16901.0,593.8,0.238
16982.0,593.8,0.238
17063.0,593.8,0.237
17144.0,593.8,0.237
17225.0,593.8,0.237
17306.0,593.8,0.237
17387.0,593.8,0.237
17468.0,593.8,0.237
17549.0,593.8,0.237
17630.0,593.8,0.237
17711.0,593.8,0.237
17792.0,593.8,0.237
17873.0,593.8,0.237
17954.0,593.8,0.237
18035.0,593.8,0.237
18116.0,593.8,0.237
18197.0,593.8,0.237
18278.0,593.8,0.237
18359.0,593.8,0.237
18440.0,593.8,0.237
18521.0,593.8,0.237
18602.0,593.8,0.237
18683.0,593.8,0.236
18764.0,593.8,0.236
18845.0,593.8,0.236
18926.0,593.8,0.237
19007.0,593.8,0.236
19088.0,593.8,0.236
19169.0,593.8,0.236
19250.0,593.8,0.236
19331.0,593.8,0.236
19412.0,593.8,0.237
19493.0,593.8,0.236
19574.0,593.8,0.236
19655.0,593.8,0.236
19736.0,593.8,0.236
19817.0,593.8,0.236
19898.0,593.8,0.236
19979.0,593.8,0.236
20060.0,593.8,0.236
20141.0,593.8,0.236
20222.0,593.8,0.236
20303.0,593.8,0.236
20384.0,593.8,0.236
20465.0,593.8,0.236
20546.0,593.8,0.236
20627.0,593.8,0.236
20708.0,593.8,0.236
20789.0,593.8,0.236
20870.0,593.8,0.236
20951.0,593.8,0.236
21032.0,593.8,0.236
21113.0,593.8,0.235
21194.0,593.8,0.235
21275.0,593.8,0.235
21356.0,593.8,0.235
21437.0,593.8,0.235
21518.0,593.8,0.235
21599.0,593.8,0.235
21680.0,593.8,0.235
21761.0,593.8,0.235
21842.0,593.8,0.235
21923.0,593.8,0.235
22004.0,593.8,0.235
22085.0,593.8,0.235
22166.0,593.8,0.235
22247.0,593.8,0.235
22328.0,593.8,0.235
22409.0,593.8,0.235
22490.0,593.8,0.235
22571.0,593.8,0.235
22652.0,593.8,0.235
22733.0,593.8,0.234
22814.0,593.8,0.234