File: Wood/Calibration_Data/TUBS/TUBS_Wood_Cone_30kW_hor_R3.csv
Time (s),Mass (g),HRR (kW/m2)
0.0,80.18,0.0
10.0,80.07,0.0
20.0,79.94,0.0
30.0,79.4,30.7
40.0,78.33,143.7
50.0,77.6,119.7
60.0,76.99,94.5
70.0,76.46,78.9
80.0,75.94,67.9
90.0,75.56,61.1
100.0,75.08,61.9
110.0,74.66,54.8
120.0,74.28,52.4
130.0,73.88,53.6
140.0,73.5,49.8
150.0,73.14,49.1
160.0,72.75,48.3
170.0,72.38,48.1
180.0,72.0,46.2
190.0,71.67,43.5
200.0,71.27,45.8
210.0,70.92,45.3
220.0,70.53,44.5
230.0,70.14,46.5
240.0,69.8,43.1
250.0,69.4,42.1
260.0,69.04,45.3
270.0,68.66,44.3
280.0,68.28,42.4
290.0,67.87,45.2
300.0,67.52,45.3
310.0,67.11,45.7
320.0,66.74,41.5
330.0,66.36,43.1
340.0,65.97,43.5
350.0,65.58,43.2
360.0,65.19,41.9
370.0,64.8,42.1
380.0,64.4,41.8
390.0,64.03,40.6
400.0,63.63,45.9
410.0,63.23,41.8
420.0,62.83,39.7
430.0,62.45,41.1
440.0,62.05,39.3
450.0,61.65,41.6
460.0,61.27,41.1
470.0,60.87,44.4
480.0,60.48,43.2
490.0,60.1,39.4
500.0,59.7,38.9
510.0,59.32,42.7
520.0,58.94,41.0
530.0,58.51,40.0
540.0,58.12,43.1
550.0,57.74,42.3
560.0,57.35,40.0
570.0,56.94,41.9
580.0,56.58,42.0
590.0,56.16,42.1
600.0,55.77,39.4
610.0,55.41,40.3
620.0,55.02,38.0
630.0,54.6,41.3
640.0,54.25,42.7
650.0,53.84,38.7
660.0,53.47,37.5
670.0,53.08,36.2
680.0,52.73,39.4
690.0,52.35,38.0
700.0,51.99,37.7
710.0,51.58,38.7
720.0,51.2,37.8
730.0,50.84,41.5
740.0,50.46,38.5
750.0,50.08,38.6
760.0,49.71,40.2
770.0,49.35,37.6
780.0,48.95,39.4
790.0,48.61,39.8
800.0,48.23,37.2
810.0,47.85,42.6
820.0,47.51,38.6
830.0,47.12,36.2
840.0,46.77,36.0
850.0,46.42,35.6
860.0,46.04,37.5
870.0,45.67,35.3
880.0,45.32,34.7
890.0,44.96,37.2
900.0,44.57,35.4
910.0,44.24,36.4
920.0,43.87,34.4
930.0,43.5,36.8
940.0,43.17,33.5
950.0,42.8,33.0
960.0,42.44,32.8
970.0,42.09,38.8
980.0,41.7,35.9
990.0,41.37,35.1
1000.0,41.01,35.5
1010.0,40.64,36.4
1020.0,40.28,35.9
1030.0,39.87,36.8
1040.0,39.54,36.8
1050.0,39.17,36.0
1060.0,38.78,36.0
1070.0,38.41,33.8
1080.0,38.02,34.9
1090.0,37.62,37.5
1100.0,37.24,39.3
1110.0,36.83,37.9
1120.0,36.42,41.5
1130.0,36.04,41.2
1140.0,35.6,44.9
1150.0,35.16,43.6
1160.0,34.75,43.2
1170.0,34.31,44.9
1180.0,33.85,45.4
1190.0,33.41,44.6
1200.0,32.94,51.4
1210.0,32.47,44.8
1220.0,32.01,48.7
1230.0,31.53,52.6
1240.0,31.03,54.3
1250.0,30.55,52.4
1260.0,30.05,53.6
1270.0,29.54,54.7
1280.0,29.05,55.3
1290.0,28.51,56.8
1300.0,27.98,57.6
1310.0,27.46,58.3
1320.0,26.9,58.6
1330.0,26.36,59.3
1340.0,25.84,56.9
1350.0,25.28,60.7
1360.0,24.75,62.8
1370.0,24.23,60.0
1380.0,23.71,54.3
1390.0,23.17,56.4
1400.0,22.69,60.3
1410.0,22.18,55.6
1420.0,21.72,58.6
1430.0,21.3,56.8
1440.0,20.85,46.7
1450.0,20.49,44.6
1460.0,20.13,43.0
1470.0,19.78,40.2
1480.0,19.49,37.3
1490.0,19.17,34.0
1500.0,18.89,31.0
1510.0,18.63,29.7
1520.0,18.38,27.6
1530.0,18.14,27.0
1540.0,17.91,25.7
1550.0,17.69,25.6
1560.0,17.5,21.3
1570.0,17.29,23.4
1580.0,17.11,20.3
1590.0,16.92,17.4
1600.0,16.75,18.8
1610.0,16.59,17.1
1620.0,16.4,17.0
1630.0,16.25,15.8
1640.0,16.1,15.5
1650.0,15.96,17.8
1660.0,15.8,16.6
1670.0,15.64,16.2
1680.0,15.51,17.4
1690.0,15.38,15.8
1700.0,15.24,12.9
1710.0,15.1,14.8
1720.0,14.98,12.9
1730.0,14.86,8.3
1740.0,14.73,8.6
1750.0,14.61,7.7
1760.0,14.49,10.0
1770.0,14.36,7.0
1780.0,14.26,7.1
1790.0,14.15,7.2
1800.0,14.04,6.2
1810.0,13.92,5.7
1820.0,13.81,6.1
1830.0,13.71,6.2
1840.0,13.61,4.1
1850.0,13.5,10.1
1860.0,13.4,6.7
1870.0,13.29,6.3
1880.0,13.19,8.0
1890.0,13.08,5.4
1900.0,12.99,3.5
1910.0,12.9,6.0
1920.0,12.81,6.8
1930.0,12.72,3.6
1940.0,12.62,6.2
1950.0,12.54,5.2
1960.0,12.43,5.0
1970.0,12.35,4.6
1980.0,12.26,3.5
1990.0,12.17,5.9
2000.0,12.08,2.5
2010.0,11.99,4.9
2020.0,11.91,5.2
2030.0,11.83,0.0
2040.0,11.73,2.5
2050.0,11.64,4.9
2060.0,11.56,3.2
2070.0,11.47,3.6
2080.0,11.4,0.5
2090.0,11.3,1.1
2100.0,11.24,2.9
2110.0,11.14,1.5
2120.0,11.07,2.2
2130.0,10.99,2.2
2140.0,10.91,2.2
2150.0,10.83,2.8
2160.0,10.75,3.6
2170.0,10.67,0.8
2180.0,10.6,0.7
2190.0,10.52,0.0
2200.0,10.46,1.4
2210.0,10.39,0.9
2220.0,10.3,2.9
2230.0,10.21,0.8
2240.0,10.16,2.2
2250.0,10.09,2.4
2260.0,10.02,1.9
2270.0,9.94,1.1
2280.0,9.88,0.0
2290.0,9.8,3.3
2300.0,9.73,1.1
2310.0,9.67,0.0
2320.0,9.6,0.2
2330.0,9.53,2.0
2340.0,9.47,0.0
2350.0,9.41,0.0
2360.0,9.32,1.0
2370.0,9.25,0.0
2380.0,9.2,0.0
2390.0,9.13,0.0
2400.0,9.06,0.0
2410.0,9.0,0.0
2420.0,8.93,0.0
2430.0,8.87,0.0
2440.0,8.78,0.0
2450.0,8.74,0.0
2460.0,8.68,0.0
2470.0,8.62,0.0
2480.0,8.54,0.0
2490.0,8.48,0.0
2500.0,8.43,0.0
2510.0,8.36,0.0
2520.0,8.28,0.0
2530.0,8.24,0.0
2540.0,8.18,0.0
2550.0,8.12,0.2
2560.0,8.05,0.0
2570.0,7.99,0.0
2580.0,7.92,0.0
2590.0,7.88,0.0
2600.0,7.82,0.0
2610.0,7.74,0.0
2620.0,7.68,0.0
2630.0,7.63,0.0
2640.0,7.56,0.0
2650.0,7.5,0.0
2660.0,7.44,0.0
2670.0,7.39,0.0
2680.0,7.33,0.0
2690.0,7.28,0.0
2700.0,7.21,0.0