File: Wood/Calibration_Data/TUBS/TUBS_Wood_TGA_N2_50K_R8.csv
Time (s),Temperature (K),Mass (mg)
0.0,305.008,1.97968
9.0,304.952,1.97771
18.0,304.927,1.9756
27.0,304.846,1.97351
36.0,304.85,1.97166
45.0,304.817,1.96989
54.0,304.784,1.96817
63.0,304.77,1.96663
72.0,304.76,1.96515
81.0,304.719,1.96374
90.0,304.704,1.96238
99.0,304.688,1.96116
108.0,304.67,1.96
117.0,304.672,1.95886
126.0,304.642,1.95783
135.0,304.636,1.95682
144.0,304.636,1.95589
153.0,304.618,1.95497
162.0,304.593,1.95407
171.0,304.586,1.95318
180.0,304.581,1.95259
189.0,304.574,1.95185
198.0,304.556,1.95106
207.0,304.547,1.95028
216.0,304.565,1.94973
225.0,304.528,1.94911
234.0,304.532,1.94852
243.0,304.528,1.94793
252.0,304.523,1.94745
261.0,304.509,1.94687
270.0,304.508,1.9463
279.0,304.503,1.94574
288.0,304.508,1.94518
297.0,304.489,1.94477
306.0,304.5,1.94425
315.0,304.485,1.94383
324.0,304.482,1.94342
333.0,304.482,1.94303
342.0,304.488,1.94264
351.0,304.483,1.94227
360.0,304.463,1.94189
369.0,304.473,1.94153
378.0,304.479,1.94116
387.0,304.481,1.94095
396.0,304.458,1.94063
405.0,304.462,1.94034
414.0,304.465,1.93997
423.0,304.462,1.93958
432.0,304.456,1.93926
441.0,304.442,1.939
450.0,304.441,1.93879
459.0,304.438,1.93849
468.0,304.455,1.93829
477.0,304.453,1.93815
486.0,304.449,1.93779
496.0,304.433,1.93768
505.0,304.432,1.93749
516.0,304.443,1.93737
525.0,304.443,1.93711
534.0,304.445,1.93691
543.0,304.448,1.93673
552.0,304.45,1.9365
562.0,304.449,1.93637
571.0,304.433,1.93619
584.0,304.445,1.93605
594.0,304.443,1.93586
603.0,304.432,1.9357
615.0,304.441,1.93557
624.0,304.436,1.93533
633.0,304.44,1.9352
646.0,304.429,1.93512
655.0,304.43,1.93493
667.0,304.438,1.93481
677.0,304.459,1.93467
687.0,304.44,1.93456
697.0,304.444,1.93439
706.0,304.422,1.93423
716.0,304.441,1.93414
726.0,304.432,1.93404
735.0,304.443,1.93392
744.0,304.436,1.93381
753.0,304.435,1.93362
769.0,304.435,1.93364
787.0,304.437,1.93364
796.0,304.443,1.93342
808.0,304.434,1.93328
817.0,304.43,1.9331
847.0,304.432,1.93294
870.0,304.429,1.93277
880.0,304.441,1.93266
889.0,304.455,1.93255
905.0,304.45,1.93249
914.0,304.455,1.93235
923.0,304.443,1.93219
935.0,304.452,1.93208
947.0,304.446,1.93217
965.0,304.447,1.93203
974.0,304.444,1.93187
997.0,304.461,1.93177
1019.0,304.444,1.93157
1032.0,304.465,1.93151
1046.0,304.442,1.9315
1056.0,304.454,1.93145
1078.0,304.451,1.93134
1120.0,304.463,1.93124
1129.0,304.463,1.93113
1149.0,304.449,1.93113
1160.0,304.444,1.9311
1180.0,304.463,1.93102
1189.0,304.451,1.9309
1199.0,304.443,1.93071
1210.339,308.5,1.9286
1216.15,313.0,1.93217
1221.506,317.5,1.93256
1226.806,322.0,1.93163
1232.106,326.5,1.92984
1237.428,331.0,1.92823
1242.775,335.5,1.92685
1248.111,340.0,1.9254
1253.501,344.5,1.92361
1258.863,349.0,1.92164
1264.261,353.5,1.9195
1269.645,358.0,1.91724
1275.037,362.5,1.91499
1280.43,367.0,1.91305
1285.82,371.5,1.91137
1291.205,376.0,1.90996
1296.575,380.5,1.90888
1301.965,385.0,1.90795
1307.333,389.5,1.90732
1312.707,394.0,1.90699
1318.053,398.5,1.90676
1323.412,403.0,1.9066
1328.761,407.5,1.90643
1334.099,412.0,1.9063
1339.443,416.5,1.90617
1344.783,421.0,1.90601
1350.095,425.5,1.90574
1355.413,430.0,1.90545
1360.718,434.5,1.90512
1366.016,439.0,1.90469
1371.324,443.5,1.90413
1376.611,448.0,1.9035
1381.885,452.5,1.90283
1387.16,457.0,1.90198
1392.421,461.5,1.90085
1397.676,466.0,1.89939
1402.931,470.5,1.8976
1408.184,475.0,1.89546
1413.416,479.5,1.89282
1418.672,484.0,1.88976
1423.907,488.5,1.88626
1429.148,493.0,1.8824
1434.363,497.5,1.87829
1439.601,502.0,1.87392
1444.83,506.5,1.86937
1450.051,511.0,1.86469
1455.28,515.5,1.85974
1460.51,520.0,1.85438
1465.752,524.5,1.8485
1470.988,529.0,1.84194
1476.211,533.5,1.83455
1481.456,538.0,1.82633
1486.693,542.5,1.81721
1491.953,547.0,1.80677
1497.176,551.5,1.79528
1502.43,556.0,1.78275
1507.681,560.5,1.76917
1512.933,565.0,1.75454
1518.184,569.5,1.73898
1523.456,574.0,1.72233
1528.718,578.5,1.70463
1534.0,583.0,1.68584
1539.266,587.5,1.66592
1544.558,592.0,1.64448
1549.849,596.5,1.62155
1555.146,601.0,1.59678
1560.442,605.5,1.56976
1565.757,610.0,1.54049
1571.081,614.5,1.50861
1576.408,619.0,1.47382
1581.734,623.5,1.43644
1587.087,628.0,1.39627
1592.431,632.5,1.35344
1597.78,637.0,1.30838
1603.152,641.5,1.26101
1608.521,646.0,1.21147
1613.914,650.5,1.15955
1619.292,655.0,1.10525
1624.691,659.5,1.04759
1630.112,664.0,0.98592
1635.541,668.5,0.91951
1640.957,673.0,0.84858
1646.384,677.5,0.77388
1651.813,682.0,0.69818
1657.198,686.5,0.62737
1662.591,691.0,0.56687
1667.983,695.5,0.52306
1673.39,700.0,0.49511
1678.801,704.5,0.4791
1684.227,709.0,0.47001
1689.665,713.5,0.46308
1695.095,718.0,0.45712
1700.542,722.5,0.45151
1705.98,727.0,0.44618
1711.429,731.5,0.44106
1716.868,736.0,0.43616
1722.337,740.5,0.43148
1727.787,745.0,0.42691
1733.248,749.5,0.42247
1738.711,754.0,0.41836
1744.156,758.5,0.41453
1749.632,763.0,0.4109
1755.103,767.5,0.40755
1760.571,772.0,0.40444
1766.044,776.5,0.40154
1771.509,781.0,0.39881
1776.976,785.5,0.39622
1782.458,790.0,0.39383
1787.931,794.5,0.39161
1793.39,799.0,0.38944
1798.862,803.5,0.38739
1804.326,808.0,0.3854
1809.799,812.5,0.38344
1815.268,817.0,0.38155
1820.726,821.5,0.37972
1826.194,826.0,0.37801
1831.663,830.5,0.37651
1837.128,835.0,0.37504
1842.594,839.5,0.37349
1848.063,844.0,0.37192
1853.527,848.5,0.37036
1858.994,853.0,0.36883
1864.45,857.5,0.36738
1869.914,862.0,0.36598
1875.361,866.5,0.36466
1880.831,871.0,0.36325
1886.28,875.5,0.36179
1891.743,880.0,0.36048
1897.186,884.5,0.35931
1902.636,889.0,0.35813
1908.092,893.5,0.35695
1913.544,898.0,0.35578
1918.976,902.5,0.35464
1924.427,907.0,0.3535
1929.869,911.5,0.3524
1935.303,916.0,0.35126
1940.766,920.5,0.35011
1946.187,925.0,0.34913
1951.63,929.5,0.34819
1957.07,934.0,0.3473
1962.501,938.5,0.34648
1967.937,943.0,0.34561
1973.36,947.5,0.34467
1978.799,952.0,0.34376
1984.216,956.5,0.34297
1989.655,961.0,0.34215
1995.072,965.5,0.34144
2000.504,970.0,0.34073
2005.939,974.5,0.34
2011.366,979.0,0.33937
2016.798,983.5,0.33881
2022.224,988.0,0.33824
2027.653,992.5,0.33765
2033.079,997.0,0.33709
2038.502,1001.5,0.33651
2043.921,1006.0,0.33589
2049.351,1010.5,0.3353
2054.78,1015.0,0.33476
2060.192,1019.5,0.33431
2065.613,1024.0,0.3339
2071.031,1028.5,0.33344
2076.438,1033.0,0.3329
2081.854,1037.5,0.33238
2087.255,1042.0,0.33184
2092.667,1046.5,0.33131
2098.059,1051.0,0.33082
2103.408,1055.5,0.3304
2111.776,1060.0,0.32977
2124.0,1064.384,0.32874
2214.0,1071.324,0.32554
2304.0,1072.119,0.32313
2394.0,1072.326,0.32125
2424.0,1072.356,0.32071