File: Wood/Calibration_Data/TUBS/TUBS_TGA_N2_5K_R1.csv
Time (s),Temperature (K),Mass (mg)
0.0,304.008,0.94
9.0,305.057,0.939
18.0,304.987,0.939
27.0,304.953,0.937
36.0,304.897,0.937
45.0,304.862,0.936
54.0,304.833,0.935
63.0,304.825,0.935
72.0,304.794,0.934
81.0,304.782,0.934
90.0,304.752,0.933
99.0,304.744,0.933
108.0,304.711,0.933
117.0,304.702,0.932
126.0,304.69,0.932
135.0,304.683,0.931
144.0,304.674,0.931
153.0,304.666,0.931
162.0,304.658,0.931
171.0,304.643,0.931
180.0,304.613,0.93
189.0,304.603,0.93
198.0,304.595,0.929
207.0,304.6,0.93
216.0,304.569,0.929
225.0,304.566,0.929
234.0,304.57,0.929
243.0,304.555,0.929
252.0,304.558,0.929
261.0,304.54,0.929
270.0,304.532,0.929
279.0,304.557,0.928
288.0,304.537,0.928
297.0,304.532,0.928
306.0,304.529,0.928
315.0,304.535,0.928
324.0,304.519,0.928
333.0,304.513,0.928
342.0,304.508,0.928
351.0,304.505,0.927
360.0,304.483,0.927
369.0,304.491,0.927
378.0,304.491,0.927
387.0,304.49,0.927
396.0,304.487,0.927
405.0,304.491,0.927
414.0,304.468,0.927
423.0,304.484,0.927
432.0,304.486,0.927
441.0,304.488,0.927
450.0,304.494,0.927
459.0,304.482,0.927
468.0,304.479,0.927
477.0,304.482,0.927
486.0,304.472,0.927
495.0,304.475,0.927
504.0,304.47,0.927
513.0,304.478,0.927
522.0,304.465,0.927
531.0,304.473,0.926
540.0,304.467,0.926
549.0,304.47,0.926
558.0,304.474,0.926
567.0,304.482,0.926
576.0,304.468,0.926
585.0,304.472,0.926
594.0,304.453,0.926
603.0,304.461,0.926
612.0,304.468,0.926
621.0,304.461,0.926
630.0,304.448,0.926
639.0,304.456,0.926
648.0,304.463,0.926
657.0,304.457,0.926
666.0,304.478,0.926
675.0,304.47,0.926
684.0,304.463,0.926
693.0,304.468,0.926
702.0,304.486,0.926
711.0,304.473,0.926
720.0,304.483,0.926
729.0,304.478,0.926
738.0,304.476,0.926
747.0,304.466,0.926
756.0,304.458,0.926
765.0,304.464,0.926
774.0,304.475,0.926
783.0,304.465,0.926
792.0,304.476,0.926
801.0,304.475,0.926
810.0,304.467,0.926
819.0,304.47,0.926
828.0,304.478,0.926
837.0,304.469,0.926
846.0,304.464,0.926
855.0,304.472,0.926
864.0,304.458,0.926
873.0,304.47,0.926
882.0,304.474,0.926
891.0,304.48,0.926
900.0,304.47,0.926
909.0,304.473,0.926
918.0,304.48,0.926
927.0,304.462,0.926
936.0,304.467,0.926
945.0,304.478,0.926
954.0,304.461,0.926
963.0,304.463,0.926
972.0,304.46,0.926
981.0,304.475,0.926
990.0,304.48,0.926
999.0,304.47,0.926
1008.0,304.472,0.926
1017.0,304.464,0.926
1026.0,304.478,0.925
1035.0,304.48,0.925
1044.0,304.464,0.925
1053.0,304.463,0.925
1062.0,304.472,0.925
1071.0,304.461,0.926
1080.0,304.477,0.925
1089.0,304.474,0.926
1098.0,304.462,0.926
1107.0,304.457,0.926
1116.0,304.479,0.926
1125.0,304.467,0.925
1134.0,304.464,0.925
1143.0,304.474,0.926
1152.0,304.469,0.926
1161.0,304.473,0.926
1170.0,304.471,0.926
1179.0,304.479,0.926
1188.0,304.466,0.925
1197.0,304.477,0.926
1206.0,305.961,0.923
1215.0,310.26,0.927
1224.0,315.99,0.929
1233.0,321.905,0.927
1242.0,327.825,0.926
1251.0,333.775,0.925
1260.0,339.713,0.924
1269.0,345.661,0.923
1278.0,351.615,0.921
1287.0,357.554,0.92
1296.0,363.516,0.919
1305.0,369.482,0.918
1314.0,375.452,0.918
1323.0,381.426,0.918
1332.0,387.405,0.917
1341.0,393.426,0.917
1350.0,399.46,0.917
1359.0,405.473,0.917
1368.0,411.53,0.917
1377.0,417.596,0.917
1386.0,423.663,0.917
1395.0,429.744,0.917
1404.0,435.851,0.916
1413.0,441.955,0.916
1422.0,448.081,0.915
1431.0,454.203,0.915
1440.0,460.352,0.914
1449.0,466.499,0.913
1458.0,472.657,0.911
1467.0,478.818,0.909
1476.0,484.989,0.907
1485.0,491.163,0.905
1494.0,497.33,0.903
1503.0,503.511,0.9
1512.0,509.681,0.897
1521.0,515.847,0.893
1530.0,522.003,0.889
1539.0,528.182,0.884
1548.0,534.321,0.878
1557.0,540.478,0.872
1566.0,546.626,0.864
1575.0,552.763,0.855
1584.0,558.9,0.846
1593.0,565.027,0.836
1602.0,571.153,0.825
1611.0,577.283,0.813
1620.0,583.447,0.799
1629.0,589.577,0.782
1638.0,595.67,0.764
1647.0,601.77,0.745
1656.0,607.846,0.723
1665.0,613.911,0.7
1674.0,619.959,0.674
1683.0,625.994,0.646
1692.0,632.007,0.616
1701.0,638.028,0.585
1710.0,644.033,0.551
1719.0,650.024,0.516
1728.0,656.012,0.479
1737.0,661.981,0.438
1746.0,667.95,0.394
1755.0,673.916,0.346
1764.0,679.864,0.298
1773.0,685.833,0.255
1782.0,691.795,0.225
1791.0,697.759,0.209
1800.0,703.72,0.203
1809.0,709.668,0.198
1818.0,715.612,0.195
1827.0,721.561,0.191
1836.0,727.495,0.188
1845.0,733.437,0.185
1854.0,739.365,0.182
1863.0,745.279,0.179
1872.0,751.213,0.176
1881.0,757.126,0.173
1890.0,763.046,0.17
1899.0,768.956,0.168
1908.0,774.866,0.166
1917.0,780.77,0.164
1926.0,786.687,0.163
1935.0,792.609,0.161
1944.0,798.523,0.159
1953.0,804.445,0.158
1962.0,810.365,0.157
1971.0,816.288,0.156
1980.0,822.209,0.155
1989.0,828.138,0.154
1998.0,834.066,0.153
2007.0,839.996,0.152
2016.0,845.936,0.151
2025.0,851.869,0.15
2034.0,857.806,0.149
2043.0,863.743,0.148
2052.0,869.676,0.147
2061.0,875.631,0.146
2070.0,881.574,0.146
2079.0,887.522,0.145
2088.0,893.475,0.144
2097.0,899.433,0.143
2106.0,905.389,0.143
2115.0,911.352,0.142
2124.0,917.3,0.142
2133.0,923.267,0.141
2142.0,929.236,0.14
2151.0,935.197,0.14
2160.0,941.171,0.139
2169.0,947.137,0.139
2178.0,953.113,0.138
2187.0,959.089,0.137
2196.0,965.049,0.137
2205.0,971.015,0.136
2214.0,976.991,0.136
2223.0,982.953,0.136
2232.0,988.921,0.135
2241.0,994.897,0.135
2250.0,1000.859,0.134
2259.0,1006.828,0.134
2268.0,1012.802,0.134
2277.0,1018.775,0.133
2286.0,1024.751,0.133
2295.0,1030.725,0.132
2304.0,1036.698,0.132
2313.0,1042.676,0.132
2322.0,1048.666,0.131
2331.0,1054.639,0.131
2340.0,1059.311,0.13
2349.0,1062.709,0.13
2358.0,1065.095,0.13
2367.0,1066.79,0.129
2376.0,1068.0,0.129
2385.0,1068.877,0.129
2394.0,1069.529,0.129
2403.0,1070.009,0.129
2412.0,1070.376,0.128
2421.0,1070.656,0.128
2430.0,1070.875,0.128
2439.0,1071.063,0.128
2448.0,1071.213,0.128
2457.0,1071.325,0.128
2466.0,1071.432,0.128
2475.0,1071.522,0.127
2484.0,1071.597,0.127
2493.0,1071.669,0.127
2502.0,1071.729,0.127
2511.0,1071.797,0.127
2520.0,1071.842,0.127
2529.0,1071.879,0.127
2538.0,1071.927,0.127
2547.0,1071.968,0.127
2556.0,1071.998,0.126
2565.0,1072.033,0.126
2574.0,1072.056,0.126
2583.0,1072.08,0.126
2592.0,1072.106,0.126
2601.0,1072.124,0.126
2610.0,1072.141,0.126
2619.0,1072.166,0.126
2628.0,1072.172,0.126
2637.0,1072.198,0.126
2646.0,1072.212,0.126
2655.0,1072.224,0.126