File: Wood/Calibration_Data/TUBS/TUBS_Wood_MCC_N2_30K_R1.csv
Time (s),Temperature (K),HRR (W/g)
7.8,474.0,0.11
10.9,475.5,1.07
13.8,477.0,0.98
16.9,478.5,1.29
19.9,480.0,1.09
22.9,481.5,1.08
26.0,483.0,1.24
29.1,484.5,1.22
32.1,486.0,0.13
35.0,487.5,0.65
38.1,489.0,0.74
41.1,490.5,0.56
44.2,492.0,0.22
47.0,493.5,1.21
50.0,495.0,2.06
52.9,496.5,3.09
55.9,498.0,2.78
58.8,499.5,3.22
61.7,501.0,2.99
64.6,502.5,3.13
67.5,504.0,2.53
70.5,505.5,3.55
73.4,507.0,3.59
76.4,508.5,2.0
79.2,510.0,2.71
82.1,511.5,1.94
85.0,513.0,2.28
88.0,514.5,2.02
90.8,516.0,1.62
93.7,517.5,2.16
96.5,519.0,2.31
99.5,520.5,2.94
102.4,522.0,2.78
105.3,523.5,2.8
108.4,525.0,3.53
111.2,526.5,4.21
114.2,528.0,3.08
117.1,529.5,3.46
120.1,531.0,4.32
123.1,532.5,3.94
126.1,534.0,4.38
129.1,535.5,4.25
132.2,537.0,5.03
135.2,538.5,4.95
138.2,540.0,5.47
141.1,541.5,5.9
144.1,543.0,5.42
147.1,544.5,5.0
150.2,546.0,7.15
153.2,547.5,6.78
156.2,549.0,6.42
159.2,550.5,7.14
162.1,552.0,6.91
165.2,553.5,6.43
168.2,555.0,7.22
171.2,556.5,7.81
174.1,558.0,8.87
177.2,559.5,9.72
180.2,561.0,9.75
183.2,562.5,10.64
186.2,564.0,10.73
189.1,565.5,11.42
192.1,567.0,12.42
195.2,568.5,13.38
198.2,570.0,14.1
201.2,571.5,13.65
204.1,573.0,12.51
207.2,574.5,14.17
210.2,576.0,15.22
213.2,577.5,15.76
216.1,579.0,15.41
219.1,580.5,16.93
222.1,582.0,17.86
225.1,583.5,18.22
228.1,585.0,20.48
231.1,586.5,18.85
234.2,588.0,20.63
237.2,589.5,21.76
240.2,591.0,23.95
243.3,592.5,24.44
246.1,594.0,26.21
249.2,595.5,26.03
252.1,597.0,26.67
255.2,598.5,27.43
258.2,600.0,28.5
261.2,601.5,28.98
264.3,603.0,30.11
267.2,604.5,31.01
270.3,606.0,32.05
273.3,607.5,33.55
276.3,609.0,32.24
279.3,610.5,33.49
282.3,612.0,33.97
285.3,613.5,34.64
288.3,615.0,35.31
291.2,616.5,36.34
294.2,618.0,37.89
297.2,619.5,36.57
300.2,621.0,36.99
303.2,622.5,38.66
306.2,624.0,40.2
309.2,625.5,39.82
312.2,627.0,40.7
315.1,628.5,41.59
318.0,630.0,42.69
321.0,631.5,43.23
323.8,633.0,44.59
326.8,634.5,46.6
329.8,636.0,46.58
332.7,637.5,47.13
335.7,639.0,49.33
338.8,640.5,51.11
341.8,642.0,52.07
344.7,643.5,53.29
347.8,645.0,55.7
350.8,646.5,56.06
353.9,648.0,57.3
356.9,649.5,58.21
360.0,651.0,58.11
363.0,652.5,59.52
366.0,654.0,58.03
369.1,655.5,58.1
372.2,657.0,55.64
375.2,658.5,52.95
378.2,660.0,51.72
381.2,661.5,47.77
384.3,663.0,44.51
387.3,664.5,41.09
390.3,666.0,36.02
393.4,667.5,32.2
396.4,669.0,27.68
399.5,670.5,21.55
402.5,672.0,16.84
405.6,673.5,12.69
408.5,675.0,10.88
411.7,676.5,7.78
414.8,678.0,5.11
417.8,679.5,3.23
420.8,681.0,1.25
423.8,682.5,0.61
426.7,684.0,0.59
429.7,685.5,0.37
432.8,687.0,0.37
435.7,688.5,-1.32
438.7,690.0,-1.62
441.8,691.5,-1.0
444.8,693.0,-1.37
447.7,694.5,-1.91
450.8,696.0,-2.27
453.9,697.5,-2.61
456.9,699.0,-2.27
459.9,700.5,-2.63
463.0,702.0,-2.52
466.1,703.5,-0.66
469.1,705.0,-1.82
472.1,706.5,-0.74
475.2,708.0,-1.36
478.1,709.5,-1.46
481.1,711.0,-1.38
484.0,712.5,-1.67
487.1,714.0,-2.41
490.0,715.5,-1.42
493.0,717.0,-3.07
496.2,718.5,-3.7
499.1,720.0,-4.26
502.1,721.5,-3.22
505.3,723.0,-2.76
508.2,724.5,-2.32
511.2,726.0,-2.13
514.2,727.5,-2.29
517.2,729.0,-2.08
520.3,730.5,-2.75
523.2,732.0,-3.17
526.3,733.5,-2.88
529.2,735.0,-3.11
532.2,736.5,-2.39
535.1,738.0,-1.71
538.2,739.5,-2.69
541.1,741.0,-2.76
544.1,742.5,-3.58
547.1,744.0,-2.85
550.2,745.5,-3.14
553.2,747.0,-3.11
556.3,748.5,-3.39
559.3,750.0,-4.01
562.2,751.5,-4.22
565.2,753.0,-3.84
568.2,754.5,-4.98
571.3,756.0,-4.0
574.4,757.5,-3.34
577.6,759.0,-2.43
580.7,760.5,-2.09
583.7,762.0,-2.87
586.9,763.5,-2.5
590.0,765.0,-2.77
593.1,766.5,-3.8
596.2,768.0,-2.94
599.3,769.5,-3.72
602.4,771.0,-3.18
605.5,772.5,-3.49
608.6,774.0,-3.66
611.5,775.5,-2.06
614.6,777.0,-1.96
617.5,778.5,-1.48
620.6,780.0,-2.7
623.7,781.5,-2.52
626.6,783.0,-2.51
629.7,784.5,-3.91
632.7,786.0,-3.25
635.6,787.5,-5.28
638.6,789.0,-5.57
641.7,790.5,-5.59
644.8,792.0,-4.56
647.9,793.5,-4.18
650.9,795.0,-2.76
653.8,796.5,-2.22
656.9,798.0,-2.62
659.9,799.5,-2.7
662.8,801.0,-2.22
665.8,802.5,-1.98
668.8,804.0,-3.21
671.9,805.5,-3.36
674.9,807.0,-2.82
677.8,808.5,-1.94
680.8,810.0,-4.06
683.8,811.5,-4.93
686.7,813.0,-4.49
689.7,814.5,-4.31
692.7,816.0,-4.73
695.7,817.5,-3.53
698.7,819.0,-4.6
701.7,820.5,-3.12
704.8,822.0,-3.31
707.8,823.5,-3.18
710.8,825.0,-2.76
713.9,826.5,-3.76
716.8,828.0,-4.5
719.9,829.5,-4.91
722.9,831.0,-4.73
725.9,832.5,-3.91
729.0,834.0,-2.01
731.9,835.5,-1.96
734.9,837.0,-2.07
737.8,838.5,-2.27
740.9,840.0,-3.39
744.1,841.5,-3.54
747.1,843.0,-4.05
750.1,844.5,-3.92
753.2,846.0,-4.15
756.1,847.5,-3.06
759.1,849.0,-4.33
762.2,850.5,-4.48
765.2,852.0,-4.09
768.3,853.5,-2.89
771.4,855.0,-3.38
774.5,856.5,-4.19
777.4,858.0,-4.26
780.6,859.5,-3.13
783.6,861.0,-1.92
786.6,862.5,-1.8
789.7,864.0,-1.65
792.7,865.5,-1.53
795.7,867.0,-1.41
798.7,868.5,-1.37
801.7,870.0,-1.09
804.5,871.5,0.26
805.6,872.0,-0.03