File: Wood/Calibration_Data/TUBS/TUBS_TGA_N2_30K_R1.csv
Time (s),Temperature (K),Mass (mg)
0.0,304.023,0.93
9.0,305.065,0.929
18.0,305.004,0.928
27.0,304.98,0.928
36.0,304.938,0.927
45.0,304.919,0.926
54.0,304.88,0.925
63.0,304.842,0.925
72.0,304.811,0.924
81.0,304.826,0.924
90.0,304.783,0.924
99.0,304.754,0.923
108.0,304.752,0.923
117.0,304.736,0.922
126.0,304.72,0.922
135.0,304.692,0.922
144.0,304.685,0.922
153.0,304.675,0.921
162.0,304.66,0.921
171.0,304.648,0.921
180.0,304.638,0.921
189.0,304.618,0.921
198.0,304.626,0.92
207.0,304.624,0.92
216.0,304.587,0.92
225.0,304.591,0.92
234.0,304.576,0.92
243.0,304.566,0.92
252.0,304.553,0.92
261.0,304.548,0.919
270.0,304.544,0.919
279.0,304.526,0.919
288.0,304.538,0.919
297.0,304.525,0.919
306.0,304.517,0.919
315.0,304.501,0.919
324.0,304.522,0.919
333.0,304.511,0.919
342.0,304.512,0.919
351.0,304.531,0.919
360.0,304.469,0.918
369.0,304.488,0.918
378.0,304.484,0.918
387.0,304.489,0.918
396.0,304.467,0.918
405.0,304.457,0.918
414.0,304.478,0.918
423.0,304.472,0.918
432.0,304.473,0.918
441.0,304.459,0.918
450.0,304.463,0.918
459.0,304.458,0.918
468.0,304.447,0.918
477.0,304.448,0.918
486.0,304.454,0.917
495.0,304.458,0.917
504.0,304.461,0.918
513.0,304.447,0.918
522.0,304.456,0.917
531.0,304.452,0.917
540.0,304.456,0.917
549.0,304.464,0.917
558.0,304.452,0.917
567.0,304.474,0.917
576.0,304.46,0.917
585.0,304.469,0.917
594.0,304.476,0.917
603.0,304.449,0.917
612.0,304.445,0.917
621.0,304.429,0.917
630.0,304.454,0.917
639.0,304.441,0.917
648.0,304.443,0.917
657.0,304.448,0.917
666.0,304.448,0.917
675.0,304.456,0.917
684.0,304.453,0.917
693.0,304.444,0.917
702.0,304.463,0.917
711.0,304.451,0.917
720.0,304.453,0.917
729.0,304.44,0.917
738.0,304.445,0.917
747.0,304.45,0.917
756.0,304.427,0.917
765.0,304.448,0.917
774.0,304.448,0.917
783.0,304.44,0.917
792.0,304.453,0.917
801.0,304.447,0.917
810.0,304.454,0.917
819.0,304.436,0.916
828.0,304.438,0.916
837.0,304.426,0.916
846.0,304.433,0.917
855.0,304.445,0.917
864.0,304.445,0.917
873.0,304.434,0.916
882.0,304.438,0.916
891.0,304.432,0.916
900.0,304.426,0.916
909.0,304.463,0.916
918.0,304.435,0.916
927.0,304.424,0.916
936.0,304.439,0.916
945.0,304.444,0.916
954.0,304.436,0.916
963.0,304.436,0.916
972.0,304.446,0.916
981.0,304.432,0.916
990.0,304.443,0.916
999.0,304.441,0.916
1008.0,304.44,0.917
1017.0,304.443,0.916
1026.0,304.439,0.916
1035.0,304.446,0.916
1044.0,304.448,0.916
1053.0,304.442,0.916
1062.0,304.45,0.916
1071.0,304.455,0.916
1080.0,304.448,0.916
1089.0,304.446,0.916
1098.0,304.441,0.917
1107.0,304.448,0.917
1116.0,304.454,0.916
1125.0,304.455,0.916
1134.0,304.452,0.916
1143.0,304.455,0.916
1152.0,304.456,0.916
1161.0,304.449,0.916
1170.0,304.461,0.916
1179.0,304.448,0.916
1188.0,304.438,0.916
1197.0,304.439,0.916
1206.0,305.87,0.914
1215.0,310.328,0.917
1224.0,316.019,0.918
1233.0,321.878,0.917
1242.0,327.747,0.916
1251.0,333.641,0.915
1260.0,339.545,0.914
1269.0,345.456,0.913
1278.0,351.387,0.912
1287.0,357.314,0.91
1296.0,363.234,0.909
1305.0,369.193,0.908
1314.0,375.151,0.908
1323.0,381.116,0.907
1332.0,387.118,0.907
1341.0,393.087,0.907
1350.0,399.119,0.907
1359.0,405.144,0.907
1368.0,411.186,0.907
1377.0,417.246,0.907
1386.0,423.321,0.907
1395.0,429.408,0.907
1404.0,435.494,0.906
1413.0,441.601,0.906
1422.0,447.716,0.905
1431.0,453.854,0.905
1440.0,460.003,0.904
1449.0,466.144,0.902
1458.0,472.316,0.901
1467.0,478.481,0.899
1476.0,484.649,0.896
1485.0,490.807,0.894
1494.0,496.987,0.891
1503.0,503.163,0.887
1512.0,509.329,0.884
1521.0,515.5,0.88
1530.0,521.66,0.876
1539.0,527.842,0.871
1548.0,533.99,0.864
1557.0,540.136,0.858
1566.0,546.295,0.85
1575.0,552.446,0.841
1584.0,558.575,0.832
1593.0,564.707,0.822
1602.0,570.84,0.811
1611.0,576.974,0.799
1620.0,583.102,0.785
1629.0,589.209,0.768
1638.0,595.328,0.75
1647.0,601.425,0.731
1656.0,607.513,0.71
1665.0,613.562,0.687
1674.0,619.607,0.662
1683.0,625.651,0.634
1692.0,631.67,0.605
1701.0,637.685,0.574
1710.0,643.687,0.541
1719.0,649.681,0.507
1728.0,655.668,0.47
1737.0,661.66,0.43
1746.0,667.612,0.387
1755.0,673.576,0.34
1764.0,679.538,0.293
1773.0,685.495,0.252
1782.0,691.475,0.224
1791.0,697.452,0.209
1800.0,703.4,0.203
1809.0,709.333,0.199
1818.0,715.288,0.195
1827.0,721.231,0.192
1836.0,727.168,0.189
1845.0,733.102,0.185
1854.0,739.025,0.182
1863.0,744.959,0.179
1872.0,750.877,0.177
1881.0,756.797,0.174
1890.0,762.728,0.171
1899.0,768.629,0.169
1908.0,774.548,0.167
1917.0,780.468,0.165
1926.0,786.378,0.163
1935.0,792.294,0.162
1944.0,798.215,0.16
1953.0,804.14,0.159
1962.0,810.059,0.157
1971.0,815.985,0.156
1980.0,821.916,0.155
1989.0,827.842,0.154
1998.0,833.769,0.153
2007.0,839.703,0.153
2016.0,845.638,0.151
2025.0,851.582,0.151
2034.0,857.52,0.15
2043.0,863.454,0.149
2052.0,869.403,0.148
2061.0,875.366,0.147
2070.0,881.308,0.146
2079.0,887.245,0.146
2088.0,893.21,0.145
2097.0,899.16,0.144
2106.0,905.131,0.144
2115.0,911.082,0.143
2124.0,917.054,0.142
2133.0,923.032,0.142
2142.0,928.998,0.141
2151.0,934.97,0.141
2160.0,940.943,0.14
2169.0,946.919,0.139
2178.0,952.9,0.139
2187.0,958.876,0.139
2196.0,964.85,0.138
2205.0,970.833,0.138
2214.0,976.81,0.137
2223.0,982.791,0.137
2232.0,988.774,0.136
2241.0,994.749,0.136
2250.0,1000.736,0.135
2259.0,1006.712,0.135
2268.0,1012.702,0.134
2277.0,1018.687,0.134
2286.0,1024.664,0.134
2295.0,1030.644,0.133
2304.0,1036.63,0.133
2313.0,1042.62,0.132
2322.0,1048.605,0.132
2331.0,1054.584,0.132
2340.0,1059.336,0.131
2349.0,1062.738,0.131
2358.0,1065.129,0.131
2367.0,1066.834,0.13
2376.0,1068.059,0.13
2385.0,1068.954,0.13
2394.0,1069.601,0.13
2403.0,1070.091,0.129
2412.0,1070.446,0.129
2421.0,1070.753,0.129
2430.0,1070.979,0.129
2439.0,1071.162,0.129
2448.0,1071.317,0.128
2457.0,1071.434,0.128
2466.0,1071.545,0.128
2475.0,1071.634,0.128
2484.0,1071.714,0.128
2493.0,1071.792,0.127
2502.0,1071.843,0.128
2511.0,1071.899,0.127
2520.0,1071.949,0.127
2529.0,1072.007,0.127
2538.0,1072.042,0.127
2547.0,1072.074,0.127
2556.0,1072.106,0.127
2565.0,1072.143,0.127
2574.0,1072.175,0.127
2583.0,1072.206,0.127
2592.0,1072.227,0.127
2601.0,1072.251,0.127
2610.0,1072.265,0.127
2619.0,1072.287,0.127
2628.0,1072.307,0.127
2637.0,1072.327,0.126
2646.0,1072.34,0.127
2655.0,1072.347,0.127