File: Wood/Calibration_Data/TUBS/TUBS_Wood_TGA_N2_20K_R2.csv
Time (s),Temperature (K),Mass (mg)
0.0,304.938,1.03
43.0,304.743,1.024
130.0,304.583,1.018
357.0,304.376,1.012
995.0,304.364,1.01
1072.0,304.354,1.01
1210.753,306.0,1.008
1221.755,309.0,1.011
1231.712,312.0,1.009
1241.484,315.0,1.009
1251.138,318.0,1.008
1260.642,321.0,1.008
1270.006,324.0,1.008
1279.353,327.0,1.007
1288.598,330.0,1.006
1297.764,333.0,1.005
1306.954,336.0,1.004
1316.032,339.0,1.004
1325.14,342.0,1.003
1334.188,345.0,1.002
1343.241,348.0,1.001
1352.235,351.0,1.001
1361.234,354.0,1.0
1370.206,357.0,0.999
1379.198,360.0,0.999
1388.154,363.0,0.998
1397.114,366.0,0.998
1406.036,369.0,0.998
1414.978,372.0,0.998
1423.928,375.0,0.998
1432.796,378.0,0.998
1441.691,381.0,0.997
1450.596,384.0,0.997
1459.458,387.0,0.997
1468.35,390.0,0.997
1477.214,393.0,0.997
1486.051,396.0,0.997
1494.89,399.0,0.997
1503.726,402.0,0.997
1512.553,405.0,0.997
1521.404,408.0,0.997
1530.196,411.0,0.997
1539.071,414.0,0.997
1547.85,417.0,0.997
1556.641,420.0,0.996
1565.482,423.0,0.996
1574.285,426.0,0.996
1583.064,429.0,0.996
1591.863,432.0,0.996
1600.667,435.0,0.996
1609.458,438.0,0.995
1618.228,441.0,0.995
1627.032,444.0,0.994
1635.82,447.0,0.994
1644.598,450.0,0.993
1653.385,453.0,0.993
1662.155,456.0,0.992
1670.939,459.0,0.991
1679.709,462.0,0.99
1688.487,465.0,0.99
1697.267,468.0,0.988
1706.069,471.0,0.987
1714.834,474.0,0.986
1723.618,477.0,0.986
1732.384,480.0,0.985
1741.163,483.0,0.984
1749.962,486.0,0.983
1758.773,489.0,0.982
1767.542,492.0,0.981
1776.374,495.0,0.98
1785.157,498.0,0.979
1793.953,501.0,0.977
1802.74,504.0,0.976
1811.601,507.0,0.975
1820.413,510.0,0.973
1829.234,513.0,0.972
1838.092,516.0,0.97
1846.911,519.0,0.968
1855.746,522.0,0.965
1864.553,525.0,0.963
1873.388,528.0,0.961
1882.259,531.0,0.957
1891.091,534.0,0.954
1899.935,537.0,0.951
1908.799,540.0,0.947
1917.662,543.0,0.943
1926.55,546.0,0.939
1935.42,549.0,0.934
1944.297,552.0,0.93
1953.179,555.0,0.925
1962.057,558.0,0.919
1970.908,561.0,0.914
1979.81,564.0,0.908
1988.726,567.0,0.902
1997.635,570.0,0.895
2006.567,573.0,0.888
2015.464,576.0,0.881
2024.379,579.0,0.873
2033.274,582.0,0.864
2042.209,585.0,0.855
2051.108,588.0,0.845
2060.043,591.0,0.835
2068.991,594.0,0.823
2077.934,597.0,0.811
2086.863,600.0,0.799
2095.802,603.0,0.785
2104.772,606.0,0.771
2113.731,609.0,0.757
2122.702,612.0,0.741
2131.672,615.0,0.725
2140.61,618.0,0.709
2149.603,621.0,0.691
2158.576,624.0,0.674
2167.586,627.0,0.655
2176.546,630.0,0.637
2185.541,633.0,0.617
2194.544,636.0,0.597
2203.544,639.0,0.576
2212.584,642.0,0.555
2221.628,645.0,0.533
2230.651,648.0,0.509
2239.673,651.0,0.484
2248.715,654.0,0.459
2257.738,657.0,0.432
2266.803,660.0,0.405
2275.816,663.0,0.378
2284.86,666.0,0.351
2293.893,669.0,0.328
2302.902,672.0,0.309
2311.924,675.0,0.293
2320.938,678.0,0.283
2329.991,681.0,0.276
2339.012,684.0,0.273
2348.009,687.0,0.27
2357.112,690.0,0.268
2366.104,693.0,0.266
2375.18,696.0,0.264
2384.214,699.0,0.262
2393.288,702.0,0.26
2402.312,705.0,0.258
2411.384,708.0,0.257
2420.479,711.0,0.255
2429.555,714.0,0.253
2438.627,717.0,0.251
2447.664,720.0,0.25
2456.732,723.0,0.248
2465.798,726.0,0.247
2474.887,729.0,0.245
2483.97,732.0,0.243
2493.054,735.0,0.242
2502.13,738.0,0.241
2511.199,741.0,0.24
2520.304,744.0,0.238
2529.408,747.0,0.237
2538.492,750.0,0.236
2547.587,753.0,0.235
2556.632,756.0,0.234
2565.742,759.0,0.233
2574.844,762.0,0.232
2583.918,765.0,0.231
2593.017,768.0,0.23
2602.079,771.0,0.229
2611.121,774.0,0.229
2620.171,777.0,0.228
2629.273,780.0,0.227
2638.36,783.0,0.227
2647.409,786.0,0.226
2656.477,789.0,0.225
2665.559,792.0,0.224
2674.649,795.0,0.224
2683.719,798.0,0.223
2692.769,801.0,0.222
2701.834,804.0,0.222
2710.866,807.0,0.221
2719.926,810.0,0.221
2728.994,813.0,0.22
2738.063,816.0,0.22
2747.12,819.0,0.219
2756.201,822.0,0.219
2765.24,825.0,0.218
2774.286,828.0,0.217
2783.353,831.0,0.217
2792.438,834.0,0.217
2801.471,837.0,0.216
2810.53,840.0,0.215
2819.573,843.0,0.215
2828.637,846.0,0.215
2837.695,849.0,0.214
2846.741,852.0,0.214
2855.8,855.0,0.213
2864.867,858.0,0.213
2873.903,861.0,0.212
2882.942,864.0,0.212
2891.978,867.0,0.211
2901.069,870.0,0.211
2910.111,873.0,0.211
2919.123,876.0,0.21
2928.175,879.0,0.21
2937.249,882.0,0.209
2946.299,885.0,0.209
2955.336,888.0,0.209
2964.411,891.0,0.208
2973.445,894.0,0.208
2982.497,897.0,0.207
2991.554,900.0,0.207
3000.61,903.0,0.206
3009.633,906.0,0.206
3018.671,909.0,0.206
3027.745,912.0,0.206
3036.78,915.0,0.205
3045.835,918.0,0.205
3054.855,921.0,0.205
3063.915,924.0,0.204
3072.958,927.0,0.204
3082.012,930.0,0.204
3091.037,933.0,0.203
3100.089,936.0,0.204
3109.127,939.0,0.203
3118.174,942.0,0.203
3127.225,945.0,0.203
3136.301,948.0,0.202
3145.357,951.0,0.202
3154.435,954.0,0.202
3163.455,957.0,0.202
3172.495,960.0,0.202
3181.596,963.0,0.201
3190.655,966.0,0.201
3199.694,969.0,0.201
3208.75,972.0,0.201
3217.805,975.0,0.201
3226.861,978.0,0.2
3235.89,981.0,0.2
3244.931,984.0,0.2
3253.967,987.0,0.2
3263.006,990.0,0.2
3272.056,993.0,0.199
3281.107,996.0,0.199
3290.159,999.0,0.199
3299.192,1002.0,0.199
3308.209,1005.0,0.199
3317.252,1008.0,0.198
3326.311,1011.0,0.198
3335.343,1014.0,0.198
3344.357,1017.0,0.198
3353.415,1020.0,0.198
3362.455,1023.0,0.198
3371.503,1026.0,0.197
3380.534,1029.0,0.197
3389.549,1032.0,0.197
3398.579,1035.0,0.197
3407.607,1038.0,0.197
3416.613,1041.0,0.196
3425.622,1044.0,0.196
3434.614,1047.0,0.196
3443.618,1050.0,0.196
3452.657,1053.0,0.196
3461.682,1056.0,0.196
3470.696,1059.0,0.195
3479.733,1062.0,0.195
3488.758,1065.0,0.195
3503.52,1068.0,0.195
3560.0,1071.597,0.194
3620.0,1072.181,0.193
3680.0,1072.371,0.193
3740.0,1072.468,0.192
3800.0,1072.516,0.191
3810.0,1072.531,0.191