File: Wood/Calibration_Data/TUBS/TUBS_Wood_TGA_N2_10K_R2.csv
Time (s),Temperature (K),Mass (mg)
0.0,304.896,1.03
41.0,304.728,1.024
112.0,304.591,1.018
289.0,304.412,1.012
660.0,304.352,1.008
1145.0,304.329,1.008
1227.951,307.0,1.008
1248.993,310.0,1.007
1268.993,313.0,1.007
1288.237,316.0,1.007
1306.911,319.0,1.006
1325.262,322.0,1.005
1343.392,325.0,1.005
1361.471,328.0,1.003
1379.36,331.0,1.003
1397.352,334.0,1.002
1415.261,337.0,1.001
1433.16,340.0,0.999
1450.967,343.0,0.999
1468.838,346.0,0.998
1486.706,349.0,0.998
1504.59,352.0,0.997
1522.415,355.0,0.997
1540.309,358.0,0.997
1558.07,361.0,0.996
1575.966,364.0,0.996
1593.866,367.0,0.996
1611.583,370.0,0.996
1629.365,373.0,0.996
1647.222,376.0,0.996
1665.012,379.0,0.996
1682.78,382.0,0.996
1700.607,385.0,0.996
1718.383,388.0,0.996
1736.133,391.0,0.996
1753.871,394.0,0.996
1771.659,397.0,0.996
1789.476,400.0,0.996
1807.205,403.0,0.996
1824.906,406.0,0.996
1842.64,409.0,0.995
1860.376,412.0,0.995
1878.16,415.0,0.995
1895.859,418.0,0.995
1913.597,421.0,0.995
1931.336,424.0,0.994
1949.051,427.0,0.994
1966.842,430.0,0.994
1984.568,433.0,0.993
2002.277,436.0,0.993
2020.068,439.0,0.992
2037.739,442.0,0.992
2055.399,445.0,0.991
2073.114,448.0,0.99
2090.862,451.0,0.989
2108.548,454.0,0.988
2126.295,457.0,0.988
2143.958,460.0,0.987
2161.609,463.0,0.986
2179.351,466.0,0.985
2197.097,469.0,0.984
2214.858,472.0,0.984
2232.627,475.0,0.983
2250.324,478.0,0.982
2268.045,481.0,0.981
2285.775,484.0,0.98
2303.561,487.0,0.979
2321.303,490.0,0.978
2339.013,493.0,0.977
2356.749,496.0,0.975
2374.509,499.0,0.974
2392.264,502.0,0.972
2410.098,505.0,0.97
2427.815,508.0,0.968
2445.615,511.0,0.966
2463.381,514.0,0.964
2481.212,517.0,0.961
2499.036,520.0,0.958
2516.785,523.0,0.955
2534.584,526.0,0.951
2552.448,529.0,0.948
2570.252,532.0,0.944
2588.119,535.0,0.939
2605.921,538.0,0.935
2623.729,541.0,0.929
2641.605,544.0,0.924
2659.467,547.0,0.919
2677.278,550.0,0.913
2695.156,553.0,0.907
2713.017,556.0,0.9
2730.859,559.0,0.893
2748.695,562.0,0.885
2766.637,565.0,0.877
2784.518,568.0,0.868
2802.385,571.0,0.859
2820.291,574.0,0.85
2838.152,577.0,0.839
2856.061,580.0,0.828
2873.988,583.0,0.815
2891.874,586.0,0.802
2909.793,589.0,0.789
2927.76,592.0,0.774
2945.618,595.0,0.759
2963.61,598.0,0.743
2981.497,601.0,0.727
2999.466,604.0,0.709
3017.429,607.0,0.691
3035.343,610.0,0.672
3053.315,613.0,0.653
3071.284,616.0,0.633
3089.206,619.0,0.613
3107.201,622.0,0.592
3125.165,625.0,0.57
3143.216,628.0,0.547
3161.171,631.0,0.523
3179.158,634.0,0.498
3197.172,637.0,0.471
3215.222,640.0,0.444
3233.17,643.0,0.415
3251.207,646.0,0.386
3269.188,649.0,0.356
3287.248,652.0,0.329
3305.295,655.0,0.303
3323.258,658.0,0.283
3341.297,661.0,0.267
3359.226,664.0,0.257
3377.256,667.0,0.251
3395.274,670.0,0.248
3413.366,673.0,0.245
3431.398,676.0,0.243
3449.442,679.0,0.241
3467.541,682.0,0.239
3485.57,685.0,0.236
3503.673,688.0,0.235
3521.789,691.0,0.233
3539.807,694.0,0.231
3557.903,697.0,0.229
3575.905,700.0,0.227
3594.024,703.0,0.225
3612.15,706.0,0.223
3630.243,709.0,0.222
3648.331,712.0,0.22
3666.438,715.0,0.218
3684.538,718.0,0.216
3702.649,721.0,0.215
3720.691,724.0,0.213
3738.866,727.0,0.212
3756.976,730.0,0.211
3775.108,733.0,0.209
3793.205,736.0,0.208
3811.376,739.0,0.207
3829.558,742.0,0.206
3847.688,745.0,0.205
3865.801,748.0,0.204
3883.965,751.0,0.203
3902.151,754.0,0.202
3920.267,757.0,0.201
3938.345,760.0,0.2
3956.482,763.0,0.199
3974.544,766.0,0.199
3992.676,769.0,0.198
4010.804,772.0,0.197
4028.957,775.0,0.196
4046.972,778.0,0.196
4065.048,781.0,0.195
4083.156,784.0,0.194
4101.256,787.0,0.194
4119.337,790.0,0.193
4137.415,793.0,0.193
4155.55,796.0,0.192
4173.614,799.0,0.191
4191.702,802.0,0.191
4209.774,805.0,0.19
4227.842,808.0,0.189
4245.952,811.0,0.189
4264.048,814.0,0.188
4282.16,817.0,0.188
4300.208,820.0,0.187
4318.276,823.0,0.187
4336.384,826.0,0.186
4354.382,829.0,0.186
4372.452,832.0,0.185
4390.478,835.0,0.185
4408.543,838.0,0.184
4426.638,841.0,0.184
4444.648,844.0,0.183
4462.727,847.0,0.183
4480.72,850.0,0.182
4498.772,853.0,0.182
4516.833,856.0,0.181
4534.914,859.0,0.181
4552.981,862.0,0.18
4571.067,865.0,0.18
4589.145,868.0,0.18
4607.196,871.0,0.18
4625.327,874.0,0.179
4643.4,877.0,0.179
4661.392,880.0,0.178
4679.482,883.0,0.177
4697.606,886.0,0.177
4715.671,889.0,0.177
4733.759,892.0,0.177
4751.841,895.0,0.176
4769.952,898.0,0.176
4788.056,901.0,0.176
4806.173,904.0,0.175
4824.301,907.0,0.175
4842.382,910.0,0.175
4860.472,913.0,0.175
4878.565,916.0,0.174
4896.647,919.0,0.174
4914.778,922.0,0.174
4932.837,925.0,0.173
4950.862,928.0,0.173
4969.0,931.0,0.173
4987.112,934.0,0.172
5005.186,937.0,0.172
5023.291,940.0,0.172
5041.424,943.0,0.171
5059.494,946.0,0.171
5077.645,949.0,0.171
5095.677,952.0,0.171
5113.787,955.0,0.171
5131.892,958.0,0.17
5149.982,961.0,0.17
5168.121,964.0,0.17
5186.158,967.0,0.17
5204.314,970.0,0.169
5222.416,973.0,0.169
5240.561,976.0,0.169
5258.656,979.0,0.169
5276.71,982.0,0.169
5294.803,985.0,0.169
5312.952,988.0,0.169
5331.019,991.0,0.168
5349.146,994.0,0.168
5367.16,997.0,0.168
5385.245,1000.0,0.168
5403.401,1003.0,0.167
5421.405,1006.0,0.167
5439.488,1009.0,0.167
5457.572,1012.0,0.167
5475.729,1015.0,0.166
5493.771,1018.0,0.166
5511.803,1021.0,0.166
5529.89,1024.0,0.166
5547.971,1027.0,0.166
5566.006,1030.0,0.166
5584.115,1033.0,0.165
5602.222,1036.0,0.165
5620.277,1039.0,0.165
5638.321,1042.0,0.165
5656.36,1045.0,0.164
5674.337,1048.0,0.164
5692.39,1051.0,0.164
5710.424,1054.0,0.164
5728.482,1057.0,0.164
5746.512,1060.0,0.163
5764.538,1063.0,0.163
5782.661,1066.0,0.163
5801.104,1069.0,0.163
5850.0,1071.866,0.162
5910.0,1072.427,0.162
5970.0,1072.551,0.161
6030.0,1072.622,0.16
6090.0,1072.661,0.16
6120.0,1072.678,0.16