File: Wood/Calibration_Data/TUBS/TUBS_TGA_N2_ISO320_R2.csv
Time (s),Temperature (K),Mass (mg)
0.0,305.0,0.99
63.0,304.7,0.981
259.0,304.5,0.972
939.0,304.4,0.967
1041.0,304.4,0.968
1219.0,322.3,0.969
1246.0,390.7,0.964
1292.0,479.4,0.955
1319.0,512.9,0.946
1337.0,529.7,0.937
1352.0,541.2,0.928
1364.0,548.9,0.919
1374.0,554.5,0.91
1383.0,559.0,0.901
1393.0,563.4,0.892
1403.0,567.3,0.883
1412.0,570.4,0.874
1421.0,573.1,0.865
1431.0,575.8,0.856
1440.0,577.9,0.847
1450.0,580.0,0.838
1459.0,581.6,0.829
1468.0,583.0,0.82
1478.0,584.4,0.811
1488.0,585.6,0.802
1498.0,586.7,0.793
1508.0,587.6,0.784
1519.0,588.5,0.775
1530.0,589.2,0.766
1541.0,589.9,0.757
1553.0,590.5,0.748
1565.0,591.0,0.739
1579.0,591.4,0.73
1592.0,591.8,0.721
1644.0,592.8,0.692
1725.0,593.5,0.655
1806.0,593.7,0.626
1887.0,593.8,0.602
1968.0,593.8,0.582
2049.0,593.8,0.564
2130.0,593.8,0.548
2211.0,593.8,0.533
2292.0,593.8,0.52
2373.0,593.8,0.507
2454.0,593.8,0.495
2535.0,593.8,0.484
2616.0,593.8,0.474
2697.0,593.8,0.464
2778.0,593.8,0.454
2859.0,593.8,0.445
2940.0,593.8,0.436
3021.0,593.8,0.427
3102.0,593.8,0.419
3183.0,593.8,0.411
3264.0,593.8,0.403
3345.0,593.8,0.396
3426.0,593.8,0.388
3507.0,593.8,0.382
3588.0,593.8,0.375
3669.0,593.8,0.369
3750.0,593.8,0.363
3831.0,593.8,0.357
3912.0,593.8,0.352
3993.0,593.8,0.347
4074.0,593.8,0.341
4155.0,593.8,0.337
4236.0,593.8,0.332
4317.0,593.8,0.328
4398.0,593.8,0.324
4479.0,593.8,0.32
4560.0,593.8,0.316
4641.0,593.8,0.312
4722.0,593.8,0.309
4803.0,593.8,0.306
4884.0,593.8,0.303
4965.0,593.8,0.3
5046.0,593.8,0.297
5127.0,593.8,0.295
5208.0,593.8,0.293
5289.0,593.9,0.29
5370.0,593.8,0.288
5451.0,593.8,0.286
5532.0,593.8,0.285
5613.0,593.9,0.283
5694.0,593.8,0.281
5775.0,593.8,0.28
5856.0,593.8,0.279
5937.0,593.8,0.278
6018.0,593.8,0.277
6099.0,593.9,0.276
6180.0,593.9,0.275
6261.0,593.9,0.274
6342.0,593.9,0.273
6423.0,593.9,0.273
6504.0,593.9,0.272
6585.0,593.8,0.271
6666.0,593.8,0.27
6747.0,593.8,0.27
6828.0,593.9,0.27
6909.0,593.9,0.269
6990.0,593.9,0.269
7071.0,593.9,0.268
7152.0,593.9,0.268
7233.0,593.8,0.268
7314.0,593.9,0.268
7395.0,593.9,0.267
7476.0,593.9,0.267
7557.0,593.8,0.267
7638.0,593.8,0.267
7719.0,593.9,0.266
7800.0,593.9,0.266
7881.0,593.9,0.266
7962.0,593.9,0.266
8043.0,593.9,0.266
8124.0,593.9,0.266
8205.0,593.9,0.265
8286.0,593.9,0.265
8367.0,593.9,0.265
8448.0,593.9,0.265
8529.0,593.9,0.265
8610.0,593.9,0.265
8691.0,593.9,0.265
8772.0,593.9,0.264
8853.0,593.9,0.264
8934.0,593.9,0.264
9015.0,593.9,0.264
9096.0,593.9,0.264
9177.0,593.9,0.264
9258.0,593.9,0.263
9339.0,593.9,0.263
9420.0,593.9,0.263
9501.0,593.9,0.263
9582.0,593.9,0.263
9663.0,593.9,0.263
9744.0,593.9,0.263
9825.0,593.9,0.263
9906.0,593.9,0.263
9987.0,593.9,0.262
10068.0,593.9,0.262
10149.0,593.9,0.262
10230.0,593.9,0.262
10311.0,593.9,0.262
10392.0,593.9,0.262
10473.0,593.9,0.262
10554.0,593.9,0.262
10635.0,593.9,0.262
10716.0,593.9,0.262
10797.0,593.9,0.262
10878.0,593.9,0.262
10959.0,593.9,0.261
11040.0,593.9,0.261
11121.0,593.9,0.261
11202.0,593.9,0.261
11283.0,593.9,0.261
11364.0,593.9,0.261
11445.0,593.9,0.261
11526.0,593.9,0.261
11607.0,593.9,0.261
11688.0,593.9,0.261
11769.0,593.9,0.261
11850.0,593.9,0.261
11931.0,593.9,0.26
12012.0,593.9,0.26
12093.0,593.9,0.26
12174.0,593.9,0.26
12255.0,593.9,0.26
12336.0,593.9,0.26
12417.0,593.9,0.26
12498.0,593.9,0.26
12579.0,593.9,0.26
12660.0,593.9,0.26
12741.0,593.9,0.26
12822.0,593.9,0.26
12903.0,593.9,0.26
12984.0,593.9,0.26
13065.0,593.9,0.26
13146.0,593.9,0.26
13227.0,593.9,0.259
13308.0,593.9,0.259
13389.0,593.9,0.259
13470.0,593.9,0.259
13551.0,593.9,0.259
13632.0,593.9,0.259
13713.0,593.9,0.259
13794.0,593.9,0.259
13875.0,593.9,0.259
13956.0,593.9,0.259
14037.0,593.9,0.259
14118.0,593.9,0.259
14199.0,593.9,0.258
14280.0,593.9,0.258
14361.0,593.9,0.259
14442.0,593.9,0.259
14523.0,593.9,0.259
14604.0,593.9,0.259
14685.0,593.9,0.258
14766.0,593.9,0.258
14847.0,593.9,0.258
14928.0,593.9,0.258
15009.0,593.9,0.258
15090.0,593.9,0.258
15171.0,593.9,0.258
15252.0,593.9,0.258
15333.0,593.9,0.258
15414.0,593.9,0.258
15495.0,593.9,0.258
15576.0,593.9,0.258
15657.0,593.9,0.258
15738.0,593.9,0.257
15819.0,593.9,0.258
15900.0,593.9,0.257
15981.0,593.9,0.258
16062.0,593.9,0.257
16143.0,593.9,0.257
16224.0,593.9,0.257
16305.0,593.9,0.257
16386.0,593.9,0.257
16467.0,593.9,0.257
16548.0,593.9,0.257
16629.0,593.9,0.257
16710.0,593.9,0.257
16791.0,593.9,0.257
16872.0,593.9,0.257
16953.0,593.9,0.257
17034.0,593.9,0.257
17115.0,593.9,0.257
17196.0,593.9,0.256
17277.0,593.9,0.256
17358.0,593.9,0.256
17439.0,593.9,0.256
17520.0,593.9,0.256
17601.0,593.9,0.256
17682.0,593.9,0.256
17763.0,593.9,0.256
17844.0,593.9,0.256
17925.0,593.9,0.256
18006.0,593.9,0.256
18087.0,593.9,0.256
18168.0,593.9,0.256
18249.0,593.9,0.256
18330.0,593.9,0.256
18411.0,593.9,0.256
18492.0,593.9,0.256
18573.0,593.9,0.256
18654.0,593.9,0.256
18735.0,593.9,0.256
18816.0,593.9,0.256
18897.0,593.9,0.256
18978.0,593.9,0.256
19059.0,593.9,0.256
19140.0,593.9,0.256
19221.0,593.9,0.256
19302.0,593.9,0.256
19383.0,593.9,0.256
19464.0,593.9,0.256
19545.0,593.9,0.256
19626.0,593.9,0.256
19707.0,593.9,0.256
19788.0,593.9,0.256
19869.0,593.9,0.256
19950.0,593.9,0.256
20031.0,593.9,0.255
20112.0,593.9,0.255
20193.0,593.9,0.255
20274.0,593.9,0.255
20355.0,593.9,0.255
20436.0,593.9,0.255
20517.0,593.9,0.255
20598.0,593.9,0.255
20679.0,593.9,0.255
20760.0,593.9,0.255
20841.0,593.9,0.255
20922.0,593.9,0.255
21003.0,593.9,0.255
21084.0,593.9,0.255
21165.0,593.9,0.255
21246.0,593.9,0.255
21327.0,593.9,0.255
21408.0,593.9,0.255
21489.0,593.9,0.255
21570.0,593.9,0.255
21651.0,593.9,0.254
21732.0,593.9,0.254
21813.0,593.9,0.254
21894.0,593.9,0.254
21975.0,593.9,0.254
22056.0,593.9,0.254
22137.0,593.9,0.254
22218.0,593.9,0.254
22299.0,593.9,0.254
22380.0,593.9,0.254
22461.0,593.9,0.254
22542.0,593.9,0.254
22623.0,593.9,0.254
22704.0,593.9,0.254
22785.0,593.9,0.254
22812.0,593.9,0.254