File: PMMA/Validation_Results/Aalto-II-PMMA-Gasification/Aalto_II_PMMA_Gasification_q25_Temp.csv
Time,T_back
s,K
0,293.15
5.1,293.11
10.1,293.07
15.1,293.09
20,293.36
25,294.11
30,295.45
35,297.4
40,299.9
45,302.85
50,306.17
55,309.8
60,313.66
65,317.7
70,321.87
75,326.14
80.1,330.55
85.1,334.93
90.1,339.32
95.1,343.71
100.1,348.1
105.1,352.46
110.1,356.8
115.1,361.09
120.1,365.35
125.1,369.56
130.1,373.71
135.1,377.82
140.1,381.86
145.1,385.85
150.1,389.78
155.1,393.65
160.1,397.46
165.1,401.2
170.1,404.88
175.1,408.5
180.1,412.06
185.1,415.55
190.1,418.98
195.1,422.34
200.1,425.64
205.1,428.88
210.1,432.06
215.1,435.17
220.1,438.23
225.1,441.22
230.1,444.16
235.1,447.03
240.1,449.86
245.1,452.62
250.1,455.34
255.1,458
260.1,460.61
265.1,463.18
270.1,465.69
275.1,468.17
280.1,470.61
285.1,473
290.1,475.36
295.1,477.69
300.1,479.98
305,482.2
310,484.44
315,486.65
320,488.83
325,491
330,493.13
335,495.25
340,497.34
345,499.42
350,501.46
355,503.49
360,505.48
365,507.46
370,509.4
375,511.32
380,513.2
385,515.06
390,516.88
395,518.67
400,520.43
405,522.15
410,523.84
415,525.51
420,527.13
425,528.73
430,530.3
435,531.83
440,533.34
445,534.82
450,536.27
455,537.69
460,539.09
465,540.46
470,541.8
475,543.12
480,544.41
485,545.68
490,546.92
495,548.14
500,549.33
505,550.51
510,551.65
515,552.78
520,553.89
525,554.98
530,556.04
535,557.09
540,558.11
545,559.12
550,560.11
555,561.08
560,562.04
565,562.97
570,563.9
575,564.8
580,565.7
585,566.57
590,567.44
595,568.29
600,569.13
605,569.96
610,570.77
615,571.58
620,572.38
625,573.17
630,573.95
635,574.72
640,575.49
645,576.24
650,577
655,577.74
660,578.49
665,579.22
670,579.96
675,580.69
680,581.42
685,582.14
690,582.87
695,583.59
700,584.31
705,585.04
710,585.76
715,586.48
720,587.21
725,587.93
730,588.66
735,589.4
740,590.13
745,590.87
750,591.61
755,592.36
760,593.11
765,593.87
770,594.64
775,595.41
780,596.19
785,596.97
790,597.76
795,598.56
800,599.37
805,600.19
810,601.02
815,601.86
820,602.71
825,603.57
830,604.44
835,605.33
840,606.23
845,607.14
850,608.07
855,609.01
860,609.97
865,610.95
870,611.95
875,612.96
880,614
885,615.06
890,616.14
895,617.25
900,618.38
905,619.53
910,620.72
915,621.94
920,623.19
925,624.47
930,625.8
935,627.16
940,628.57
945,630.02
950,631.53
955,633.09
960,634.71
965,636.4
970,638.16
975,640
980,641.94
985,643.97
990,646.13
995,648.41
1000,650.85
1005,653.48
1010,656.32
1015,659.41
1020,662.84
1025,666.67
1030,671.03
1035,676.12
1040,682.23
1045,689.84
1050,699.75
1055,712.83
1060,727.1
1065,735.72
1070,739.48
1075,741.67
1080,743.23
1085,744.45
1090,745.44
1095,746.27
1100,746.98
1105,747.6
1110,748.15
1115,748.65
1120,749.1
1125,749.52
1130,749.91
1135,750.26
1140,750.6
1145,750.91
1150,751.2
1155,751.48
1160,751.74
1165,751.98
1170,752.21
1175,752.43
1180,752.64
1185,752.84
1190,753.03
1195,753.21
1200,753.39