File: PMMA/Calibration_Data/Edinburgh/Edinburgh_Cone_25kW_6.csv
Time,Mass,HRR
[s],[g],[kW/m2]
0,71.9517,-0.042806
3.03,71.9417,0.137883
6.05,71.9617,0.0957158
9.09,71.9617,0.266899
12.08,71.9617,0.0662494
15.1,71.9517,0.246712
18.11,71.9417,0.212061
21.16,71.9517,0.325521
24.17,71.9517,0.335211
27.21,71.9417,0.306845
30.23,71.9317,0.399311
33.23,71.9417,0.382492
36.23,71.9417,0.658882
39.23,71.9217,0.687489
42.23,71.9317,0.708228
45.23,71.9417,0.375032
48.24,71.9317,0.255408
51.26,71.9117,0.480896
54.23,71.9117,0.264954
57.23,71.9017,0.491903
60.25,71.8817,0.381822
63.27,71.8117,0.301859
66.23,71.6817,0.352593
69.24,71.4517,0.539217
72.23,71.1517,0.567982
75.27,70.8117,0.662055
78.28,70.4817,0.541121
81.3,70.1317,-2.38763
84.33,69.7817,0.58665
87.32,69.4117,3.51201
90.33,69.0517,11.8974
93.34,68.6817,27.3429
96.34,68.3017,45.9717
99.36,67.9117,76.617
102.36,67.5217,99.6348
105.36,67.1317,124.013
108.36,66.7417,156.429
111.37,66.3417,173.872
114.37,65.9517,196.994
117.36,65.5517,218.443
120.36,65.1717,236.112
123.36,64.7717,251.244
126.41,64.3517,262.017
129.42,63.9317,275.075
132.43,63.5317,282.557
135.45,63.1117,291.637
138.47,62.6717,301.841
141.48,62.2417,306.316
144.48,61.8317,313.347
147.48,61.4217,317.693
150.49,61.0017,321.539
153.48,60.5617,321.661
156.49,60.1217,328.792
159.49,59.7017,331.787
162.48,59.2717,343.771
165.49,58.8317,336.966
168.48,58.3917,345.417
171.49,57.9417,354.031
174.5,57.5117,348.319
177.53,57.0717,347.743
180.57,56.6317,359.831
183.61,56.1817,357.491
186.61,55.7317,348.176
189.62,55.2917,357.67
192.65,54.8417,359.671
195.68,54.3717,368.231
198.7,53.9317,367.238
201.74,53.4617,354.672
204.73,53.0217,372.462
207.74,52.5517,360.906
210.73,52.1117,380.529
213.73,51.6517,376.991
216.73,51.1817,383.783
219.76,50.7117,374.03
222.82,50.2317,386.08
225.83,49.7717,371.165
228.86,49.3017,386.958
231.87,48.8217,380.974
234.91,48.3417,378.999
237.91,47.8517,386.56
240.91,47.3817,391.459
243.92,46.8817,390.069
246.96,46.4017,394.212
249.97,45.9117,386.528
252.99,45.4317,398.405
255.98,44.9517,388.525
258.98,44.4717,394.533
261.99,43.9917,401.578
264.98,43.4717,407.801
267.99,42.9717,404.552
270.99,42.4617,410.259
273.99,41.9617,392.632
276.98,41.4417,419.883
279.99,40.9117,412.545
283.03,40.4017,398.435
286.07,39.8517,415.157
289.11,39.3217,420.191
292.1,38.7917,407.332
295.16,38.2417,421.931
298.17,37.7117,423.011
301.22,37.1817,425.858
304.22,36.6417,426.749
307.22,36.1117,434.684
310.24,35.5517,437.505
313.24,35.0117,438.994
316.25,34.4717,434.321
319.28,33.9217,439.642
322.29,33.3617,458.986
325.35,32.8217,444.305
328.35,32.2617,447.413
331.37,31.7117,447.175
334.41,31.1517,443.933
337.41,30.5817,453.964
340.42,30.0117,451.679
343.42,29.4517,453.439
346.42,28.8817,457.88
349.44,28.3217,453.84
352.46,27.7217,457.753
355.49,27.1417,467.286
358.49,26.5417,476.615
361.49,25.9317,452.549
364.52,25.3317,472.984
367.49,24.6917,460.919
370.48,24.0617,465.958
373.49,23.4617,468.382
376.49,22.8517,483.635
379.49,22.2317,472.93
382.48,21.6217,486.255
385.49,21.0317,498.802
388.51,20.4317,503.528
391.53,19.8317,516.692
394.53,19.2417,526.838
397.53,18.6517,520.489
400.56,18.0917,522.815
403.59,17.5317,535.024
406.6,17.0117,541.408
409.62,16.5217,531.54
412.62,16.0517,549.618
415.61,15.6117,561.611
418.61,15.2017,567.951
421.6,14.8217,560.873
424.6,14.4617,574.556
427.61,14.1417,572.083
430.61,13.8417,565.593
433.62,13.5617,548.387
436.64,13.2917,542.024
439.64,13.0317,532.281
442.64,12.7817,519.934
445.66,12.5517,496.037
448.68,12.3317,471.479
451.69,12.1017,461.166
454.71,11.8917,433.387
457.73,11.6717,407.956
460.74,11.4717,389.361
463.75,11.2717,367.619
466.75,11.0717,340.104
469.75,10.8717,320.859
472.75,10.6817,300.504
475.76,10.5017,289.024
478.76,10.3417,268.382
481.77,10.1717,252.373
484.79,10.0017,244.465
487.79,9.85167,236.05
490.81,9.69167,219.978
493.81,9.52167,212.874
496.82,9.35167,207.812
499.83,9.20167,199.215
502.84,9.04167,190.636
505.85,8.89167,183.489
508.85,8.72167,185.202
511.86,8.57167,178.209
514.87,8.43167,173.5
517.87,8.28167,169.188
520.87,8.14167,162.631
523.86,8.00167,161.483
526.87,7.85167,160.115
529.87,7.71167,156.235
532.89,7.56167,152.527
535.91,7.42167,151.085
538.93,7.29167,148.127
541.95,7.15167,143.629
544.96,7.02167,145.163
547.98,6.89167,142.425
550.97,6.76167,137.136
553.98,6.63167,138.723
556.99,6.49167,135.022
559.98,6.38167,132.919
562.98,6.25167,131.46
565.98,6.13167,128.942
568.99,6.01167,127.515
571.98,5.90167,126.877
574.99,5.78167,123.468
577.99,5.66167,122.284
581.01,5.55167,120.618
584.03,5.44167,119.428
587.04,5.34167,115.767
590.05,5.23167,119.59
593.05,5.14167,113.691
596.08,5.04167,112.788
599.1,4.94167,114.625
602.11,4.83167,109.529
605.1,4.74167,107.6
608.11,4.66167,108.244
611.13,4.56167,105.719
614.16,4.47167,105.845
617.17,4.38167,103.717
620.17,4.28167,100.144
623.18,4.21167,101.548
626.19,4.13167,97.1717
629.19,4.04167,96.25
632.19,3.95167,95.8023
635.21,3.87167,92.2691
638.22,3.80167,89.5232
641.23,3.71167,91.5054
644.23,3.63167,87.9352
647.23,3.55167,88.3248
650.25,3.47167,84.108
653.26,3.39167,83.5669
656.27,3.31167,83.1505
659.3,3.23167,81.9225
662.3,3.17167,81.0313
665.4,3.09167,83.063
668.33,3.01167,77.2796
671.32,2.94167,78.2464
674.32,2.87167,78.6837
677.35,2.80167,76.118
680.35,2.73167,76.1867
683.37,2.65167,72.1371
686.36,2.59167,73.9277
689.36,2.50167,72.8915
692.38,2.43167,70.1379
695.4,2.36167,72.846
698.42,2.28167,71.0601
701.46,2.23167,67.2216
704.49,2.17167,68.6676
707.49,2.10167,68.5248
710.48,2.04167,65.8685
713.48,1.97167,67.2785
716.49,1.90167,65.2835
719.51,1.83167,66.5219
722.54,1.76167,62.9596
725.56,1.70167,64.5275
728.58,1.64167,63.893
731.61,1.58167,61.6921
734.6,1.51167,61.0085
737.6,1.45167,61.1249
740.61,1.39167,61.7338
743.6,1.32167,61.6731
746.62,1.26167,60.9273
749.62,1.20167,61.9515
752.65,1.14167,58.6137
755.7,1.07167,59.0439
758.71,1.01167,58.2598
761.73,0.951667,59.6211
764.74,0.891667,58.5467
767.73,0.831667,59.7586
770.73,0.771667,56.7094
773.73,0.711667,56.3022
776.74,0.651667,56.7018
779.73,0.591667,57.1462
782.78,0.531667,56.0654
785.81,0.481667,56.8096
788.85,0.421667,57.9321
791.87,0.361667,57.1889
794.9,0.301667,57.9073
797.92,0.251667,57.036
800.97,0.201667,57.5234
803.98,0.151667,57.0906
806.98,0.101667,54.4368
809.99,0.0416667,54.8745
812.98,-0.008333333,54.1651
815.98,-0.0683333,53.9471
818.98,-0.118333,54.362
821.98,-0.178333,51.7134
824.98,-0.228333,50.7086
827.99,-0.278333,51.6525
830.99,-0.318333,51.5411
833.98,-0.368333,51.5312
836.98,-0.408333,51.4899
839.99,-0.458333,51.3272
842.99,-0.498333,51.4582
845.98,-0.548333,48.4517
848.98,-0.568333,47.4197
851.98,-0.628333,48.3303
854.98,-0.658333,48.5621
857.99,-0.688333,48.6852
860.99,-0.718333,48.3518
864,-0.758333,45.9385
867.04,-0.798333,46.8941
870.07,-0.838333,46.034
873.12,-0.868333,45.8509
876.14,-0.908333,43.1937
879.15,-0.938333,43.5517
882.19,-0.978333,42.8647
885.21,-1.00833,40.4019
888.23,-1.01833,40.0972
891.24,-1.03833,40.5083
894.23,-1.06833,38.2909
897.27,-1.11833,37.528