File: PMMA/Calibration_Data/Edinburgh/Edinburgh_Cone_25kW_5.csv
Time,Mass,HRR
[s],[g],[kW/m2]
0,70.2983,0.799384
2.99,70.2883,0.764207
5.99,70.2783,0.930012
9,70.2783,1.03122
12.01,70.2783,0.984647
15,70.2783,0.941942
18,70.2783,1.09075
21.01,70.2783,0.804517
24.03,70.2783,1.04715
27.06,70.2683,0.946375
30.09,70.2783,0.949849
33.12,70.2683,0.950431
36.13,70.2583,1.06944
39.13,70.2483,0.986557
42.14,70.2483,1.05196
45.16,70.2583,0.938978
48.19,70.2383,1.14131
51.22,70.2383,1.05024
54.24,70.2283,1.25503
57.25,70.2183,1.18328
60.25,70.1883,1.2886
63.27,70.1283,0.892094
66.29,70.0083,0.959414
69.34,69.7983,0.920458
72.38,69.5083,0.805642
75.37,69.1783,0.746539
78.38,68.8283,0.755678
81.38,68.4683,0.738325
84.37,68.1083,0.693076
87.38,67.7483,3.45264
90.37,67.3683,8.80484
93.37,66.9883,19.4589
96.37,66.5983,36.4866
99.38,66.2183,56.4794
102.38,65.8283,85.8411
105.38,65.4283,111.828
108.4,65.0383,140.305
111.45,64.6283,158.312
114.49,64.2383,180.133
117.5,63.8383,200.658
120.5,63.4383,214.765
123.5,63.0283,236.818
126.5,62.6183,246.791
129.5,62.2083,256.888
132.5,61.7883,265.726
135.5,61.3783,276.933
138.49,60.9483,284.836
141.5,60.5183,292.396
144.49,60.0983,292.571
147.5,59.6683,302.482
150.5,59.2383,304.207
153.51,58.8083,312.145
156.55,58.3683,315.706
159.49,57.9183,328.593
162.5,57.4883,327.872
165.5,57.0383,327.038
168.5,56.5883,331.7
171.5,56.1383,348.837
174.51,55.6883,339.255
177.5,55.2383,346.277
180.49,54.7983,339.415
183.5,54.3483,350.495
186.51,53.8883,347.518
189.5,53.4283,351.705
192.51,52.9783,350.267
195.54,52.5183,359.669
198.57,52.0483,361.692
201.58,51.5683,360.67
204.61,51.0983,364.657
207.64,50.6283,365.165
210.66,50.1583,376.392
213.69,49.6683,370.526
216.73,49.1983,369.21
219.76,48.7083,361.192
222.74,48.2183,369.553
225.76,47.7383,376.214
228.76,47.2483,375.381
231.8,46.7483,387.591
234.81,46.2483,388.27
237.85,45.7583,394.276
240.88,45.2583,385.643
243.87,44.7483,374.851
246.88,44.2383,377.773
249.88,43.7383,393.753
252.87,43.2183,384.682
255.92,42.6783,381.283
258.94,42.1583,382.732
261.97,41.6183,393.619
264.97,41.0983,387.938
268.01,40.5583,399.543
271.04,40.0283,418
274.07,39.4783,392.706
277.08,38.9583,407.207
280.09,38.4283,425.242
283.13,37.8783,414.459
286.13,37.3683,407.926
289.14,36.8283,422.161
292.17,36.2883,427.021
295.18,35.7483,426.223
298.21,35.2183,431.459
301.23,34.6583,437.112
304.26,34.0983,425.914
307.25,33.5483,429.569
310.25,32.9883,438.184
313.25,32.4283,441.42
316.25,31.8583,446.271
319.25,31.2983,443.881
322.24,30.7083,437.308
325.25,30.1283,455.551
328.26,29.5383,441.349
331.25,28.8883,438.8
334.26,28.2483,447.887
337.25,27.6183,442.683
340.26,27.0083,453.419
343.26,26.3883,463.487
346.28,25.7683,465.499
349.31,25.1283,469.82
352.33,24.5083,465.156
355.38,23.9083,486.117
358.38,23.2983,494.369
361.38,22.6983,492.777
364.37,22.1183,495.488
367.39,21.5383,512.222
370.42,20.9883,511.115
373.45,20.4283,523.203
376.49,19.8883,535.62
379.51,19.3783,535.726
382.51,18.8783,537.35
385.52,18.3883,537.071
388.56,17.9283,524.283
391.57,17.4983,554.814
394.62,17.0883,540.328
397.63,16.6883,537.282
400.63,16.3183,546.52
403.62,15.9583,530.169
406.62,15.6283,521.69
409.63,15.3183,525.087
412.62,15.0083,520.488
415.63,14.7183,514.791
418.62,14.4483,490.357
421.63,14.1783,478.82
424.63,13.9283,467.377
427.62,13.6983,446.059
430.63,13.4783,424.989
433.65,13.2483,420.651
436.67,13.0383,391.662
439.69,12.8283,385.233
442.71,12.6183,363.915
445.75,12.4283,347.639
448.75,12.2383,328.877
451.76,12.0583,311.002
454.75,11.8783,298.605
457.77,11.6983,289.217
460.75,11.5183,267.861
463.74,11.3583,261.482
466.74,11.1983,248.973
469.75,11.0383,241.426
472.78,10.8783,229.747
475.83,10.7183,218.393
478.86,10.5683,210.344
481.87,10.4183,197.765
484.89,10.2783,192.537
487.89,10.1183,185.944
490.93,9.98833,181.429
493.95,9.84833,170.675
496.98,9.71833,168.403
499.99,9.57833,165.839
503,9.44833,159.963
506,9.32833,156.828
509,9.19833,153.78
512,9.08833,150.07
515,8.94833,145.514
518,8.83833,142.607
521.01,8.71833,140.613
524,8.59833,137.267
526.99,8.47833,132.394
530.01,8.36833,132.299
532.99,8.24833,129.278
536,8.13833,126.394
539,8.02833,124.878
542.01,7.91833,122.105
545,7.80833,118.99
547.99,7.69833,118.816
551.03,7.59833,114.786
554.07,7.49833,118.038
557.09,7.39833,111.883
560.11,7.29833,110.25
563.12,7.19833,108.148
566.12,7.09833,106.711
569.12,6.99833,106.235
572.12,6.91833,102.747
575.12,6.81833,103.948
578.13,6.71833,100.26
581.12,6.61833,101.898
584.12,6.52833,99.4976
587.12,6.44833,98.7205
590.13,6.34833,96.6676
593.12,6.24833,95.7942
596.13,6.16833,93.9463
599.13,6.08833,90.4752
602.13,5.99833,92.0075
605.13,5.90833,87.0965
608.12,5.82833,88.4909
611.13,5.75833,90.1271
614.12,5.67833,86.4015
617.16,5.59833,87.0679
620.18,5.51833,83.6773
623.22,5.44833,84.1677
626.25,5.36833,84.6076
629.25,5.29833,82.5584
632.25,5.21833,81.4995
635.25,5.15833,79.4112
638.27,5.07833,79.6214
641.31,5.01833,76.4868
644.34,4.93833,76.7189
647.38,4.86833,78.3106
650.37,4.79833,75.3933
653.37,4.72833,74.0205
656.38,4.66833,75.0171
659.38,4.59833,72.6514
662.37,4.53833,73.0743
665.44,4.47833,69.4656
668.44,4.41833,71.3097
671.48,4.35833,68.9636
674.51,4.29833,67.3849
677.7,4.23833,66.7992
680.57,4.17833,67.2626
683.59,4.11833,65.1983
686.64,4.05833,64.7506
689.76,4.00833,62.3098
692.69,3.94833,63.359
695.72,3.88833,63.196
698.73,3.83833,60.23
701.74,3.77833,60.0294
704.8,3.73833,60.9994
707.85,3.68833,56.8179
711.1,3.64833,57.8135
713.96,3.58833,56.6503
717.01,3.53833,55.8595
720.02,3.48833,55.8454
723.09,3.43833,55.3819
726.12,3.38833,55.7172
729.12,3.34833,52.0987
732.31,3.28833,52.4915
735.21,3.23833,52.6544
738.26,3.19833,49.8576
741.32,3.15833,50.8846
744.36,3.10833,50.9268
747.37,3.06833,47.861
750.37,3.02833,48.4939
753.55,2.97833,47.6496
756.43,2.93833,47.9383
759.49,2.90833,44.4757
762.5,2.85833,45.9577
765.49,2.83833,44.842
768.62,2.78833,45.5456
771.56,2.75833,42.6255
774.59,2.71833,43.2265
777.65,2.68833,43.3172
779.69,2.65833,43.3599