File: PMMA/Calibration_Data/Edinburgh/Edinburgh_Cone_25kW_2.csv
Time,Mass,HRR,Back Temp
[s],[g],[kW/m2],[K]
0,12.2867,-0.2,289.25
5.1,51.8667,-0.3,289.25
10.1,21.9867,2.9,289.35
15.2,69.1767,3,289.35
20.3,69.1667,2.7,289.35
25.3,69.1667,2.8,289.35
30.4,69.1467,6.2,289.35
35.5,69.1167,5.6,289.45
40.6,69.0767,5.7,289.45
45.6,69.0467,2.2,289.55
50.7,69.0267,2.4,289.65
55.8,68.9667,-0.9,289.75
60.8,68.9267,-0.8,289.75
66.7,68.8567,-0.6,289.95
71,68.8767,-0.6,290.05
76.1,68.8567,-0.3,290.15
81.1,68.8167,-0.4,290.35
86.2,68.7967,-3.7,290.55
91.3,68.7467,-3.9,290.75
96.3,68.7067,-0.4,290.95
101.4,68.6367,-4.1,291.15
106.5,68.5267,-1.7,291.45
111.5,68.2267,-0.7,291.75
116.6,67.6667,-0.5,292.05
121.7,67.0567,8.8,292.45
126.8,66.4567,49.7,292.95
131.8,65.8267,104,293.55
136.9,65.2067,162.3,294.15
142,64.5667,202.4,294.85
147,63.9367,225.4,295.55
152.1,63.2967,251.5,296.25
157.2,62.6567,259.3,296.85
162.2,62.0067,275.9,297.55
168.1,61.2467,284,298.35
172.4,60.7067,291.6,299.05
177.5,60.0567,289.1,299.75
182.5,59.3967,301.7,300.45
187.6,58.7467,293.7,301.15
192.7,58.1067,296.3,301.85
197.7,57.5167,302.1,302.55
202.8,56.8667,304.6,303.15
207.9,56.2367,300.2,303.85
212.9,55.5567,312.5,304.55
218,54.8767,297.8,305.15
223.1,54.2167,314.6,305.95
228.2,53.5567,310.5,306.65
233.2,52.9467,307.3,307.35
238.3,52.2967,312,308.05
243.4,51.6267,314.4,308.75
248.4,50.9767,316.3,309.45
253.5,50.3067,302.8,310.25
258.6,49.6267,300.9,310.95
263.6,48.9467,309.8,311.75
269.5,48.1667,315.6,312.55
273.8,47.5667,319.7,313.15
278.9,46.8567,313.2,313.85
283.9,46.1667,315.8,314.65
289,45.4567,321.8,315.45
294.1,44.7467,320,316.15
299.1,44.0567,324.6,316.95
304.2,43.3367,340.7,317.65
309.3,42.5867,325.1,318.45
314.3,41.8667,330,319.15
319.4,41.1267,330.3,320.25
325.5,40.2067,336.2,320.85
330.6,39.4567,337.2,321.65
335.6,38.7167,347.9,322.35
340.7,37.9367,344.7,323.15
345.8,37.1467,352.6,323.95
350.8,36.3667,340.6,324.75
355.9,35.5767,366.4,325.55
361,34.7867,364.5,326.55
366.1,34.0267,369.6,327.55
371.8,33.1467,372.5,328.75
376.2,32.4767,368.5,329.85
381.3,31.7167,365,331.05
386.3,30.9867,368.7,332.25
391.4,30.2467,365.3,333.45
396.5,29.5267,369.9,334.75
401.5,28.7767,367,336.05
406.6,28.0567,373.1,337.45
411.7,27.3567,361,338.85
416.8,26.7067,350.8,340.25
421.8,26.0067,346.5,341.75
426.9,25.3567,345.5,343.15
432,24.7267,334.8,344.65
437,24.0667,331.4,346.15
442.1,23.4667,320.1,347.65
447.2,22.9067,308.3,349.15
452.2,22.2867,296.3,350.65
457.3,21.7067,304.4,352.25
462.4,21.1267,294.8,353.85
467.5,20.5367,283.7,355.35
473.3,19.8667,288.5,357.15
477.6,19.3567,287.1,358.65
482.7,18.7267,281.2,360.35
487.8,18.2067,284.8,361.95
492.8,17.6467,285.8,363.75
497.9,17.1167,278.6,365.45
503,16.5467,275.3,367.15
508,16.0467,267.6,368.95
513.1,15.5367,268.2,370.75
518.2,15.0567,268.6,371.25
523.2,14.6067,253.8,370.95
528.3,14.0967,253.9,372.05
533.4,13.5867,245.8,375.35
538.5,13.2367,229.5,377.85
543.5,12.8767,230.5,380.05
548.6,12.4867,216.6,382.05
553.7,12.1267,208.3,384.15
558.7,11.8067,194,386.25
563.8,11.4667,192.5,388.35
568.9,11.1567,186.6,390.45
574.9,10.8367,173.7,392.95
579,10.5967,166.4,394.85
584.1,10.3567,156,397.05
589.2,10.0967,146.6,399.35
594.2,9.83667,144.6,401.65
599.3,9.60667,137.8,403.85
604.4,9.40667,132.4,406.15
609.4,9.18667,119.9,408.35
614.5,8.99667,117.2,410.55
619.6,8.80667,109.9,412.75
624.6,8.59667,105.2,414.95
629.7,8.46667,98.9,417.15
634.8,8.29667,93.1,419.25
639.9,8.10667,88.6,421.45
644.9,7.98667,85.8,423.45
650,7.84667,82.5,425.55
655.1,7.71667,76.5,427.65
660.1,7.62667,69.6,429.65
665.2,7.49667,66,431.65
670.3,7.37667,59.1,433.65
676.1,7.28667,59.9,435.75
680.4,7.23667,56.2,437.35
685.5,7.12667,53.9,439.15
690.5,6.99667,51.2,441.05
695.6,6.86667,47.8,442.85
700.7,6.71667,48.6,444.65
705.8,6.60667,45,446.45
710.8,6.51667,42.5,448.25
715.9,6.43667,43.2,450.05
721,6.34667,42.8,451.75
726,6.28667,39.3,453.45
731.1,6.24667,40.8,455.05
736.2,6.17667,36.8,456.65
741.2,6.08667,37.9,458.25
746.3,6.01667,34.7,459.85
751.4,5.92667,31.4,461.45
756.5,5.83667,31.7,463.15
761.5,5.76667,28.9,464.65
766.6,5.70667,29.1,466.15
771.7,5.59667,29.2,467.65
777.4,5.48667,28.3,469.25
781.8,5.44667,28.6,470.65
786.9,5.37667,28.9,472.05
791.9,5.30667,29.3,473.45
797,5.27667,30.1,474.85
802.1,5.21667,26.6,476.25
807.2,5.13667,26.6,477.75
812.2,5.09667,27.3,479.15
817.3,5.04667,27.3,480.55
822.4,4.95667,24.5,481.85
827.4,4.93667,24.7,483.25
832.5,4.89667,23.6,484.65
837.6,4.88667,24.1,485.95
842.6,4.84667,24.2,487.25
847.7,4.75667,24.2,488.55
852.8,4.70667,23.9,489.85
857.9,4.70667,24.2,491.15
862.9,4.63667,24.1,492.35
868,4.62667,20.7,493.65
873.1,4.54667,20.4,494.85
878.9,4.45667,20.7,496.25
883.2,4.40667,21.2,497.35
888.3,4.34667,21,498.45
893.3,4.25667,20.9,499.75
898.4,4.15667,21,500.95
903.5,4.15667,21.3,502.15
908.6,4.06667,21.6,503.35
913.6,4.03667,17.8,504.55
918.7,4.02667,18.2,505.75
923.8,3.90667,17.7,506.85
928.8,3.83667,18.2,508.05
933.9,3.79667,17.8,509.15
939,3.72667,18.4,510.35
944,3.69667,18.4,511.45
949.1,3.65667,19.2,512.55
954.2,3.57667,18.8,513.65
959.3,3.53667,18.9,514.85
964.3,3.49667,18,515.85
969.4,3.38667,18.5,516.95
974.5,3.33667,18.2,518.05
980.3,3.28667,18.6,519.25
984.6,3.25667,15.2,520.15
989.7,3.25667,15.4,521.25
994.7,3.19667,15.2,522.25
999.8,3.13667,15.4,523.25
1004.9,3.09667,15.8,524.25
1010,3.01667,15.3,525.25
1015,2.99667,15.6,526.25
1020.1,2.89667,15.7,527.25
1025.2,2.84667,15.9,528.25
1030.2,2.82667,15.8,529.25
1035.3,2.78667,15.5,530.25
1040.4,2.75667,15.4,531.25
1045.4,2.67667,15.6,532.15
1050.5,2.65667,15.4,533.15
1055.6,2.58667,15.8,534.15
1060.7,2.54667,16.2,535.05
1065.7,2.48667,12.5,535.95
1070.8,2.46667,12.7,536.95
1075.9,2.40667,13,537.85
1081.7,2.35667,13,538.95
1086,2.34667,12.7,539.65
1091.1,2.29667,12.7,540.55
1096.1,2.24667,12.7,541.35
1101.2,2.18667,12.9,542.25
1106.3,2.18667,12.8,543.15
1111.4,2.13667,13.2,543.95
1116.4,2.14667,9.8,544.65
1121.5,2.11667,10,545.55
1126.6,2.09667,9.8,546.25
1131.6,2.04667,10.2,547.05
1136.7,1.99667,10,547.85
1141.8,1.95667,10.2,548.75
1146.8,1.88667,10.3,549.45
1151.9,1.84667,10,550.25
1157,1.80667,10.2,551.05
1162.1,1.75667,10.2,551.85
1167.1,1.70667,10,552.55
1172.2,1.68667,10.1,553.25
1177.3,1.65667,10,554.05
1183.3,1.60667,10.1,554.75
1187.4,1.60667,6.6,555.45
1192.5,1.58667,7,556.15
1197.6,1.63667,7.1,556.75
1202.6,1.57667,7.2,557.35
1207.7,1.52667,6.8,558.05
1212.8,1.49667,3.5,558.75
1217.8,1.48667,7.2,559.35
1222.9,1.45667,3.8,559.95
1228,1.43667,3.8,560.55
1233,1.40667,3.9,561.15