File: PMMA/Calibration_Data/Edinburgh/Edinburgh_Cone_65kW_4.csv
Time,Mass,HRR
[s],[g],[kW/m2]
0,71.16,-0.01795
2,71.66,0.0173823
4,72.16,0.0865367
6.01,72.7,-0.0352042
8.03,73.23,-0.0481364
10.06,73.8,-0.0147927
12.08,74.38,0.0339699
14.09,74.94,0.136878
16.11,75.53,2.56863
18.12,76.11,8.56585
20.12,76.71,21.2906
22.13,77.31,43.7739
24.13,77.89,60.9933
26.13,78.51,97.3129
28.12,79.11,140.314
30.13,79.72,168.015
32.13,80.34,221.225
34.12,80.95,251.63
36.14,81.58,284.716
38.16,82.19,312.881
40.16,82.81,386.79
42.17,83.43,415.747
44.17,84.05,447.535
46.18,84.69,446.139
48.18,85.32,497.424
50.19,85.94,488.192
52.19,86.56,534.255
54.2,87.22,539.032
56.22,87.86,579.89
58.21,88.5,577.52
60.21,89.13,590.781
62.23,89.78,635.477
64.23,90.41,621.664
66.24,91.04,632.497
68.25,91.69,648.152
70.26,92.34,662.066
72.25,93.01,652.355
74.25,93.67,696.823
76.24,94.31,669.966
78.26,94.97,680.499
80.26,95.65,713.144
82.26,96.3,678.866
84.26,96.96,700.203
86.26,97.63,707.903
88.25,98.3,733.055
90.25,98.99,736.672
92.25,99.66,719.93
94.25,100.33,732.206
96.26,101.03,723.699
98.26,101.72,732.27
100.25,102.41,709.303
102.25,103.13,756.074
104.25,103.85,720.703
106.26,104.56,739.584
108.26,105.29,770.628
110.26,106.01,742.525
112.25,106.74,742.52
114.25,107.48,715.778
116.26,108.25,709.768
118.25,109.02,750.982
120.24,109.81,721.616
122.26,110.62,703.494
124.25,111.42,768.166
126.26,112.25,747.244
128.25,113.11,757.999
130.24,113.97,733.067
132.26,114.84,767.636
134.25,115.72,756.433
136.25,116.6,838.944
138.25,117.48,788.243
140.24,118.36,786.845
142.24,119.25,738.054
144.25,120.18,802.676
146.25,121.12,795.113
148.25,122.07,808.392
150.25,123.04,914.282
152.24,123.99,858.816
154.25,124.91,861.84
156.25,125.84,891.814
158.26,126.67,928.321
160.26,127.42,963.867
162.26,128.09,1015.58
164.26,128.66,1103.73
166.24,129.13,1117.64
168.25,129.53,1167.85
170.26,129.89,1218.94
172.25,130.23,1238.01
174.24,130.56,1302.29
176.26,130.87,1280.2
178.26,131.17,1320.2
180.29,131.46,1364.53
182.28,131.71,1376.92
184.29,131.99,1386.79
186.3,132.25,1381.44
188.31,132.49,1346.05
190.32,132.74,1318.32
192.33,132.98,1268.77
194.34,133.22,1234.37
196.34,133.45,1176.77
198.34,133.68,1109.49
200.35,133.91,1037.34
202.34,134.14,980.5
204.35,134.37,950.546
206.36,134.59,875.624
208.38,134.79,820.052
210.37,135,767.126
212.37,135.2,705.351
214.38,135.4,688.67
216.38,135.6,631.889
218.42,135.77,593.319
220.44,135.95,547.824
222.45,136.13,511.912
224.48,136.32,493.04
226.5,136.48,469.928
228.5,136.66,445.722
230.49,136.83,428.869
232.5,136.99,404.547
234.5,137.15,387.677
236.49,137.31,372.666
238.5,137.46,359.498
240.5,137.61,345.544
242.5,137.74,336.039
244.51,137.88,323.072
246.71,138.02,308.766
248.5,138.14,303.567
250.51,138.27,290.521
252.49,138.39,283.518
254.5,138.51,273.62
256.5,138.63,269.753
258.5,138.74,262.789
260.5,138.84,253.127
262.5,138.95,248.328
264.5,139.05,244.609
266.5,139.16,230.382
268.5,139.26,224.652
270.5,139.36,223.424
272.5,139.44,221.166
274.5,139.53,213.747
276.5,139.61,207.615
278.5,139.69,197.826
280.51,139.76,194.064
282.53,139.82,192.628
284.54,139.9,183.387
286.56,139.96,179.828
288.56,140.02,171.045
290.6,140.07,167.425
292.61,140.12,164.066
294.62,140.18,159.518
296.62,140.23,157.885
298.63,140.28,150.128
300.63,140.32,143.252
302.62,140.34,137.526
304.63,140.39,137.205
306.63,140.43,131.517
308.62,140.47,129.153
310.62,140.51,122.879
312.63,140.52,119.045
314.63,140.57,113.554
316.63,140.61,109.008
318.63,140.65,107.672
320.63,140.67,99.269
322.63,140.69,98.7751
324.66,140.71,93.0314
326.66,140.74,91.3197
328.67,140.75,86.5106
330.67,140.78,82.9019
332.68,140.8,80.279
334.69,140.83,75.3711
336.7,140.86,73.0509
338.73,140.89,70.1102
340.72,140.91,66.3491
342.73,140.93,62.649
344.74,140.95,61.2569
346.76,140.97,58.9647
348.75,140.98,56.4116
350.75,140.99,54.4907
352.75,141.01,52.0555
354.74,141.02,49.837
356.75,141.04,50.304
358.76,141.04,48.0719
360.75,141.06,45.2481
362.76,141.07,46.617
364.78,141.09,42.9862
366.78,141.09,40.5368
368.81,141.11,40.3897
370.81,141.12,37.4066
372.81,141.14,37.9038
374.82,141.15,35.0901
376.83,141.16,35.4591
378.85,141.18,32.7429
380.86,141.19,33.2168
381.85,141.19,32.9156