File: PMMA/Calibration_Data/Edinburgh/Edinburgh_Cone_65kW_6.csv
Time,Mass,HRR
[s],[g],[kW]
0.0400063,69.59,0.261924
2.04601,69.13,0.286069
4.04501,68.64,0.181773
6.05101,68.13,0.345331
8.05101,67.61,0.327672
10.044,67.09,0.351979
12.038,66.56,0.347682
14.044,66.02,0.270171
16.049,65.46,0.254828
18.048,64.9,7.22529
20.06,64.35,18.4067
22.082,63.79,38.2236
24.094,63.21,66.2522
26.112,62.63,90.3013
28.143,62.06,138.904
30.163,61.45,155.99
32.178,60.89,208.438
34.208,60.27,252.096
36.212,59.68,278.483
38.219,59.12,311.927
40.24,58.53,348.351
42.245,57.94,393.88
44.262,57.34,414.249
46.296,56.75,438.07
48.294,56.15,495.709
50.297,55.56,496.626
52.294,54.95,514.054
54.292,54.34,527.539
56.294,53.75,526.779
58.303,53.15,580.332
60.302,52.54,587.749
62.291,51.93,603.055
64.289,51.32,636.035
66.302,50.7,626.397
68.293,50.09,614.763
70.312,49.46,599.094
72.336,48.84,647.588
74.354,48.2,666.303
76.389,47.57,669.729
78.417,46.92,658.147
80.419,46.27,656.325
82.413,45.63,648.854
84.414,44.97,645.061
86.42,44.31,693.459
88.414,43.69,675.028
90.427,43.04,684.729
92.415,42.38,676.514
94.426,41.7,713.924
96.417,41.03,707.643
98.433,40.36,720.314
100.465,39.67,705.545
102.501,38.99,690.443
104.512,38.28,697.117
106.517,37.59,741.179
108.55,36.87,722.695
110.547,36.15,711.116
112.542,35.43,733.295
114.545,34.68,691.531
116.539,33.95,740.654
118.548,33.19,687.811
120.553,32.42,731.686
122.55,31.65,757.23
124.542,30.88,755.148
126.552,30.05,762.701
128.545,29.22,737.111
130.549,28.4,726.185
132.543,27.57,744.089
134.539,26.71,789.809
136.544,25.88,788.788
138.54,25.04,743.513
140.55,24.21,843.938
142.549,23.33,802.102
144.538,22.44,811.811
146.545,21.53,783.468
148.546,20.59,773.191
150.551,19.65,794.312
152.546,18.71,847.884
154.55,17.82,884.899
156.54,16.93,904.001
158.538,16.15,944.744
160.547,15.48,996.818
162.542,14.95,1053.78
164.539,14.52,1091.68
166.543,14.14,1119.16
168.544,13.79,1157.63
170.547,13.47,1165.78
172.552,13.16,1228.06
174.543,12.86,1242.4
176.553,12.59,1269.22
178.546,12.31,1281.96
180.541,12.03,1307.83
182.552,11.76,1310.3
184.556,11.5,1339.82
186.558,11.25,1311.47
188.593,11.02,1301.64
190.625,10.78,1240.7
192.626,10.55,1219.71
194.654,10.31,1164.51
196.654,10.08,1077.7
198.668,9.86,1033.88
200.704,9.64,943.35
202.727,9.42,904.193
204.746,9.22,839.532
206.783,9.01,772.847
208.791,8.83,744.573
210.788,8.65,675.166
212.802,8.47,641.263
214.795,8.3,604.847
216.79,8.14,559.591
218.81,7.97,550.641
220.828,7.8,503.683
222.864,7.64,479.731
224.867,7.47,457.498
226.884,7.31,432.51
228.923,7.16,410.622
230.92,7.01,393.278
232.929,6.85,373.758
234.956,6.7,364.685
236.959,6.56,345.901
238.98,6.41,329.416
240.981,6.26,317.444
243.008,6.11,299.956
245.04,5.97,303.013
247.039,5.83,281.799
249.05,5.69,278.939
251.043,5.54,267.945
253.043,5.41,261.966
255.053,5.26,259.646
257.049,5.11,246.665
259.044,4.99,236.351
261.049,4.85,231.694
263.047,4.73,229.16
265.043,4.6,222.08
267.068,4.46,215.203
269.057,4.31,212.253
271.081,4.18,209.821
273.104,4.04,205.026
275.122,3.92,199.822
277.155,3.79,196.232
279.163,3.66,194.958
281.162,3.52,194.417
283.173,3.41,184.508
285.178,3.33,188.603
287.17,3.22,181.383
289.172,3.11,182.045
291.163,3.03,180.163
293.167,2.94,175.485
295.172,2.86,173.132
297.176,2.77,173.053
299.17,2.68,170.051
301.175,2.6,170.01
303.176,2.5,174.908
305.168,2.44,165.429
307.194,2.36,165.127
309.232,2.29,163.513
311.249,2.22,162.676
313.267,2.16,156.751
315.281,2.1,154.693
317.297,2.06,151.905
319.3,2.01,146.166
321.288,1.96,146.273
323.299,1.92,140.058
325.302,1.88,138.11
327.293,1.83,135.477
329.299,1.81,131.969
331.289,1.78,128.505
333.299,1.74,123.607
335.302,1.71,118.651
337.298,1.69,111.79
339.289,1.66,109.033
341.299,1.64,106.349
343.295,1.6,100.101
345.291,1.58,97.9041
347.292,1.57,93.4946
349.302,1.53,88.2763
351.308,1.51,86.4667
353.343,1.48,82.6411
355.351,1.47,78.1289
357.37,1.43,76.1889
359.401,1.43,70.3656
361.427,1.4,69.0303
363.423,1.39,63.7805
365.425,1.37,61.1918
367.418,1.36,57.2525
369.425,1.35,55.1578
371.417,1.33,52.4408
373.426,1.31,50.1586
375.413,1.3,48.6922
377.416,1.29,45.6507
379.415,1.27,43.2596
381.419,1.27,40.8744
383.422,1.26,37.7992
385.419,1.25,38.8282
387.416,1.23,36.0109
389.433,1.21,33.0831
391.452,1.2,32.7154
393.465,1.19,30.4196
395.473,1.17,31.199
397.488,1.18,27.9782
399.477,1.17,25.502
401.492,1.16,25.821
403.504,1.13,22.7989
405.497,1.13,23.5206
407.497,1.13,23.636
409.491,1.12,20.4743
411.519,1.11,21.3841
413.528,1.09,21.426
415.527,1.08,18.2881
417.526,1.07,18.6341
419.535,1.06,18.5284
421.532,1.06,15.8761