File: PMMA/Calibration_Data/Edinburgh/Edinburgh_Cone_25kW_3.csv
Time,Mass,HRR,Temperature Backing Centre
[s],[g],[kW/m2],[K]
0,73.7871,0.1,290.15
5.1,66.7271,0.1,290.25
10.1,73.5571,-0.1,290.25
15.2,73.4471,-0.1,290.35
20.3,73.3471,-0.1,290.45
25.3,73.2271,0,290.45
30.4,73.1571,-0.3,290.55
35.5,73.0671,-0.2,290.65
40.6,73.0371,-0.3,290.75
45.6,73.0271,0.1,290.75
50.7,73.0471,0,290.95
55.8,73.0371,0.1,291.05
60.8,73.0571,-0.2,291.15
65.9,73.0571,-0.1,291.35
71,73.0271,-0.2,291.45
76,73.0171,0,291.65
81.1,73.0071,-0.3,291.85
86.2,72.9871,-0.2,292.05
91.3,72.9871,-0.2,292.35
96.3,72.9871,-3.8,292.55
101.4,72.8571,-0.1,292.85
106.5,72.5571,0,293.15
111.5,72.0371,0,293.55
116.6,71.4771,11.5,293.75
121.7,70.8971,51.4,294.15
126.8,70.3271,109.2,294.45
131.8,69.7271,161.3,294.95
136.9,69.1171,197.9,295.35
142,68.4871,224.1,295.85
147,67.8971,248,296.45
152.1,67.3571,255.8,296.95
157.2,66.6971,267.5,297.65
162.2,66.0371,275,298.35
167.3,65.3371,275.8,298.95
172.4,64.6671,290.7,299.55
177.5,64.0271,287.9,300.25
182.5,63.3871,299.9,300.85
187.6,62.7171,306.5,301.55
192.7,62.0171,308.3,302.25
197.7,61.3571,312.9,302.95
202.8,60.7071,314.7,303.65
207.9,60.0471,302.5,304.45
212.9,59.3671,315.5,305.15
218,58.7071,318.2,305.85
223.1,58.0271,312.1,306.55
228.2,57.3271,311.4,307.25
233.2,56.6571,307.2,307.85
238.3,55.9871,307,308.55
243.4,55.2871,321.2,309.25
248.4,54.6071,313.7,309.95
253.5,53.9371,311.5,310.55
258.6,53.2071,313.5,311.25
263.6,52.5071,318.2,312.05
268.7,51.8371,318.4,312.55
273.8,51.0971,320.7,313.25
278.9,50.3571,333.3,313.85
283.9,49.6271,330.2,314.55
289,48.9271,336,315.25
294.1,48.2071,330.2,315.95
299.1,47.4271,350.5,316.65
304.2,46.6771,332.4,317.35
309.3,45.9371,341.8,317.95
314.3,45.1571,340.6,318.65
319.4,44.3671,338.3,319.35
324.5,43.5571,350.4,319.95
329.6,42.7771,343.7,320.65
334.6,41.9471,343.8,321.35
339.7,41.1471,356.4,322.15
344.8,40.3071,370.7,322.75
349.8,39.4371,376.7,323.45
354.9,38.5671,375.3,324.15
360,37.7071,373.4,324.85
365,36.8671,390.3,325.65
370.1,35.9871,390.2,326.25
375.2,35.1371,388.5,327.05
380.3,34.2971,396.9,327.85
385.3,33.4171,401.9,328.65
390.4,32.5671,402.7,329.55
395.5,31.7071,406.4,330.35
400.5,30.8371,402,331.35
405.6,29.9871,411.5,332.35
410.7,29.1071,402.8,333.45
415.7,28.2871,406.8,334.55
420.8,27.4671,403.7,335.65
425.9,26.6671,408.9,336.85
431,25.9271,400.2,338.05
436,25.1971,397.3,339.25
441.1,24.4271,391,340.45
446.2,23.6971,390.8,341.75
451.2,22.9671,375.8,343.05
456.3,22.2571,375.1,344.35
461.4,21.5671,374.4,345.65
466.4,20.8871,356,347.25
471.5,20.1771,347.9,348.35
476.6,19.4871,352.4,349.85
481.7,18.8671,343,351.25
486.7,18.1971,331,352.65
492.5,17.4471,330.3,354.25
496.9,16.8971,323.6,355.55
501.9,16.2371,319.4,357.05
507,15.6471,316.2,358.55
512.1,15.0871,318.2,360.05
517.1,14.5571,310.8,361.65
522.2,14.0471,308.2,363.25
527.3,13.6171,293.2,364.85
532.4,13.1971,285.4,366.55
537.4,12.8071,266.7,368.35
542.5,12.4471,250.7,370.15
547.6,11.9771,235.2,371.95
552.6,11.5971,212.1,373.75
557.7,11.3371,204.5,375.65
562.8,11.0671,186.4,377.45
567.8,10.8071,165.8,379.65
572.9,10.5671,159.6,381.35
578,10.3571,147.6,383.35
583.1,10.1771,138,385.45
588.1,9.97714,131.9,387.45
593.2,9.78714,121.9,389.55
598.3,9.62714,116.3,391.55
603.3,9.45714,109.3,393.65
608.4,9.30714,101.7,395.65
613.5,9.13714,93.8,397.65
618.5,8.99714,88.7,399.75
623.6,8.84714,84.9,401.75
628.7,8.70714,79.6,403.75
633.8,8.59714,76.6,405.75
638.8,8.45714,71.5,407.75
643.9,8.35714,67.4,409.75
649,8.23714,65.6,411.65
654,8.13714,59.3,413.55
659.1,8.04714,55.8,415.45
664.2,7.94714,54.3,417.25
669.2,7.85714,51.2,419.45
674.3,7.77714,52.3,420.85
679.4,7.68714,48.5,422.65
684.4,7.60714,46.9,424.25
689.5,7.49714,44.6,425.95
694.6,7.40714,40.2,427.65
699.7,7.32714,40.9,429.25
704.7,7.26714,41.4,430.85
709.8,7.18714,38.6,432.35
714.9,7.10714,37.4,433.95
719.9,7.02714,38.8,435.45
725,6.93714,36.1,436.95
730.1,6.86714,35.9,438.45
735.1,6.79714,36.3,439.95
740.2,6.72714,36.8,441.45
745.3,6.64714,33.3,442.85
750.4,6.60714,32.9,444.35
755.4,6.53714,33.2,445.75
760.5,6.45714,32.9,447.15
765.6,6.38714,30.2,448.55
770.6,6.32714,30.1,450.15
775.7,6.23714,30.1,451.25
780.8,6.19714,30.8,452.55
785.8,6.08714,30.8,453.95
790.9,6.05714,30.7,455.25
796,5.98714,31.1,456.55
801.1,5.90714,31.1,457.85
806.1,5.83714,31.1,459.15
811.2,5.74714,31.2,460.45
816.3,5.71714,31.4,461.65
821.3,5.65714,30.7,462.95
826.4,5.55714,31.3,464.15
831.5,5.43714,27.5,465.45
836.5,5.36714,28.7,466.65
841.6,5.28714,28,467.85
846.7,5.22714,28.3,469.05
851.8,5.14714,28.8,470.25
856.8,5.09714,28.6,471.35
861.9,5.03714,28.2,472.55
867,4.96714,28.5,473.65
872,4.90714,29.3,475.05
877.1,4.83714,28,475.95
882.2,4.77714,28.7,477.05
887.2,4.67714,25.3,478.25
892.3,4.61714,28.4,479.35
897.4,4.56714,25.2,480.55
902.5,4.51714,25.1,481.65
907.5,4.44714,25.1,482.75
912.6,4.39714,25.1,483.85
917.7,4.25714,25,484.95
922.7,4.22714,25.2,485.95
927.8,4.14714,25.4,486.95
932.9,4.04714,25.4,488.05
937.9,4.00714,25.8,489.15
943,3.94714,25.5,490.05
948.1,3.88714,25.7,491.15
953.2,3.84714,26.1,492.15
958.2,3.78714,25.9,493.25
963.3,3.70714,25.4,494.15
968.4,3.62714,26.1,495.25
973.4,3.57714,26.2,496.45
978.5,3.51714,25.6,497.25
983.6,3.42714,25.9,498.25
988.6,3.36714,25.4,499.25
993.7,3.28714,26.4,500.25
998.8,3.23714,25.5,501.15
1003.9,3.18714,26.1,502.05
1008.9,3.11714,25.5,503.05
1014,3.04714,26,503.95
1019.1,2.99714,22.4,504.95
1024.1,2.94714,22.3,505.85
1029.2,2.89714,22.8,506.85
1034.3,2.83714,22.6,507.75
1039.3,2.77714,22.7,508.65
1044.4,2.71714,22.3,509.55
1049.5,2.67714,22.6,510.45
1054.6,2.59714,22.8,511.35
1059.6,2.55714,22.6,512.25
1064.7,2.51714,23.1,513.15
1069.8,2.45714,18.9,514.05
1074.8,2.39714,19,515.05
1079.9,2.32714,19,515.85
1085,2.28714,19.7,516.75
1090,2.19714,19.7,517.55
1095.1,2.13714,19.4,518.45
1100.2,2.08714,19.3,519.25
1105.3,2.01714,19.8,520.05
1110.3,1.95714,19.6,520.95
1115.4,1.94714,19.9,521.75
1120.5,1.91714,15.9,522.65
1125.5,1.84714,16.4,523.35
1130.6,1.77714,15.9,524.15
1135.7,1.70714,16.1,524.95
1140.7,1.65714,16.1,525.75
1145.8,1.61714,16.5,526.55
1150.9,1.55714,16.6,527.25
1156,1.51714,16.8,528.05
1161,1.44714,16.5,528.75
1166.1,1.43714,16.9,529.55
1171.2,1.38714,12.8,530.25
1176.2,1.29714,12.9,531.15
1182.4,1.26714,13,531.85
1187.4,1.21714,13.2,532.65
1192.5,1.17714,13.3,533.35
1197.5,1.14714,13.6,534.05
1202.6,1.08714,13.2,534.75
1207.7,1.07714,10.1,535.45
1212.7,1.03714,10,536.15
1217.8,0.967143,10,536.85
1222.9,0.957143,9.8,537.55
1228,0.927143,10,538.15
1233,0.897143,10,538.85
1238.1,0.877143,10.5,539.45
1243.2,0.807143,10.4,540.15
1248.2,0.777143,10.7,540.85
1253.3,0.787143,10.5,541.55
1258.4,0.737143,11,542.15
1263.4,0.677143,10.8,542.75
1268.5,0.647143,7.9,543.35
1273.6,0.597143,7.5,544.05
1278.7,0.577143,7.8,544.75
1283.7,0.547143,7.8,545.25
1288.8,0.517143,7.8,545.85
1293.9,0.477143,7.8,546.45
1298.9,0.437143,7.6,547.05
1304,0.387143,7.7,547.75
1309.1,0.377143,8,548.25
1314.1,0.337143,7.8,548.95
1319.2,0.287143,8.2,549.45
1324.3,0.247143,8.1,550.05
1329.4,0.247143,8.1,550.55
1334.4,0.207143,8,551.15
1339.5,0.197143,7.9,551.65
1344.6,0.197143,4.5,552.15
1349.6,0.167143,4.4,552.75
1354.7,0.127143,4.4,553.25
1359.8,0.0971429,4.5,553.75
1364.9,0.0471429,4.3,554.25