File: PMMA/Calibration_Data/Edinburgh/Edinburgh_Cone_65kW_5.csv
Time,Mass,HRR
[s],[g],[kW/m2]
0.01,70.55,-0.230342
2,70.06,-0.203524
4.01,69.56,-0.170451
6.01,69.04,-0.26218
8,68.5,-0.167058
10,67.95,2.33646
12.01,67.41,2.37282
14.02,66.86,2.30238
16.02,66.3,4.76339
18.03,65.73,8.56666
20.05,65.16,22.1675
22.07,64.58,39.575
24.09,63.97,66.6781
26.09,63.36,97.4803
28.12,62.77,135.55
30.13,62.19,179.973
32.12,61.58,217.287
34.13,60.98,248.385
36.13,60.37,298.582
38.13,59.78,318.083
40.13,59.18,380.901
42.13,58.57,381.605
44.13,57.98,439.448
46.14,57.38,426.66
48.12,56.77,493.274
50.15,56.17,508.696
52.13,55.57,519.48
54.13,54.93,555.402
56.13,54.31,575.996
58.14,53.68,577.066
60.15,53.07,584.087
62.15,52.44,646.9
64.16,51.81,629.825
66.18,51.18,647.572
68.18,50.55,644.085
70.18,49.93,639.792
72.19,49.3,656.18
74.2,48.66,665.483
76.22,48.02,684.061
78.23,47.38,685.224
80.24,46.72,689.851
82.26,46.07,671.845
84.26,45.42,697.14
86.26,44.77,693.818
88.26,44.1,756.472
90.25,43.44,681.484
92.26,42.77,700.863
94.26,42.1,711.82
96.26,41.42,705.335
98.26,40.73,699.478
100.26,40.06,740.304
102.26,39.36,725.301
104.25,38.64,706.751
106.26,37.94,734.005
108.25,37.21,732.816
110.27,36.48,702.867
112.3,35.72,721.983
114.31,34.97,733.364
116.31,34.22,709.442
118.31,33.43,727.945
120.3,32.66,743.856
122.3,31.86,761.54
124.32,31.03,734.398
126.32,30.2,799.397
128.34,29.37,733.429
130.36,28.5,781.063
132.37,27.62,803.457
134.39,26.72,769.283
136.4,25.84,801.666
138.42,24.98,767.617
140.43,24.12,790.611
142.43,23.24,767.276
144.44,22.36,841.124
146.45,21.44,767.716
148.44,20.5,794.968
150.48,19.54,883.821
152.48,18.59,829.331
154.5,17.62,843.544
156.5,16.63,905.127
158.51,15.8,900.522
160.51,15.01,1006.35
162.5,14.35,1019.75
164.51,13.82,1056.23
166.51,13.38,1112.1
168.54,12.98,1151.48
170.53,12.62,1200.61
172.53,12.28,1228.46
174.54,11.97,1259.83
176.55,11.67,1298.98
178.57,11.39,1313.89
180.58,11.11,1326.79
182.6,10.84,1338.58
184.6,10.57,1383.3
186.61,10.31,1377.37
188.62,10.06,1333.29
190.63,9.8,1327.28
192.64,9.56,1271.01
194.65,9.33,1222.59
196.67,9.08,1166.87
198.67,8.87,1087.07
200.67,8.65,1047.86
202.69,8.42,974.524
204.71,8.21,908.381
206.72,8.01,858.297
208.74,7.8,806.244
210.76,7.6,758.287
212.75,7.42,695.309
214.75,7.24,646.583
216.76,7.05,618.191
218.76,6.87,573.925
220.75,6.69,555.563
222.76,6.52,515.162
224.76,6.36,492.29
226.76,6.18,466.082
228.76,6.02,447.98
230.75,5.87,414.601
232.76,5.69,392.275
234.76,5.53,390.459
236.76,5.37,369.977
238.76,5.24,351.499
240.76,5.07,341.72
242.76,4.93,323.667
244.76,4.77,314.973
246.75,4.61,301.783
248.76,4.47,297.475
250.75,4.34,283.66
252.76,4.2,279.329
254.76,4.07,270.167
256.75,3.94,260.294
258.76,3.8,253.458
260.76,3.67,249.929
262.76,3.55,244.425
264.75,3.43,233.117
266.76,3.31,231.104
268.76,3.18,225.913
270.76,3.07,221.024
272.75,2.96,214.823
274.76,2.86,211.416
276.75,2.73,210.969
278.76,2.63,205.508
280.75,2.52,203.605
282.75,2.39,197.124
284.76,2.3,188.201
286.76,2.21,190.527
288.76,2.12,184.768
290.75,2.03,188.868
292.75,1.95,178.511
294.76,1.86,177.142
296.76,1.78,174.28
298.76,1.71,169.506
300.76,1.63,168.161
302.76,1.57,166.986
304.76,1.48,164.356
306.76,1.42,162.176
308.75,1.36,158.816
310.76,1.32,156.099
312.76,1.26,151.267
314.75,1.21,149.067
316.76,1.16,143.808
318.77,1.11,142.204
320.79,1.07,139.763
322.8,1.02,135.828
324.8,0.98,133.176
326.81,0.93,129.986
328.82,0.9,125.413
330.82,0.88,122.641
332.83,0.85,119.45
334.83,0.8,115.474
336.84,0.8,110.32
338.87,0.78,107.877
340.88,0.74,104.848
342.88,0.72,100.571
344.88,0.7,94.4825
346.89,0.68,92.1598
348.89,0.67,88.2213
350.9,0.66,81.7774
352.92,0.66,81.1117
354.92,0.64,76.5432
356.93,0.62,74.0546
358.92,0.62,69.2361
360.93,0.6,66.5689
362.94,0.58,61.7323
364.97,0.56,59.9937
366.98,0.55,57.1382
369,0.54,55.696
371.01,0.53,52.0114
373,0.51,50.9836
375.01,0.51,45.5542
377.01,0.5,46.4217
379.01,0.49,40.255
381.02,0.47,40.6468
382.02,0.46,38.3174