File: PMMA/Calibration_Data/Edinburgh/Edinburgh_Cone_25kW_4.csv
Time,Mass,HRR
[s],[g],[kW/m2]
0,67.005,2.96584
3.05,66.995,3.06654
6.05,66.995,3.12581
9.07,66.995,2.9357
12.1,66.995,3.02045
15.12,66.985,3.03903
18.11,66.985,3.10951
21.12,66.985,3.24778
24.12,66.995,3.04321
27.14,66.975,2.8692
30.16,66.985,2.97099
33.19,66.975,3.01824
36.22,66.975,3.0925
39.25,66.985,3.15314
42.24,66.965,3.02239
45.24,66.975,3.21856
48.24,66.955,3.07391
51.25,66.955,3.20541
54.24,66.955,2.94794
57.25,66.935,3.14137
60.24,66.935,2.73313
63.25,66.885,2.86471
66.25,66.795,2.64828
69.24,66.605,2.86461
72.28,66.355,2.69192
75.3,66.015,2.70425
78.34,65.655,2.54105
81.36,65.295,2.48168
84.37,64.935,2.52119
87.37,64.585,2.50879
90.38,64.215,8.47478
93.37,63.825,16.0502
96.38,63.435,31.4509
99.37,63.045,53.2703
102.37,62.665,75.7021
105.37,62.265,103.963
108.43,61.865,130.304
111.38,61.465,148.699
114.4,61.055,176.966
117.4,60.655,192.116
120.43,60.235,216.175
123.47,59.815,232.136
126.53,59.395,243.312
129.49,58.975,258.053
132.49,58.555,268.287
135.49,58.125,271.73
138.49,57.695,288.324
141.5,57.275,293.368
144.49,56.835,299.057
147.53,56.415,305.676
150.54,55.995,308.432
153.55,55.555,325.702
156.54,55.105,319.697
159.54,54.675,324.927
162.54,54.225,334.861
165.53,53.775,332.388
168.55,53.325,343.963
171.56,52.875,339.56
174.59,52.425,344.201
177.58,51.985,339.199
180.59,51.525,347.08
183.6,51.065,353.197
186.6,50.585,344.946
189.62,50.145,358.564
192.63,49.685,367.921
195.64,49.215,356.553
198.65,48.735,349.933
201.66,48.275,364.547
204.66,47.805,368.084
207.68,47.325,370.796
210.71,46.855,366.25
213.71,46.375,368.884
216.72,45.895,375.075
219.75,45.415,371.44
222.75,44.935,380.058
225.74,44.445,376.253
228.74,43.955,388.993
231.74,43.465,386.984
234.76,42.975,395.135
237.77,42.485,376.884
240.79,41.995,394.101
243.81,41.485,391.385
246.81,40.975,393.574
249.81,40.445,383.84
252.81,39.935,389.678
255.82,39.435,395.984
258.84,38.915,399.495
261.85,38.395,407.075
264.88,37.875,412.936
267.88,37.345,402.771
270.87,36.825,409.403
273.87,36.305,402.966
276.88,35.785,408.684
279.89,35.255,406.665
282.91,34.725,421.501
285.91,34.195,420.396
288.91,33.665,420.97
291.91,33.125,416.487
294.92,32.585,423.828
297.92,32.035,427.249
300.95,31.465,444.121
303.97,30.915,417.7
307,30.345,432.838
310,29.785,443.452
312.99,29.225,436.111
316.01,28.635,434.371
319.01,28.055,428.227
322.01,27.455,423.646
325.02,26.845,441.34
328.04,26.235,449.744
331.04,25.645,446.979
334.08,25.035,454.447
337.08,24.435,457.456
340.1,23.835,437.975
343.11,23.235,466.021
346.12,22.625,453.592
349.12,22.015,482.004
352.12,21.425,477.248
355.12,20.825,476.319
358.12,20.245,501.003
361.12,19.675,503.179
364.12,19.125,496.901
367.12,18.555,512.595
370.12,18.025,501.279
373.14,17.495,521.334
376.15,16.975,515.448
379.16,16.475,527.478
382.17,15.995,534.019
385.17,15.545,521.616
388.17,15.115,540.484
391.18,14.705,544.531
394.2,14.305,548.704
397.21,13.945,527.744
400.22,13.585,537.186
403.22,13.255,525.813
406.24,12.935,523.325
409.25,12.645,516.487
412.25,12.375,497.048
415.24,12.105,497.522
418.25,11.865,479.308
421.24,11.625,458.852
424.26,11.385,449.561
427.28,11.185,429.765
430.27,10.965,410.939
433.29,10.765,406.896
436.29,10.575,377.052
439.3,10.385,360.011
442.3,10.195,347.937
445.31,10.025,334.229
448.31,9.845,311.362
451.33,9.685,298.296
454.35,9.525,282.31
457.36,9.365,268.343
460.38,9.215,255.089
463.37,9.055,244.331
466.37,8.915,231.551
469.37,8.765,218.884
472.38,8.635,206.02
475.41,8.485,203.999
478.41,8.355,196.86
481.43,8.225,190.594
484.46,8.095,179.267
487.46,7.965,173.283
490.48,7.835,170.093
493.48,7.715,161.82
496.5,7.585,157.527
499.5,7.455,155.162
502.49,7.335,149.657
505.49,7.225,145.204
508.5,7.105,143.933
511.5,6.995,139.818
514.5,6.885,135.993
517.49,6.765,129.659
520.49,6.665,127.655
523.5,6.555,126.309
526.49,6.445,121.49
529.49,6.325,123.957
532.5,6.195,120.302
535.5,6.095,118.839
538.49,5.985,115.814
541.49,5.875,115.622
544.53,5.775,114.931
547.54,5.675,112.999
550.55,5.585,113.182
553.56,5.475,108.294
556.57,5.385,109.37
559.6,5.285,106.807
562.63,5.185,105.463
565.66,5.085,106.445
568.67,4.985,105.572
571.68,4.905,105.508
574.69,4.805,101.276
577.68,4.725,103.453
580.69,4.635,99.5251
583.69,4.565,100.403
586.7,4.465,97.1579
589.71,4.395,94.6369
592.71,4.305,95.1045
595.71,4.215,92.9932
598.71,4.135,93.5832
601.72,4.045,91.9332
604.74,3.965,92.1714
607.75,3.875,88.5904
610.74,3.795,88.4671
613.75,3.715,85.9929
616.75,3.645,86.3829
619.74,3.565,85.4729
622.75,3.485,85.0005
625.77,3.415,82.706
628.79,3.355,83.6195
631.79,3.275,81.0064
634.8,3.215,81.6231
637.8,3.145,81.4312
640.81,3.075,79.381
643.82,3.015,79.6817
646.84,2.945,79.6132
649.84,2.875,79.1255
652.87,2.805,77.6646
655.86,2.735,76.9248
658.87,2.665,77.1833
661.87,2.605,73.9131
664.88,2.545,74.6004
667.87,2.475,74.1416
670.87,2.415,72.7738
673.87,2.355,72.3434
676.86,2.295,69.8767
679.89,2.235,69.207
682.91,2.185,70.3791
685.93,2.125,67.1582
688.94,2.075,66.3152
691.97,2.005,66.7118
694.99,1.955,65.1536
698.01,1.905,65.8992
701.02,1.845,67.363
704.06,1.795,62.7473
707.07,1.745,62.3506
710.09,1.695,62.1115
713.1,1.645,62.2723
716.12,1.595,63.4552
719.13,1.555,60.0183
722.14,1.505,59.7311
725.16,1.455,60.3243
728.18,1.405,57.5664
731.18,1.365,59.4037
734.19,1.325,58.1504
737.21,1.275,58.2002
740.24,1.225,58.9814
743.25,1.185,54.9453
746.28,1.145,55.4195
749.32,1.105,55.1599
752.37,1.075,52.7118
755.36,1.025,53.0078
758.4,0.995,53.5341
761.44,0.965,49.9128
764.46,0.915,50.7075
767.47,0.875,50.6116
770.66,0.845,47.2625
773.48,0.805,47.3068
776.51,0.765,47.705
779.53,0.735,47.0147
782.64,0.705,44.751
785.61,0.665,44.903
788.64,0.635,45.046
791.67,0.605,41.3559
794.73,0.565,41.9233
797.76,0.535,42.1574
799.77,0.515,42.3819