File: PMMA/Calibration_Data/Edinburgh/Edinburgh_Cone_65kW_3.csv
Time,Mass,HRR,Back Temp
[s],[g],[kW/m2],[K]
0,71.366,-3.1,301.55
2,71.646,-3.2,301.55
4.1,71.626,-3,301.65
6.1,71.606,-3.3,301.65
8.1,71.586,0.3,301.75
10.1,71.566,0.1,301.75
12.2,71.526,0.2,301.75
14.2,71.466,0.2,301.85
16.2,71.326,0.3,301.95
18.3,71.136,0.1,301.95
20.3,70.836,-0.1,301.95
22.3,70.396,-0.2,302.05
24.3,69.916,-0.2,302.15
26.4,69.446,-0.1,302.25
28.4,68.986,-0.1,302.25
30.4,68.516,5.3,302.35
32.4,68.046,17.7,302.45
34.5,67.566,47.8,302.55
36.5,67.066,90.5,302.65
40.6,66.006,178.2,302.95
42.6,65.456,209.6,303.05
44.6,64.936,263.7,303.15
46.6,64.376,303.8,303.25
48.7,63.806,330.9,303.45
50.7,63.286,387.9,303.55
52.7,62.756,388.1,303.75
54.8,62.216,426.3,303.85
56.8,61.666,439,304.15
58.8,61.126,492.1,304.15
60.8,60.566,493.1,304.35
62.9,60.006,496.9,304.55
64.9,59.426,539,304.75
66.9,58.866,515.3,304.85
69,58.316,554.1,305.15
71,57.766,571.1,305.35
73,57.206,569.9,305.55
75,56.656,567.5,305.95
77.9,55.856,576.9,306.15
79.4,55.476,579.2,306.35
81.1,55.026,608.6,306.75
83.1,54.476,608,307.05
85.2,53.926,593.6,307.45
87.2,53.366,608.6,307.85
89.2,52.826,620.2,308.25
91.3,52.276,655.6,308.75
93.3,51.696,627.6,309.15
95.3,51.106,659.1,309.65
97.3,50.526,637.5,310.05
99.4,49.946,681.6,310.55
101.4,49.356,660.8,310.95
103.4,48.766,651.8,311.45
105.5,48.196,627.9,311.95
107.5,47.606,638.6,312.35
109.5,47.046,622.8,312.95
112.3,46.276,630.4,313.15
113.8,45.826,641.2,313.45
115.6,45.296,683.7,313.75
117.6,44.696,676.3,314.15
119.7,44.106,644,314.45
121.7,43.496,658.2,314.75
123.7,42.896,687.1,315.05
125.7,42.316,685.6,315.45
127.8,41.726,699,315.75
129.8,41.136,655.7,316.05
131.8,40.536,708.5,316.45
133.8,39.936,664.8,316.75
135.9,39.316,677.7,317.15
137.9,38.696,705.5,317.55
139.9,38.076,702.8,317.85
142,37.456,696.9,318.15
144,36.826,684.1,318.55
146,36.206,695.6,318.95
148,35.556,714,319.35
150.1,34.906,718.5,319.65
152.1,34.246,703.2,319.95
154.1,33.586,718.8,320.35
156.2,32.926,712.3,320.85
158.2,32.266,729.6,321.15
160.2,31.566,705,321.45
162.2,30.836,706,321.85
164.3,30.176,699.5,322.25
166.3,29.456,761.7,322.65
168.3,28.736,723.1,323.05
170.4,28.026,765.9,323.35
172.4,27.276,764.1,323.85
174.4,26.516,768.5,324.15
176.4,25.756,752.4,324.75
179.4,24.626,818.8,325.05
180.9,24.066,776.5,325.45
182.5,23.456,812.3,326.05
184.6,22.706,797.3,326.45
186.6,21.966,795.1,327.05
188.6,21.216,866.4,327.65
190.6,20.486,877.2,328.35
192.7,19.756,864.5,329.15
194.7,19.006,891.3,329.85
196.7,18.256,828.8,330.65
198.7,17.526,862.1,331.55
200.8,16.776,866.3,332.35
202.8,16.036,896.7,333.25
204.8,15.316,930.6,334.25
206.9,14.596,862.2,335.25
208.9,13.846,906.7,336.25
210.9,13.116,843.1,337.25
212.9,12.366,885.4,338.35
215,11.666,927,339.25
217,10.996,930.6,340.05
219,10.296,910.7,341.05
221.1,9.646,909.7,342.05
223.1,9.046,979.4,343.05
225.1,8.506,992.5,344.15
227.1,7.996,1008,345.15
229.2,7.536,992.9,346.35
231.2,7.126,1017.5,347.85
233.2,6.776,1043.9,349.55
235.2,6.456,1026.1,351.25
237.3,6.196,1028.7,352.85
239.3,5.956,969.4,354.45
241.3,5.716,970.5,356.05
243.4,5.496,888.4,357.75
245.4,5.276,843.7,359.45
247.4,5.066,818.5,361.05
249.4,4.866,755.9,362.85
251.5,4.656,677.4,364.65
253.5,4.456,627.3,366.35
255.5,4.246,580.1,367.95
257.6,4.036,521.2,369.55
259.6,3.836,493.5,370.85
261.6,3.626,459.6,371.25
263.6,3.406,432,370.85
265.7,3.216,400.4,370.55
267.7,3.006,371.2,370.75
269.7,2.826,356.3,370.95
271.8,2.656,336.3,371.35
273.8,2.486,318.7,373.25
275.8,2.316,304.9,377.75
277.8,2.176,279.4,382.05
280.6,1.986,276.6,383.75
282.1,1.896,260.2,385.55
283.9,1.766,262.4,387.25
285.9,1.596,242,388.95
288,1.476,238.9,390.45
290,1.346,231.6,391.95
292,1.216,220.9,393.45
294.1,1.096,217.9,394.85
296.1,0.976,213.9,396.25
298.1,0.886,207.3,397.85
300.1,0.776,206.5,399.15
302.2,0.686,201.9,400.75
304.2,0.616,196.1,402.15
306.2,0.516,188.9,403.65
308.3,0.416,181.3,405.05
310.3,0.326,170.9,406.35
312.3,0.226,170.4,407.65
314.3,0.156,164.1,408.85
316.4,0.076,161,410.15
318.4,-0.014,151.1,411.45
320.4,-0.094,147.5,412.65
322.5,-0.174,137.6,413.85
324.5,-0.244,132.4,414.95
326.5,-0.314,132.2,416.05
328.5,-0.364,125.8,417.25
330.6,-0.444,119.9,418.35
332.6,-0.504,118,419.35
334.6,-0.544,114,420.45
336.7,-0.604,111.8,421.45
338.7,-0.684,107.2,422.55
340.7,-0.724,103.9,423.65
342.7,-0.794,102.3,424.65
344.8,-0.834,96.7,425.65
346.8,-0.874,92.3,426.65
348.8,-0.944,91.9,427.55
350.8,-0.974,90.7,428.35
352.9,-1.014,85.7,429.35
354.9,-1.064,83.3,430.25
356.9,-1.094,81.1,431.05
359,-1.154,80,431.95
361,-1.204,78,432.85
363,-1.254,75.6,433.75
365,-1.284,72.7,434.65
367.1,-1.344,70.8,435.55
369.1,-1.374,69.1,436.45
371.1,-1.414,65.8,437.35
373.2,-1.414,62,438.15
375.2,-1.474,61.4,439.05
377.2,-1.514,61.5,439.95
379.2,-1.564,59.4,441.15
382,-1.604,56.5,441.95
383.5,-1.634,54.7,442.65
385.3,-1.654,51.7,443.45
387.4,-1.674,52.6,444.35
389.4,-1.704,50,445.15
391.4,-1.734,50.9,445.95
393.4,-1.764,48.6,446.75
395.5,-1.794,45.9,447.55
397.5,-1.814,46.2,448.35
399.5,-1.834,42.5,449.15
401.5,-1.854,39.8,449.95
403.6,-1.864,40.8,450.75
405.6,-1.884,37.9,451.45
407.6,-1.884,35.2,452.15
409.7,-1.894,34.9,452.95
411.7,-1.904,33.2,453.65
413.7,-1.914,30.2,454.45
415.7,-1.924,31.2,455.15
417.8,-1.924,27.6,455.95
419.8,-1.934,27.8,456.65
421.8,-1.944,25.3,457.35
423.9,-1.964,25.9,458.05
425.9,-1.974,23.4,458.75
427.9,-1.974,23.5,459.45
429.9,-1.994,20.5,460.15
432,-2.004,20.6,460.85
434,-2.004,17.6,461.55
436,-2.004,17.6,462.25
438.1,-2.004,15.5,462.95
440.1,-2.004,15.4,463.55
442.1,-2.004,12.7,464.25
444.1,-2.004,12.5,464.95
446.2,-2.004,12.5,465.65
448.2,-2.024,12.9,466.25
450.2,-2.014,13,466.95
452.2,-2.044,10.3,467.65
454.3,-2.044,10.3,468.35
456.3,-2.044,10.3,468.95
458.3,-2.054,10.4,469.65
460.4,-2.064,10.2,470.35
462.4,-2.074,10.8,470.95
464.4,-2.074,10.3,471.55
466.4,-2.074,10.7,472.25
468.5,-2.084,7.6,472.85
470.5,-2.084,7.8,473.55
472.5,-2.084,8,474.15
474.6,-2.084,8,474.75