File: PMMA/Calibration_Data/Edinburgh/Edinburgh_Cone_25kW_1.csv
Time,Mass,HRR,Temperature Backing Centre
[s],[g],[kW/m2],[K]
0,68.4,0.09,286.25
5.07,69.93,0.09,286.25
10.14,69.94,3.15,286.15
15.21,69.97,2.96,286.25
20.28,70,3.07,286.25
25.35,70.01,3.04,286.25
30.42,69.99,3.08,286.35
35.49,69.99,6.38,286.35
40.56,41.29,6.17,286.45
45.63,43.58,6.2,286.45
50.7,42.7,2.64,286.55
55.77,42.67,2.75,286.65
60.84,42.64,-0.57,286.75
66.92,42.56,-0.5,286.95
71.99,42.46,-0.29,287.05
77.58,42.37,-0.16,287.25
82.13,42.3,-0.03,287.45
87.2,42.24,0.02,287.65
92.29,42.16,0.19,287.85
97.36,42.07,0.09,288.05
102.43,41.88,-0.1,288.25
107.5,41.38,0.01,288.55
112.57,40.81,0.01,288.85
117.64,40.52,11.33,289.15
122.71,39.95,56.61,289.45
127.78,39.35,111.67,289.75
132.85,38.62,160.04,290.25
138.93,37.9,216.01,290.85
144,37.27,232.39,291.35
149.07,36.62,244.08,291.75
154.14,35.98,266.98,292.35
159.21,35.36,277.78,292.95
164.28,34.72,286.27,293.45
169.48,34.06,295.31,294.05
174.42,33.3,296.23,294.75
179.67,32.76,297.72,295.35
184.56,32.11,296.85,295.95
189.63,31.46,297.34,296.55
194.7,30.78,302.53,297.25
199.77,30.07,318.21,297.95
204.84,29.43,316.86,298.55
209.91,28.73,300.52,299.25
214.98,28.08,316.14,299.95
220.05,27.38,325.59,300.65
225.12,26.7,316.08,301.35
230.19,26.01,317.09,302.05
235.26,25.38,322.06,302.75
240.33,24.74,325.06,303.45
245.4,24.05,322.38,304.25
250.48,23.36,325.53,304.95
255.55,22.67,317.11,305.65
260.62,21.96,325.66,306.45
265.69,21.23,333.37,307.15
270.76,20.53,324.76,307.85
275.83,19.67,325.76,308.65
281.19,19.05,328.64,309.35
285.97,18.29,335.31,310.05
291.04,17.56,336.62,310.85
296.11,16.82,351.38,311.55
301.18,16.03,346.24,312.35
306.25,15.31,347.73,313.05
311.32,14.57,354.93,313.75
316.39,13.93,350.3,314.55
321.46,13.16,351.8,315.25
326.53,12.31,366.5,316.05
331.6,11.52,363.54,316.85
336.67,10.65,389.88,317.65
341.74,9.82,372.75,318.45
346.81,8.94,381.78,319.25
351.88,8.11,387.97,320.15
356.95,7.3,380.36,321.05
362.02,6.49,390.7,321.95
367.09,5.7,392.24,322.95
372.16,4.89,396.11,324.05
377.23,3.99,393.1,325.25
382.53,3.32,383.78,326.25
387.37,2.58,386.9,327.45
392.44,1.8,390.38,328.65
397.51,1.09,380.88,329.85
402.58,0.37,381.73,331.15
407.65,-0.35,380.72,332.55
412.72,-1.07,371.51,333.95
417.79,-1.75,358.78,335.45
422.86,-2.4,356.16,336.95
427.93,-3.02,352.12,338.45
433,-3.64,347.31,340.05
438.07,-4.28,333.2,341.55
443.14,-4.88,325.51,343.25
448.21,-5.49,319.51,344.85
453.28,-6.06,314.82,346.55
458.35,-6.66,298.25,348.25
463.42,-7.2,300.21,349.95
468.49,-7.76,288.3,351.65
473.56,-8.34,286.99,353.45
478.63,-8.99,280.32,355.45
483.96,-9.43,278.35,357.05
488.77,-9.97,271.4,358.85
493.84,-10.48,265.42,360.65
498.91,-10.98,266.56,362.55
503.98,-11.47,260.94,364.45
509.05,-12.01,264.21,366.35
514.12,-12.45,260.71,368.25
519.19,-12.9,247.44,370.15
524.26,-13.33,246.26,372.05
529.33,-13.74,232.2,374.05
534.4,-14.14,237.42,375.95
539.47,-14.52,228.66,377.95
544.54,-14.85,219.03,379.95
549.61,-15.18,206.22,381.95
554.68,-15.49,201.25,383.95
559.75,-15.77,192.84,386.15
564.82,-16.01,183.52,388.35
569.89,-16.26,169.48,390.45
574.96,-16.47,157.55,392.65
580.03,-16.69,145.21,395.25
586.11,-16.89,129.45,397.35
591.18,-17.07,117.71,399.55
596.25,-17.24,111.56,401.75
601.32,-17.39,103.4,403.85
606.39,-17.54,95.85,405.95
611.46,-17.72,90.02,408.15
616.53,-17.88,85.57,410.35
621.6,-18.02,81.66,412.45
626.67,-18.17,73.98,414.45
631.74,-18.29,72,416.45
636.81,-10.34,72.64,418.55
641.88,-7.3,69.33,420.55
646.95,-7.52,69.24,422.55
652.02,-7.7,68.88,424.65
657.09,-7.84,66.01,426.75
662.16,-8.06,65.44,428.85
667.23,-8.3,64.73,430.95
672.3,-8.45,62.63,432.95
677.37,-8.61,59.96,434.85
682.44,-8.72,58.52,436.95
687.71,-8.83,54.07,438.65
692.58,-8.94,51.39,440.55
697.65,-9.05,51.48,442.25
702.72,-9.16,50.24,444.15
707.79,-9.28,50.32,445.95
712.86,-9.38,50.42,447.75
717.93,-9.54,46.5,449.55
723,-9.78,47.58,451.35
728.07,-9.96,47.16,453.15
733.14,-10.1,46.79,454.95
738.21,-10.24,46.26,456.65
743.28,-10.37,43.75,458.35
748.35,-10.48,44.37,459.95
753.42,-10.6,40.43,461.65
758.49,-10.77,42.07,463.35
763.56,-10.85,41.08,465.05
768.63,-10.95,38.44,466.65
773.7,-11.07,38.55,468.25
778.77,-11.14,39.43,469.75
783.84,-11.29,39.93,471.45
789.14,-11.4,35.7,472.85
793.97,-11.48,36.45,474.35
799.04,-11.59,36.57,475.85
804.11,-11.66,33.99,477.25
809.18,-11.75,33.72,478.65
814.25,-11.82,30.44,479.95
819.32,-11.88,30.41,481.35
824.39,-11.97,30.94,482.65
829.46,-12.04,27.96,483.95
834.53,-12.13,28.2,485.25
839.6,-12.18,29.08,486.55
844.67,-12.24,24.99,487.95
849.74,-12.34,25.57,489.25
854.81,-12.39,25.35,490.55
859.88,-12.47,25.91,491.85
864.95,-12.55,25.97,493.05
870.02,-12.6,25.52,494.25
875.09,-12.68,23.02,495.45
880.16,-12.71,22.95,496.65
885.23,-12.81,22.46,497.95
890.6,-12.86,23.7,498.95
895.37,-12.94,23.76,500.15
900.49,-12.99,23.11,501.15
905.51,-13.06,19.69,502.35
910.58,-13.1,19.78,503.45
915.65,-13.17,20.02,504.55
920.72,-13.22,20,505.65
925.79,-13.29,20.28,506.65
930.86,-13.35,20.39,507.75
935.93,-13.42,20.04,508.75
941,-13.44,20.34,509.75
946.07,-13.49,23.66,510.75
951.14,-13.52,23.25,511.75
956.21,-13.55,23.94,512.75
961.28,-13.88,19.99,513.75
966.35,-16.73,20.27,514.65
971.42,-11.06,16.99,515.55
976.49,-8.37,16.65,516.45
981.56,-8.43,16.71,517.35
986.63,-8.5,16.9,518.35
992.06,-8.55,20.16,519.15
996.77,-8.64,20.53,520.05
1001.84,-8.69,20.69,520.85
1006.91,-8.78,16.79,521.75
1011.98,-8.81,17.79,522.65
1017.05,-8.88,17.51,523.45
1022.12,-8.92,17.58,524.25
1027.19,-8.99,17.62,525.15
1032.26,-9.05,17.26,525.95
1037.33,-9.09,17.27,526.75
1042.4,-9.14,17.46,527.55
1047.47,-9.19,13.5,528.35
1052.54,-9.24,13.88,529.15
1057.61,-9.28,13.98,529.85
1062.68,-9.33,14.06,530.75
1067.75,-9.38,14.3,531.45
1072.82,-9.43,14.04,532.25
1077.89,-9.46,14.65,532.95
1082.96,-9.5,10.79,533.75
1088.04,-9.57,11.2,534.55
1093.37,-9.62,11.3,535.25
1098.18,-9.67,11.06,536.05
1103.25,-9.71,11.04,536.75
1108.32,-9.77,10.9,537.45
1113.39,-9.83,10.92,538.15
1118.46,-9.86,11.29,538.85
1123.53,-9.89,10.83,539.65
1128.6,-9.92,10.91,540.35
1133.67,-9.95,10.65,541.05
1138.74,-10.02,10.94,541.65
1143.81,-10.07,11.02,542.35
1148.88,-10.14,10.99,543.05
1153.95,-10.17,11.41,543.75
1159.02,-10.19,11.3,544.35
1164.09,-10.21,7.97,545.05
1169.16,-10.25,8.16,545.75
1174.23,-10.27,7.96,546.45
1179.3,-10.31,8.13,547.15
1184.37,-10.35,8.02,547.75
1189.44,-10.38,7.77,548.45
1194.82,-10.43,8.12,549.05
1199.58,-10.46,7.93,549.65
1204.65,-10.51,8.3,550.25
1209.72,-10.54,8.56,550.85
1214.79,-10.64,4.89,551.45
1219.86,-10.62,5.14,552.05
1224.93,-10.75,5.19,552.65
1227.97,-10.71,5.07,553.05