File: PMMA/Calibration_Data/Edinburgh/Edinburgh_Cone_65kW_2.csv
Time,Mass,HRR,Back Temp
[s],[g],[kW/m2],[K]
0,70.406,2.3,293.45
2,70.446,2.4,293.45
4.1,70.456,2.2,293.45
6.1,70.456,2.4,293.45
8.1,70.446,2.3,293.45
10.1,70.466,2.2,293.45
12.2,70.476,2.2,293.55
14.2,70.496,2.1,293.55
16.2,70.496,1.9,293.55
18.3,70.446,1.6,293.55
20.3,70.316,4.5,293.55
22.3,70.006,4.1,293.65
24.3,69.706,4.3,293.65
26.4,69.386,4.2,293.65
28.4,69.036,4.2,293.85
30.4,68.636,7.1,293.85
32.4,68.186,16.1,293.85
34.5,67.766,39,293.95
36.5,67.336,76.7,294.05
38.5,66.736,124.2,294.05
40.9,66.396,157.9,294.15
42.6,65.956,219.3,294.25
44.6,65.486,246.2,294.35
46.6,64.996,279.6,294.35
48.7,64.466,315.6,294.45
50.7,63.966,342.1,294.55
52.7,63.456,372.6,294.65
54.8,62.896,384.7,294.75
56.8,62.356,425.7,294.85
58.8,61.846,435.8,295.05
60.8,61.236,450.3,295.15
62.9,60.676,486,295.25
64.9,60.066,503.3,295.45
66.9,59.486,505.1,295.55
69,58.926,532.5,295.75
71,58.406,562.4,295.85
73,57.866,525,296.05
75,57.296,539.2,296.15
77.1,56.736,557.6,296.35
79.1,56.196,559.4,296.55
81.1,55.716,597.3,296.75
83.1,55.186,593.4,297.05
85.2,54.656,583.3,297.25
87.2,54.126,578.9,297.55
89.2,53.586,615.4,297.85
91.3,53.036,615.6,298.15
93.3,52.526,608.1,298.55
95.3,51.956,614,298.85
97.3,51.386,608.1,299.15
99.4,50.656,632.1,299.55
101.7,50.266,621.6,299.75
103.4,49.736,645.9,300.05
105.5,49.186,649.4,300.35
107.5,48.666,641.4,300.65
109.5,48.106,646.1,300.95
111.5,47.536,641.5,301.25
113.6,46.986,660.5,301.45
115.6,46.446,643.7,301.75
117.6,45.866,642.2,302.05
119.7,45.286,669.6,302.35
121.7,44.726,643.7,302.65
123.7,44.136,638.6,302.95
125.7,43.556,682.7,303.25
127.8,42.986,689.7,303.65
129.8,42.396,669.7,303.85
131.8,41.776,700.4,304.15
133.8,41.176,699,304.55
135.9,40.576,654.1,304.75
137.9,39.976,693.5,305.05
139.9,39.176,700.3,305.45
142.3,38.716,671.9,305.75
144,38.116,730.7,306.05
146,37.496,714.1,306.35
148,36.866,697.6,306.65
150.1,36.226,694.9,306.95
152.1,35.576,736.5,307.35
154.1,34.946,706.6,307.65
156.2,34.266,688.1,307.95
158.2,33.606,730.6,308.25
160.2,32.916,732.1,308.65
162.2,32.226,713.5,308.95
164.3,31.526,721.7,309.25
166.3,30.806,759.4,309.55
168.3,30.096,717.5,309.85
170.4,29.376,751.6,310.15
172.4,28.646,772.5,310.55
174.4,27.906,764.3,310.85
176.4,27.176,776.8,311.15
178.5,26.466,751.2,311.55
180.5,25.766,817.2,311.95
182.5,25.016,803.5,312.35
184.5,24.286,816.4,312.85
186.6,23.566,842.4,313.25
188.6,22.816,830.3,313.85
190.6,22.046,816,314.35
192.7,21.336,817.4,315.05
194.7,20.596,864.8,315.65
196.7,19.856,854.4,316.25
198.7,19.136,867.2,316.95
200.8,18.406,868.2,317.65
202.8,17.676,937.8,318.35
204.8,16.976,856.4,319.05
206.9,16.266,891.4,319.85
208.9,15.526,908.8,320.65
210.9,14.796,880.5,321.35
212.9,14.146,940.3,322.15
215,13.516,944.6,322.95
217,12.936,934.2,323.75
219,12.406,1003.1,324.55
221.1,11.916,998.8,325.45
223.1,11.466,1026.3,326.35
225.1,11.036,1027.8,327.35
227.1,10.636,1018.2,328.35
229.2,10.276,1027.5,329.35
231.2,9.926,978.4,330.45
233.2,9.666,966.9,331.45
235.3,9.376,933.3,332.55
237.3,9.096,903,333.75
239.3,8.806,844.5,334.75
241.3,8.456,806.1,336.15
243.7,8.266,770.5,337.05
245.4,8.026,702,338.15
247.4,7.826,684.4,339.35
249.4,7.636,669.1,340.55
251.5,7.386,580.1,341.75
253.5,7.166,567.6,342.95
255.5,6.966,530.8,344.25
257.6,6.796,483.4,345.45
259.6,6.636,451.4,346.65
261.6,6.446,425,347.95
263.6,6.276,409.5,349.15
265.7,6.086,380.2,350.45
267.7,5.826,366.5,351.65
269.7,5.686,361.8,352.95
271.8,5.506,330.9,354.25
273.8,5.356,316,355.55
275.8,5.176,312,356.85
277.8,5.006,282.9,358.15
279.9,4.896,275.1,359.45
281.9,4.806,267.1,360.75
283.9,4.706,252.7,362.05
286,4.636,243.5,363.45
288,4.586,237.1,364.75
290,4.506,230.6,366.05
292,4.456,230.2,367.35
294.1,4.436,212.5,368.65
296.1,4.346,213.3,369.85
298.1,4.266,198.6,370.85
300.1,4.206,197.9,371.25
302.2,4.106,196.2,370.65
304.2,4.046,189.2,370.55
306.2,4.006,186.3,370.75
308.3,3.956,179.1,371.25
310.3,3.936,168.6,372.35
312.3,3.876,166.7,373.55
314.3,3.846,161.8,374.75
316.4,3.916,155,376.05
318.4,3.886,149.9,377.85
320.4,3.806,144.6,379.75
322.5,3.766,140.4,381.55
324.5,3.796,137.5,383.25
326.5,3.756,131.9,384.75
328.5,3.756,124.2,386.15
330.6,3.696,117.2,387.45
332.6,3.676,112,388.75
334.6,3.686,113.4,389.95
336.7,3.686,103,390.95
338.7,3.756,101,392.05
340.7,3.796,96.3,393.05
342.7,3.856,91.4,394.25
345.2,3.866,91.5,395.15
346.8,3.866,85.3,396.15
348.8,3.846,81.6,397.15
350.8,3.816,81,398.05
352.9,3.806,76.7,399.05
354.9,3.756,72.4,400.05
356.9,3.726,71.2,400.95
359,3.716,70.4,401.95
361,3.706,67.7,402.95
363,3.696,65.8,403.95
365,3.676,65.9,404.85
367.1,3.656,63.7,405.75
369.1,3.626,62.7,406.65
371.1,3.586,62.1,407.55
373.2,3.576,58.9,408.35
375.2,3.516,59.6,409.25
377.2,3.476,57.1,410.25
379.2,3.466,57.4,411.05
381.3,3.416,55.3,411.95
383.3,3.406,54.4,412.75
385.3,3.376,52.4,413.65
387.4,3.366,51.7,414.55
389.4,3.356,52.1,415.45
391.4,3.376,49.5,416.35
393.4,3.376,48.9,417.25
395.5,3.366,49.7,418.05
397.5,3.356,46.8,418.95
399.5,3.376,47,419.85
401.5,3.406,46.7,420.65
403.6,3.396,43.8,421.45
405.6,3.356,44.4,422.35
407.6,3.346,44.2,423.15
409.7,3.326,45,423.95
411.7,3.306,41.9,424.75
413.7,3.296,41.9,425.65
415.7,3.306,42.4,426.35
417.8,3.296,39.9,427.15
419.8,3.276,40.2,427.95
421.8,3.266,37.1,428.75
423.9,3.186,36.9,429.45
425.9,3.166,37.1,430.25
427.9,3.146,35.5,431.05
429.9,3.156,35.2,431.85
432,3.166,32.5,432.65
434,3.136,32,433.35
436,3.126,32.4,434.15
438.1,3.146,32,434.95
440.1,3.116,29.7,435.65
442.1,3.116,30,436.35
444.1,3.106,30.2,437.35
446.6,3.096,30.4,437.95
448.2,3.096,27.3,438.65
450.2,3.086,27.9,439.45
452.2,3.036,27.6,440.15
454.3,3.016,24.8,440.85
456.3,2.986,25.3,441.55
458.3,3.006,24.9,442.35
460.4,2.996,22.4,442.95
462.4,3.016,22.1,443.65
464.4,2.996,22.3,444.45
466.4,3.006,19.8,445.15
468.5,2.996,20,445.75
470.5,2.996,16.8,446.45
472.5,3.006,17,447.15
474.6,2.986,17.2,447.85
476.6,2.966,14.1,448.45
478.6,2.966,14.5,449.15
480.6,2.986,14.8,449.85
482.7,2.976,14.8,450.45
484.7,2.976,11.6,451.15
486.7,2.986,11.6,451.75
488.8,2.976,11.9,452.45
490.8,2.956,11.9,453.05
492.8,2.946,11.7,453.75
494.8,2.946,9.1,454.35
496.9,2.946,9,455.05
498.9,2.956,9.4,455.65
500.9,2.936,9.3,456.35
502.9,2.926,9.3,456.95
505,2.936,9.2,457.55
507,2.936,9.6,458.25
509,2.956,9.5,458.85
511.1,2.946,6.4,459.45
513.1,2.926,6.6,460.05
515.1,2.936,6.6,460.75
517.1,2.926,6.9,461.35
519.2,2.946,6.8,461.95
521.2,2.946,7.1,462.55
523.2,2.946,6.9,463.15
525.3,2.916,7,463.75
527.3,2.946,7.2,464.45
529.3,2.946,4.2,465.05
531.3,2.956,4.1,465.55
533.4,2.946,4.1,466.25
535.4,2.926,4.2,466.85
537.4,2.916,4.2,467.35
539.5,2.926,4.3,467.95
541.5,2.946,4.4,468.55
543.5,2.936,4.3,469.15
545.5,2.916,4.4,469.85
548.1,2.926,4.4,470.35
549.6,2.916,4.4,470.95
551.6,2.926,1.2,471.55
553.6,2.946,1.4,472.15
554.7,2.946,1.2,472.35