File: PMMA/Calibration_Data/ULSTER/ULSTER_Cone_25kW_2.csv
Time,Mass,HRR
[s],[g],[kW/m2]
0,71.01,0
4,71.018,4.1
8,71.031,3.4
12,71.072,4.1
16,71.113,3.5
20,71.147,1.7
24,71.174,0
28,71.194,0
32,71.209,0
36,71.22,0
40,71.228,0
44,71.234,0
48,71.238,0
52,71.241,0
56,71.244,0.6
60,71.245,1.1
64,71.242,2.4
68,71.234,0.6
72,71.222,0.6
76,71.204,0.6
80,71.179,1.8
84,71.146,2.4
88,71.103,1.1
92,71.048,0.6
96,70.981,1.8
100,70.899,1.1
104,70.8,1.1
108,70.683,1.1
112,70.547,1.1
116,70.389,1.8
120,70.209,2.3
124,70.006,4
128,69.78,19.8
132,69.53,83
136,69.257,167.8
140,68.96,247.8
144,68.642,294.1
148,68.302,321.6
152,67.943,346.7
156,67.565,365.3
160,67.169,374.4
164,66.758,372.5
168,66.334,374
172,65.896,375.8
176,65.448,379.7
180,64.99,387.3
184,64.524,392.6
188,64.05,390.9
192,63.57,391.9
196,63.083,393.4
200,62.591,392.6
204,62.094,396.6
208,61.591,398.6
212,61.083,405.9
216,60.57,412.7
220,60.053,421.9
224,59.529,418.2
228,59,425
232,58.465,421.1
236,57.923,422
240,57.376,415.5
244,56.822,415.8
248,56.263,420.2
252,55.696,427.8
256,55.124,436.7
260,54.546,432.4
264,53.962,438.2
268,53.372,441.9
272,52.777,447.2
276,52.177,450
280,51.572,458.4
284,50.963,460.3
288,50.35,455.9
292,49.733,457.2
296,49.111,457.7
300,48.486,464.2
304,47.857,465
308,47.223,474
312,46.586,481.1
316,45.944,483.3
320,45.297,483
324,44.645,491
328,43.989,502.6
332,43.327,499.2
336,42.659,499.9
340,41.986,501.9
344,41.306,516.8
348,40.621,516.6
352,39.929,523.2
356,39.23,523.1
360,38.525,522.6
364,37.814,521.3
368,37.095,524.8
372,36.371,517.4
376,35.641,522.2
380,34.905,543.8
384,34.163,548.1
388,33.418,553.3
392,32.67,562.4
396,31.919,574.5
400,31.167,587.2
404,30.415,595.6
408,29.664,595
412,28.917,606.3
416,28.175,624.5
420,27.438,676.7
424,26.709,707
428,25.989,679.4
432,25.279,631.4
436,24.581,586.8
440,23.894,572.4
444,23.221,564.9
448,22.562,557.3
452,21.918,547
456,21.288,535.1
460,20.675,525
464,20.078,525.1
468,19.498,519.1
472,18.935,514.1
476,18.389,500.9
480,17.861,484.5
484,17.351,473.2
488,16.858,462.6
492,16.385,440.6
496,15.93,415.7
500,15.493,396.6
504,15.074,379.4
508,14.673,350.6
512,14.289,325.1
516,13.922,306.7
520,13.571,295.6
524,13.234,279
528,12.912,263.3
532,12.604,247.6
536,12.307,236.7
540,12.022,232
544,11.747,222
548,11.482,215.1
552,11.225,204.9
556,10.976,198.6
560,10.734,194.5
564,10.499,191.3
568,10.27,185.3
572,10.046,178.8
576,9.829,175.6
580,9.615,173.5
584,9.407,164.7
588,9.203,166.1
592,9.002,164.3
596,8.806,161.1
600,8.612,159.3
604,8.422,155.2
608,8.235,148.5
612,8.05,142.7
616,7.868,139.5
620,7.689,140.1
624,7.513,138.5
628,7.338,134.8
632,7.167,131.5
636,6.999,130.1
640,6.835,130.1
644,6.673,125.1
648,6.515,123.3
652,6.361,118.6
656,6.211,118.2
660,6.066,116.8
664,5.925,115.7
668,5.789,111.5
672,5.658,106.5
676,5.532,104.5
680,5.411,103.8
684,5.294,103.3
688,5.182,100.7
692,5.074,98.9
696,4.971,93.1
700,4.873,90.3
704,4.779,87.3
708,4.69,83.1
712,4.604,81.8
716,4.522,80.1
720,4.443,75.8
724,4.368,73
728,4.296,69
732,4.227,68
736,4.16,64.9
740,4.095,62.8
744,4.033,60.6
748,3.972,61.3
752,3.913,59.2
756,3.854,57.6
760,3.797,55.7
764,3.739,54.3
768,3.683,54
772,3.627,52.2
776,3.572,51.1
780,3.518,50.6
784,3.464,48.9
788,3.411,48.4
792,3.359,47.2
796,3.307,46
800,3.257,45.2
804,3.207,43.9
808,3.159,45
812,3.11,44
816,3.064,41.7
820,3.017,39.4
824,2.972,37.7
828,2.928,37.3
832,2.884,37.8
836,2.841,36.3
840,2.798,35.3
844,2.757,35.2
848,2.717,33.9
852,2.678,33
856,2.641,32.5
860,2.605,31.4
864,2.572,30.8
868,2.541,30.2
872,2.511,30.2
876,2.485,30.1
880,2.46,28.4
884,2.438,25.7
888,2.418,24.4
892,2.4,23.2
896,2.384,22
900,2.369,21
904,2.356,19.9
908,2.343,21.1
912,2.332,21.8
916,2.32,20.6
920,2.309,19.3
924,2.298,18.4
928,2.287,16
932,2.276,16.6
936,2.265,16.1
940,2.255,14.9
944,2.245,14.2
948,2.236,13.9
952,2.228,13.8
956,2.22,12.6
960,2.215,11.4
964,2.211,10.2
968,2.208,8.6
972,2.206,7.4
976,2.204,8.6
980,2.203,6.8
984,2.203,6.8
988,2.205,6.8
992,2.209,6.9
996,2.214,6.3
1000,2.22,6.8
1004,2.225,7.5
1008,2.228,7.4
1012,2.224,7.4
1016,2.205,9.2
1020,2.157,9.8
1024,2.1,9.2
1028,2.1,9.1
1030,2.1,9.7