File: PMMA/Calibration_Data/ULSTER/ULSTER_Cone_50kW_3.csv
Time,Mass,HRR
[s],[g],[kW/m2]
0,66.58,0
3,66.559,0
6,66.559,0
9,66.473,0
12,66.358,0.5
15,66.226,1.7
18,66.063,0.6
21,65.864,0
24,65.629,0
27,65.36,0
30,65.057,2.2
33,64.724,24.2
36,64.379,69.5
39,64.045,199.3
42,63.684,311
45,63.299,393.4
48,62.891,437.2
51,62.46,480.5
54,62.006,521.7
57,61.533,551.5
60,61.042,559.7
63,60.533,561
66,60.009,555.7
69,59.472,555.8
72,58.922,569.3
75,58.36,585.8
78,57.789,600.9
81,57.209,603.8
84,56.622,598.8
87,56.029,600.9
90,55.429,607.8
93,54.824,622.7
96,54.215,631.8
99,53.601,625
102,52.982,619.4
105,52.359,614.5
108,51.732,623.8
111,51.1,636.8
114,50.462,645.8
117,49.82,661.6
120,49.171,663.4
123,48.516,658.3
126,47.855,665.8
129,47.187,675.5
132,46.511,683.2
135,45.828,673.3
138,45.137,665.5
141,44.438,668
144,43.731,683.1
147,43.016,700
150,42.292,709.4
153,41.561,714.3
156,40.821,711.8
159,40.073,724.3
162,39.317,747.3
165,38.554,770.7
168,37.784,793.8
171,37.006,794.8
174,36.222,801.5
177,35.431,811.7
180,34.633,841.8
183,33.83,876.9
186,33.021,878.2
189,32.208,865
192,31.39,856.5
195,30.569,850
198,29.746,858.9
201,28.921,854.7
204,28.096,843.1
207,27.273,840.2
210,26.453,834.9
213,25.639,850
216,24.833,863.2
219,24.038,883.2
222,23.255,905.7
225,22.487,909.8
228,21.737,927.8
231,21.007,943.8
234,20.299,951.5
237,19.616,962.3
240,18.958,952.3
243,18.328,929.8
246,17.725,893.8
249,17.151,866.8
252,16.604,830.6
255,16.085,793.9
258,15.592,765.8
261,15.125,688.2
264,14.681,612.6
267,14.26,546.3
270,13.858,501.4
273,13.475,450.3
276,13.108,413.1
279,12.755,378.9
282,12.415,355.1
285,12.085,334
288,11.765,321
291,11.454,314.4
294,11.149,305.9
297,10.852,297.7
300,10.56,288.2
303,10.274,280.7
306,9.993,276.7
309,9.717,283
312,9.446,286.1
315,9.18,286.8
318,8.919,281.4
321,8.663,276
324,8.413,272.3
327,8.168,271.9
330,7.928,272.5
333,7.693,269.5
336,7.463,262.7
339,7.239,257.2
342,7.02,252.4
345,6.807,249.5
348,6.599,247.3
351,6.397,244.4
354,6.2,234.8
357,6.009,223.8
360,5.824,212
363,5.644,209.3
366,5.47,204.7
369,5.302,199.5
372,5.14,191
375,4.984,182
378,4.834,171.7
381,4.691,166.8
384,4.554,163.4
387,4.422,158.5
390,4.297,151.1
393,4.178,140.8
396,4.064,129
399,3.956,122.4
402,3.852,115
405,3.753,110.9
408,3.659,105.1
411,3.568,98.5
414,3.481,95
417,3.397,93.6
420,3.315,92.8
423,3.235,91.4
426,3.157,90.1
429,3.081,87.4
432,3.006,84.8
435,2.933,85.8
438,2.862,85.7
441,2.792,85.8
444,2.723,83.2
447,2.656,79.4
450,2.591,79
453,2.528,76.4
456,2.468,74.9
459,2.411,75.9
462,2.356,75
465,2.305,70.3
468,2.256,68.3
471,2.21,65.6
474,2.167,61.6
477,2.126,58.8
480,2.087,55.1
483,2.05,54.1
486,2.015,49.2
489,1.981,46.5
492,1.947,46.5
495,1.915,44.1
498,1.882,39.7
501,1.85,36.8
504,1.818,34
507,1.786,31.3
510,1.755,30.6
513,1.723,30.1
516,1.693,28.4
519,1.662,27.3
522,1.633,25
525,1.604,23.9
528,1.575,22
531,1.547,22.2
534,1.52,21
537,1.494,19.4
540,1.469,18.8
543,1.443,18.2
546,1.418,18.8
549,1.393,18.2
552,1.368,17
555,1.343,17.6
558,1.319,17.2
561,1.294,16.6
564,1.269,16.6
567,1.244,16
570,1.218,14.2
573,1.192,13.6
576,1.167,13.1
579,1.142,11.4
582,1.117,11.4
585,1.093,11.4
588,1.07,11.4
591,1.048,10.8
594,1.027,9.7
597,1.008,9
600,0.991,9.1
603,0.976,9.1
606,0.963,9.1
609,0.953,8
612,0.944,7.3
615,0.938,6.7
618,0.933,7.4
621,0.93,6.1
624,0.928,6.8
627,0.926,6.8
630,0.925,7.4
633,0.924,6.8
636,0.922,6.3
639,0.92,5.7
642,0.915,5.7
645,0.91,5.7
648,0.901,4.4
651,0.892,4.5
654,0.881,4.5
657,0.869,2.7
660,0.855,3.3
663,0.841,2.7
666,0.826,2.2
669,0.81,2.2
672,0.792,2.2
675,0.774,2.7
678,0.754,2.2
681,0.736,2.2
684,0.721,1.6
687,0.711,1.6
690,0.71,1.6
693,0.707,1
696,0.704,2.3
699,0.704,2.3
700,0.704,1