File: PMMA/Calibration_Data/ULSTER/ULSTER_Cone_25kW_1.csv
Time,Mass,HRR
[s],[g],[kW/m2]
0,66.99,0
3,67.012,12.5
6,67.012,1.6
9,67.05,2.3
12,67.076,1.1
15,67.092,0
18,67.099,0.6
21,67.102,0.6
24,67.102,0.6
27,67.099,1.7
30,67.095,1.1
33,67.089,1.7
36,67.083,2.3
39,67.076,3.4
42,67.069,4
45,67.063,5.8
48,67.057,6.8
51,67.048,6.4
54,67.04,6.9
57,67.03,5.1
60,67.02,3.4
63,67.008,2.8
66,66.996,2.3
69,66.982,2.3
72,66.966,2.3
75,66.948,2.3
78,66.926,2.3
81,66.901,2.3
84,66.871,2.8
87,66.836,3.4
90,66.795,3.4
93,66.746,2.8
96,66.689,3.4
99,66.622,3.4
102,66.544,4.5
105,66.455,4.5
108,66.352,5.1
111,66.235,7.5
114,66.104,8
117,65.957,7.3
120,65.795,11.1
123,65.615,23.6
126,65.419,60.7
129,65.205,123.6
132,64.975,156.6
135,64.728,221.5
138,64.465,281
141,64.186,318.4
144,63.893,345.5
147,63.587,360.6
150,63.267,368.9
153,62.935,371.3
156,62.593,371.5
159,62.241,377.8
162,61.881,383.2
165,61.513,384.5
168,61.138,379.8
171,60.758,382.7
174,60.373,388.2
177,59.984,391.4
180,59.592,393
183,59.196,394
186,58.798,395
189,58.398,400
192,57.996,403.4
195,57.593,407.4
198,57.188,405.6
201,56.782,401.6
204,56.374,401.9
207,55.965,407.2
210,55.554,410.9
213,55.142,417.4
216,54.727,418.6
219,54.312,416.7
222,53.894,417.3
225,53.474,413.3
228,53.051,417.5
231,52.626,427
234,52.198,434.7
237,51.767,436.3
240,51.334,438.3
243,50.897,435.8
246,50.457,432.5
249,50.014,434.9
252,49.568,439.3
255,49.119,439.9
258,48.667,445
261,48.212,448.5
264,47.755,447.3
267,47.295,459.2
270,46.832,463.9
273,46.367,463.2
276,45.9,465.1
279,45.431,461.8
282,44.961,471
285,44.488,481.6
288,44.014,485.3
291,43.539,490.2
294,43.061,488.4
297,42.583,488.1
300,42.102,496.5
303,41.619,500.8
306,41.134,504.8
309,40.647,504
312,40.159,501
315,39.667,495.2
318,39.173,492.6
321,38.676,500.1
324,38.177,501.1
327,37.674,503.8
330,37.169,497.2
333,36.662,491.5
336,36.151,483.1
339,35.639,486.9
342,35.124,503.5
345,34.607,514.7
348,34.089,520.7
351,33.568,524.9
354,33.047,526.1
357,32.524,533.9
360,32,533.3
363,31.475,529.5
366,30.95,525.8
369,30.424,526.5
372,29.898,528.9
375,29.372,530.1
378,28.846,532.5
381,28.32,542.2
384,27.795,542.3
387,27.272,540
390,26.748,539.2
393,26.227,543.3
396,25.707,552.8
399,25.189,563.5
402,24.674,567.7
405,24.162,560.9
408,23.653,545.7
411,23.149,529.2
414,22.648,521.3
417,22.153,520.1
420,21.662,531.3
423,21.178,541.1
426,20.699,543.3
429,20.228,537
432,19.763,533.1
435,19.306,529.5
438,18.858,525
441,18.418,518.2
444,17.986,514.9
447,17.564,508.5
450,17.151,504.4
453,16.748,504.2
456,16.356,495.3
459,15.974,485.3
462,15.603,477.6
465,15.243,462.5
468,14.895,452.6
471,14.558,439.1
474,14.232,427
477,13.918,413.1
480,13.615,394.4
483,13.323,378.1
486,13.043,360.2
489,12.773,341.4
492,12.513,324.5
495,12.264,314.2
498,12.024,299.8
501,11.792,285.5
504,11.569,274.9
507,11.354,260.7
510,11.145,253.3
513,10.943,245.3
516,10.747,235.7
519,10.557,229.4
522,10.372,218.9
525,10.191,209.7
528,10.015,201.1
531,9.842,195.6
534,9.673,191.1
537,9.508,184.7
540,9.346,176.3
543,9.187,172
546,9.032,172
549,8.88,173.6
552,8.73,173.5
555,8.584,172.3
558,8.441,167.7
561,8.301,163.6
564,8.164,160
567,8.03,157.4
570,7.899,154.7
573,7.771,154.2
576,7.645,151.7
579,7.522,150
582,7.402,148.5
585,7.285,145.1
588,7.169,141.5
591,7.056,136.8
594,6.945,133.4
597,6.836,130.5
600,6.73,127.3
603,6.625,125.8
606,6.522,122.5
609,6.421,120.3
612,6.322,116.3
615,6.225,112.3
618,6.129,110.6
621,6.035,107.7
624,5.943,107.2
627,5.852,102.8
630,5.763,99.7
633,5.675,95.6
636,5.589,94.5
639,5.506,94.3
642,5.423,93.2
645,5.342,90.2
648,5.264,86.4
651,5.187,86
654,5.112,83.5
657,5.039,82.3
660,4.968,81
663,4.899,78.1
666,4.833,75.8
669,4.769,74.1
672,4.706,72
675,4.647,68.9
678,4.589,68.4
681,4.533,65.9
684,4.479,64.8
687,4.427,63.8
690,4.377,61.4
693,4.328,59
696,4.28,58.4
699,4.233,56.3
702,4.186,56.9
705,4.14,55
708,4.094,53.3
711,4.048,51.7
714,4.001,50.9
717,3.953,49.8
720,3.904,49.2
723,3.854,48.2
726,3.802,46.9
729,3.748,47.6
732,3.693,47.3
735,3.636,45
738,3.577,44.2
741,3.516,41.6
744,3.452,42.5
747,3.388,40.9
750,3.322,40.9
753,3.256,39.8
756,3.191,39.4
759,3.128,38.6
762,3.066,39.8
765,3.006,39.4
768,2.949,38.3
771,2.897,37.7
774,2.85,37
777,2.808,37.3
780,2.773,36.6
783,2.744,33.8
786,2.721,34.4
789,2.704,34.4
792,2.692,34.4
795,2.685,33.3
798,2.682,34.5
801,2.678,32.8
804,2.68,31.6
807,2.691,30.6
810,2.712,31.7
813,2.737,31
816,2.761,31.1
819,2.781,29.5
822,2.791,30.7
825,2.783,30.1
828,2.75,29
831,2.711,29.5
834,2.694,28.4
837,2.7,28.4
840,2.7,27.8
841,2.7,27.3