File: PMMA/Calibration_Data/ULSTER/ULSTER_Cone_50kW_2.csv
Time,Mass,HRR
[s],[g],[kW/m2]
0,67.15,0
3,67.16,0
6,67.16,0
9,67.13,0
12,67.062,0
15,66.983,0
18,66.879,0
21,66.736,0
24,66.552,0
27,66.324,0
30,66.053,1.1
33,65.741,5
36,65.415,44.7
39,65.101,111.3
42,64.756,258.2
45,64.382,371.5
48,63.979,445
51,63.55,487.4
54,63.095,514
57,62.617,530.1
60,62.118,547.6
63,61.6,564.1
66,61.066,573.6
69,60.519,574.2
72,59.958,571.5
75,59.386,580.7
78,58.805,596.4
81,58.216,606.9
84,57.62,610.5
87,57.017,618.8
90,56.41,625.6
93,55.797,627.4
96,55.179,638.6
99,54.557,650.8
102,53.93,654.1
105,53.3,648.1
108,52.665,646.7
111,52.025,654.4
114,51.381,661.5
117,50.732,678.3
120,50.077,679
123,49.416,667.4
126,48.748,662.4
129,48.072,668
132,47.389,682.2
135,46.698,701.4
138,45.998,709.1
141,45.289,714.1
144,44.57,706.6
147,43.841,712.8
150,43.101,717.4
153,42.352,735.8
156,41.592,759.1
159,40.822,760.9
162,40.043,764.7
165,39.254,778.3
168,38.456,796.8
171,37.65,815.6
174,36.835,830.6
177,36.011,834.3
180,35.181,841.5
183,34.343,849.9
186,33.499,868.6
189,32.648,894
192,31.792,896.7
195,30.931,896.5
198,30.065,892.6
201,29.195,880.8
204,28.323,883
207,27.45,892.6
210,26.578,891.4
213,25.709,887.8
216,24.846,892
219,23.992,892.3
222,23.148,914.3
225,22.319,930.1
228,21.506,942.7
231,20.714,951.1
234,19.947,954.5
237,19.205,953.4
240,18.492,981.8
243,17.809,998.1
246,17.159,1013.5
249,16.541,997.8
252,15.956,960.7
255,15.403,902.4
258,14.881,869.4
261,14.39,797.3
264,13.927,685.8
267,13.49,582.2
270,13.078,494.7
273,12.687,445.6
276,12.317,407.5
279,11.963,378.9
282,11.626,355.7
285,11.302,337.4
288,10.99,319.3
291,10.689,305.3
294,10.398,297
297,10.116,295.2
300,9.843,291.6
303,9.577,289
306,9.318,282.7
309,9.067,277.8
312,8.822,276.8
315,8.584,278.6
318,8.352,271.8
321,8.128,265.5
324,7.91,258
327,7.698,248.9
330,7.492,244.7
333,7.293,238.6
336,7.099,232.6
339,6.91,225.6
342,6.727,218.5
345,6.549,212.3
348,6.375,208.6
351,6.205,201.6
354,6.04,195
357,5.877,186.4
360,5.719,178.8
363,5.564,173.3
366,5.411,170.9
369,5.262,168.5
372,5.116,164.3
375,4.973,159.5
378,4.833,152.2
381,4.696,145.8
384,4.564,141
387,4.435,134.7
390,4.311,130.8
393,4.19,125.1
396,4.074,119.3
399,3.962,114
402,3.854,110.1
405,3.75,105.6
408,3.65,100.8
411,3.554,96.1
414,3.462,94.1
417,3.373,89.3
420,3.287,85.9
423,3.204,84.4
426,3.123,82.2
429,3.045,81
432,2.969,79.8
435,2.895,76.3
438,2.823,75.3
441,2.753,75.8
444,2.685,75.6
447,2.619,74.7
450,2.554,73.6
453,2.492,71.3
456,2.433,69.5
459,2.375,68.5
462,2.321,67.3
465,2.27,67.6
468,2.221,65.8
471,2.176,64.1
474,2.134,61.4
477,2.095,57.3
480,2.059,54
483,2.025,48.5
486,1.994,47.7
489,1.965,44.4
492,1.937,42.6
495,1.91,42.2
498,1.883,41
501,1.857,39.9
504,1.83,37
507,1.803,35.2
510,1.775,34.2
513,1.746,33.1
516,1.717,31.9
519,1.687,30.8
522,1.657,28.5
525,1.627,28.5
528,1.598,27.5
531,1.569,26.8
534,1.541,25.6
537,1.515,25.2
540,1.489,23.5
543,1.465,22.8
546,1.441,21
549,1.419,19.9
552,1.399,20.7
555,1.379,20.6
558,1.358,20.7
561,1.339,20
564,1.32,19.5
567,1.301,17.7
570,1.282,16.6
573,1.263,16
576,1.244,16
579,1.227,16
582,1.209,16.7
585,1.193,14.9
588,1.177,14.9
591,1.162,14.3
594,1.149,13.2
597,1.137,11.4
600,1.126,11.4
603,1.116,11.5
606,1.106,12.6
609,1.098,10.3
612,1.09,9.8
615,1.081,9.8
618,1.073,8.5
621,1.064,8.6
624,1.054,8.5
627,1.044,8.6
630,1.034,8.6
633,1.022,7.4
636,1.01,7.4
639,0.997,6.8
642,0.984,6.3
645,0.971,5.7
648,0.957,4.5
651,0.944,3.9
654,0.932,4
657,0.92,5.1
660,0.907,4
663,0.893,4
666,0.879,2.3
669,0.867,2.3
672,0.855,2.3
675,0.844,1
678,0.833,1.7
681,0.819,1.1
684,0.804,0.6
687,0.781,0
690,0.744,0
693,0.672,0
696,0.64,0
699,0.64,0
700,0.64,0