File: PMMA/Calibration_Data/ULSTER/ULSTER_Cone_50kW_1.csv
Time,Mass,HRR
[s],[g],[kW/m2]
0,70.44,0
3,70.486,0.6
6,70.486,1.8
9,70.471,0.6
12,70.42,1.3
15,70.312,0.6
18,70.151,0.6
21,69.94,1.1
24,69.691,1.1
27,69.41,1.7
30,69.097,2.8
33,68.754,10.1
36,68.383,30.3
39,68.023,180.6
42,67.658,318
45,67.267,403.2
48,66.851,470.6
51,66.413,520.7
54,65.953,558
57,65.473,585.2
60,64.976,599.1
63,64.461,591.9
66,63.931,586.3
69,63.387,593.8
72,62.83,613.9
75,62.261,628.5
78,61.681,635.3
81,61.091,644
84,60.492,627.6
87,59.885,610.1
90,59.271,618.5
93,58.649,655.7
96,58.021,686.8
99,57.387,688.8
102,56.747,679.8
105,56.1,669.3
108,55.446,676
111,54.787,683.6
114,54.12,692.6
117,53.448,688.6
120,52.768,678
123,52.081,676.7
126,51.388,684.7
129,50.688,699
132,49.981,706.7
135,49.267,711.1
138,48.546,715.9
141,47.818,722.6
144,47.084,731.1
147,46.343,749
150,45.594,759.3
153,44.839,760.1
156,44.077,756.5
159,43.308,754
162,42.533,773.9
165,41.751,791.5
168,40.962,795.3
171,40.167,804
174,39.366,795.7
177,38.559,800.1
180,37.745,823.9
183,36.927,855.6
186,36.102,869.3
189,35.273,870
192,34.44,867.5
195,33.602,866.9
198,32.761,869.8
201,31.916,876.1
204,31.07,891.1
207,30.222,881
210,29.375,857.2
213,28.529,862
216,27.686,864.5
219,26.848,882.8
222,26.017,892.7
225,25.194,911.6
228,24.383,924.7
231,23.586,936.3
234,22.805,948.8
237,22.042,971.6
240,21.299,991.4
243,20.579,982.5
246,19.883,959.2
249,19.213,944.3
252,18.57,940
255,17.954,947.7
258,17.367,938.9
261,16.807,890
264,16.275,853.1
267,15.77,765
270,15.289,674.8
273,14.833,605
276,14.4,543.2
279,13.986,485.3
282,13.592,436.8
285,13.215,400.3
288,12.853,373.5
291,12.505,355.7
294,12.169,343.8
297,11.843,330.6
300,11.526,316.8
303,11.217,307.2
306,10.917,306.7
309,10.624,304.5
312,10.338,303.5
315,10.059,296.4
318,9.786,289.3
321,9.521,281.6
324,9.262,276.5
327,9.011,275.5
330,8.767,273.9
333,8.53,271.5
336,8.3,259.9
339,8.077,250.1
342,7.861,245.5
345,7.652,239.1
348,7.449,233
351,7.253,226.5
354,7.062,215.5
357,6.877,203.9
360,6.696,197.3
363,6.521,195
366,6.35,192.2
369,6.184,184.7
372,6.022,175.9
375,5.864,171.7
378,5.71,169.3
381,5.56,166.8
384,5.414,164.4
387,5.272,161
390,5.135,155.9
393,5.001,149.5
396,4.871,145.5
399,4.745,144
402,4.623,140.8
405,4.506,138
408,4.392,131.1
411,4.283,128.8
414,4.177,123.8
417,4.076,120.6
420,3.978,115.5
423,3.885,110.7
426,3.795,105.7
429,3.709,100.7
432,3.628,95.2
435,3.549,93.3
438,3.475,91.8
441,3.404,89.1
444,3.336,85.6
447,3.272,80.2
450,3.21,78.4
453,3.151,76.3
456,3.094,71.5
459,3.04,69.4
462,2.987,65.1
465,2.936,61.4
468,2.887,57.8
471,2.839,58.1
474,2.793,55.7
477,2.747,55.2
480,2.703,53.5
483,2.661,51.5
486,2.619,48.4
489,2.578,46
492,2.539,46.8
495,2.502,45.1
498,2.465,43.4
501,2.43,41.8
504,2.396,40.6
507,2.363,40.7
510,2.332,40
513,2.301,38.9
516,2.272,39.1
519,2.243,36.6
522,2.216,35
525,2.189,33.9
528,2.163,33.3
531,2.137,32.7
534,2.113,31
537,2.089,29.2
540,2.065,26.9
543,2.042,27.6
546,2.02,26.4
549,1.999,25.2
552,1.979,22.8
555,1.959,21.7
558,1.94,20
561,1.922,20
564,1.904,20.1
567,1.887,20.1
570,1.87,19
573,1.854,18.3
576,1.837,17.7
579,1.821,18.4
582,1.805,18.4
585,1.789,17.7
588,1.774,16.6
591,1.758,16
594,1.742,15.6
597,1.726,15
600,1.711,15.6
603,1.695,15
606,1.68,15.5
609,1.666,15.6
612,1.652,14.3
615,1.639,13.8
618,1.627,12.6
621,1.616,12.6
624,1.605,11.5
627,1.595,12.6
630,1.586,11.5
633,1.577,10.9
636,1.569,10.9
639,1.561,9.8
642,1.554,9.8
645,1.547,10.9
648,1.54,9.2
651,1.533,8.6
654,1.526,8.6
657,1.519,8.1
660,1.513,7.4
663,1.506,8
666,1.499,6.8
669,1.493,8.1
672,1.487,7.5
675,1.481,6.4
678,1.476,5.8
681,1.47,5.1
684,1.466,5.1
687,1.461,3.4
690,1.457,3.4
693,1.452,2.3
696,1.448,1.6
699,1.445,1.6
702,1.443,1.7
705,1.441,1.7
708,1.438,1.7
711,1.435,1.7
714,1.432,1.7
717,1.429,1.7
720,1.424,1.1
723,1.419,1.1
726,1.415,1.1
729,1.421,1.1
732,1.45,1.1
735,1.501,0.6
738,1.501,0.6
741,1.501,0