File: PMMA/Calibration_Data/ULSTER/ULSTER_Cone_50kW_4.csv
Time,Mass,HRR
[s],[g],[kW/m2]
0,71.48,0
2,71.528,8.1
4,71.528,6.9
6,71.528,5.2
8,71.382,4.1
10,71.248,3.5
12,71.141,3.5
14,71.054,3
16,70.975,2.3
18,70.896,2.3
20,70.813,2.3
22,70.72,4.7
24,70.611,7
26,70.485,8.2
28,70.339,6.8
30,70.202,6.8
32,70.054,6.1
34,69.892,7.2
36,69.718,16
38,69.528,33.8
40,69.322,81.3
42,69.099,134
44,68.858,210.7
46,68.599,288.1
48,68.323,335.6
50,68.03,399.2
52,67.721,446.5
54,67.397,478.9
56,67.059,507.4
58,66.708,528.6
60,66.345,542.5
62,65.973,551.1
64,65.59,555.9
66,65.201,564.7
68,64.804,576
70,64.403,579.9
72,63.997,591.9
74,63.587,604.3
76,63.176,612.5
78,62.762,611.1
80,62.347,608.4
82,61.932,610.3
84,61.516,612
86,61.101,615.3
88,60.686,622.3
90,60.27,628.9
92,59.856,639.7
94,59.441,650.7
96,59.027,654.5
98,58.612,650.1
100,58.198,648.9
102,57.783,656.9
104,57.366,659.7
106,56.949,660.7
108,56.53,668.9
110,56.109,670.5
112,55.687,671.5
114,55.261,662.7
116,54.833,661.3
118,54.402,661.4
120,53.968,663.6
122,53.532,674.1
124,53.092,680
126,52.649,689
128,52.202,690.7
130,51.752,693
132,51.298,695.8
134,50.841,691
136,50.381,694.3
138,49.918,699.4
140,49.452,701.7
142,48.982,711.3
144,48.51,719.2
146,48.034,733.5
148,47.556,733.6
150,47.074,735.6
152,46.588,740.8
154,46.099,735.6
156,45.607,738.6
158,45.112,743.2
160,44.613,746.5
162,44.111,751.1
164,43.605,751.1
166,43.096,753.5
168,42.583,750.2
170,42.066,748.9
172,41.544,751.9
174,41.02,756.4
176,40.491,761.8
178,39.958,773.8
180,39.422,783.1
182,38.883,798.9
184,38.339,800
186,37.792,808.1
188,37.242,812.5
190,36.689,819.3
192,36.134,830.5
194,35.576,838.1
196,35.017,853.2
198,34.455,866.6
200,33.893,871
202,33.328,865.7
204,32.762,859.7
206,32.196,856
208,31.628,857.3
210,31.059,862.7
212,30.489,866.8
214,29.918,884.9
216,29.344,890.1
218,28.769,891.5
220,28.191,884
222,27.61,880.1
224,27.026,873.3
226,26.439,872
228,25.849,874.7
230,25.256,884.3
232,24.66,892.6
234,24.061,904.4
236,23.461,913
238,22.861,928.8
240,22.261,929
242,21.662,933.8
244,21.067,940.6
246,20.477,948.6
248,19.895,959.9
250,19.321,983.4
252,18.758,990.3
254,18.208,1005.1
256,17.672,1009.1
258,17.152,1013.1
260,16.649,1020.1
262,16.165,1025.3
264,15.7,1028.1
266,15.256,1046.7
268,14.832,1053.5
270,14.429,1047.5
272,14.046,1032.2
274,13.684,1003.5
276,13.34,954.4
278,13.015,894.9
280,12.707,843.9
282,12.415,777.8
284,12.138,714.3
286,11.874,660.3
288,11.623,596.3
290,11.382,533.9
292,11.15,479.5
294,10.927,430.1
296,10.711,401.3
298,10.5,375.8
300,10.295,359
302,10.094,349.5
304,9.896,342.4
306,9.702,330
308,9.509,320.2
310,9.319,311.9
312,9.13,301.4
314,8.943,294.7
316,8.757,293.2
318,8.572,294.3
320,8.387,293.4
322,8.203,294.1
324,8.02,292.6
326,7.837,289.3
328,7.655,282.2
330,7.474,280.5
332,7.293,279.7
334,7.114,278.6
336,6.936,276.4
338,6.758,274.7
340,6.582,273.3
342,6.407,273.3
344,6.234,274.1
346,6.062,272.8
348,5.893,270.2
350,5.726,267.3
352,5.561,266.9
354,5.399,266.3
356,5.239,267.4
358,5.082,266.3
360,4.928,265
362,4.778,264.8
364,4.631,260.1
366,4.486,258
368,4.346,250.3
370,4.209,245.5
372,4.076,243.8
374,3.947,241.5
376,3.821,236.9
378,3.7,235.5
380,3.583,232.4
382,3.47,228
384,3.361,220.8
386,3.256,213.3
388,3.156,204.8
390,3.059,200.8
392,2.967,196.3
394,2.878,190.1
396,2.793,185.2
398,2.711,180.6
400,2.632,175.5
402,2.557,168.3
404,2.484,161.7
406,2.414,155.6
408,2.347,149.3
410,2.281,145.6
412,2.218,138.3
414,2.157,131.3
416,2.098,122.3
418,2.04,114.9
420,1.984,109.5
422,1.93,103.8
424,1.877,98.6
426,1.826,95
428,1.778,92.4
430,1.731,89.9
432,1.687,85
434,1.644,82.8
436,1.604,80
438,1.565,79
440,1.529,74.8
442,1.495,70.9
444,1.463,67.8
446,1.433,65.1
448,1.406,63
450,1.38,60.7
452,1.357,58.6
454,1.335,56.6
456,1.315,52.7
458,1.296,48.6
460,1.279,46.1
462,1.264,43.3
464,1.249,41.9
466,1.236,38.1
468,1.224,35.8
470,1.212,34.3
472,1.202,31.6
474,1.192,29.4
476,1.183,26.7
478,1.174,25.6
480,1.166,23.4
482,1.158,20.7
484,1.149,19.7
486,1.141,17.5
488,1.134,17
490,1.126,16.5
492,1.118,14.3
494,1.11,13.8
496,1.102,12.7
498,1.094,12.2
500,1.085,11.7
502,1.076,11.1
504,1.067,10.7
506,1.057,9.5
508,1.047,7.4
510,1.037,8
512,1.027,5.1
514,1.017,4.7
516,1.007,5.2
518,0.996,4.8
520,0.986,4.8
522,0.974,3.2
524,0.962,2
526,0.949,2.7
528,0.937,2.7
530,0.926,1.7
532,0.919,1.1
534,0.913,1.3
536,0.902,1.3
538,0.892,0.1
540,0.883,0
542,0.874,0.2
544,0.865,0
546,0.856,0
548,0.847,0
550,0.842,0
552,0.848,0
554,0.887,0
556,1,0
558,1,0.6
560,1,0
562,1,0