File: PMMA/Calibration_Data/ULSTER/ULSTER_Cone_50kW_5.csv
Time,Mass,HRR
[s],[g],[kW/m2]
0,69.34,0
3,69.323,3.3
6,69.323,4.9
9,69.559,4.1
12,69.591,0.7
15,69.465,0
18,69.25,0
21,68.987,0
24,68.688,0
27,68.358,0.7
30,68,2.3
33,67.614,8.8
36,67.223,43.9
39,66.846,127.3
42,66.438,234.8
45,66.003,331.8
48,65.545,400.6
51,65.068,467
54,64.575,509.7
57,64.067,534.1
60,63.544,546.1
63,63.009,560.2
66,62.461,575.7
69,61.903,586.3
72,61.336,595.5
75,60.761,602
78,60.18,601.9
81,59.594,604.2
84,59.003,606.7
87,58.408,620.6
90,57.809,630.6
93,57.206,638
96,56.598,634.7
99,55.984,629.7
102,55.365,638.5
105,54.739,651
108,54.105,657.4
111,53.463,656.6
114,52.811,654
117,52.15,666.5
120,51.477,678.3
123,50.794,688.9
126,50.099,689.9
129,49.393,681.5
132,48.677,679.7
135,47.949,679.8
138,47.212,699.7
141,46.466,715.5
144,45.711,726.4
147,44.949,724.5
150,44.179,716.6
153,43.403,721.5
156,42.622,733.4
159,41.835,750.8
162,41.043,762
165,40.247,766.3
168,39.443,767
171,38.634,774.8
174,37.818,786.3
177,36.995,806.5
180,36.162,824.4
183,35.321,822.7
186,34.47,823.8
189,33.608,827.4
192,32.735,845.9
195,31.852,853.6
198,30.958,867
201,30.056,863.6
204,29.147,855.3
207,28.234,861
210,27.319,879.8
213,26.405,903
216,25.496,916.3
219,24.595,920.2
222,23.706,909.7
225,22.834,911.9
228,21.982,942.4
231,21.155,959.3
234,20.356,989.3
237,19.589,1016.8
240,18.855,1014.9
243,18.157,1012.6
246,17.495,1010.5
249,16.872,1005.3
252,16.287,987.3
255,15.741,943
258,15.233,880
261,14.762,807.3
264,14.327,721.6
267,13.924,635.8
270,13.552,547.5
273,13.206,460.8
276,12.886,397.2
279,12.588,350.3
282,12.311,318.8
285,12.052,296.5
288,11.806,274.4
291,11.573,250.5
294,11.349,233.9
297,11.134,223.6
300,10.923,214.8
303,10.718,207.7
306,10.516,199.3
309,10.318,191.5
312,10.122,184.5
315,9.928,179
318,9.735,178
321,9.543,178.1
324,9.353,174.3
327,9.166,169.9
330,8.983,166.9
333,8.803,161.8
336,8.627,158.4
339,8.455,160.9
342,8.287,161.4
345,8.124,158.4
348,7.966,155.9
351,7.813,155.2
354,7.664,155.1
357,7.519,153.9
360,7.377,150.7
363,7.236,150.5
366,7.095,147.5
369,6.954,144.4
372,6.811,142.8
375,6.667,142.7
378,6.519,143
381,6.367,140.5
384,6.21,137.3
387,6.048,137.7
390,5.881,136.3
393,5.711,135.8
396,5.539,134.8
399,5.366,136.4
402,5.192,132.2
405,5.021,128.9
408,4.854,128.4
411,4.691,127.8
414,4.535,126
417,4.388,124.7
420,4.251,123.2
423,4.126,119.4
426,4.011,116.3
429,3.908,115.7
432,3.815,116.7
435,3.732,115.8
438,3.658,115.1
441,3.594,114.4
444,3.536,115.5
447,3.484,112.8
450,3.436,112.8
453,3.389,108.3
456,3.341,106.9
459,3.29,105.6
462,3.238,104.9
465,3.181,103.9
468,3.121,99.2
471,3.055,97.5
474,2.984,93.1
477,2.909,92
480,2.827,89.8
483,2.741,88.5
486,2.652,82.7
489,2.561,79.7
492,2.47,77
495,2.379,72.6
498,2.29,68.5
501,2.203,66.7
504,2.118,64.2
507,2.038,63.5
510,1.961,63.6
513,1.888,60.2
516,1.819,57.2
519,1.756,56.6
522,1.698,53.1
525,1.644,51.7
528,1.594,48.6
531,1.549,47.7
534,1.508,44.4
537,1.469,43.3
540,1.435,41.9
543,1.405,39.8
546,1.378,37.4
549,1.355,34.2
552,1.334,32.5
555,1.317,30.2
558,1.301,26.9
561,1.287,24.5
564,1.272,23
567,1.259,21.5
570,1.245,19.8
573,1.231,17.4
576,1.216,17.5
579,1.2,16.6
582,1.18,15.8
585,1.159,15.9
588,1.135,12.6
591,1.107,13.5
594,1.078,12.7
597,1.046,12.8
600,1.012,11.1
603,0.976,10.3
606,0.939,9.7
609,0.899,8.8
612,0.859,7.2
615,0.818,6.4
618,0.778,6.5
621,0.738,6.5
624,0.7,4
627,0.663,6.5
630,0.628,5.7
633,0.595,4.1
636,0.565,4.9
639,0.537,2.5
642,0.511,2.5
645,0.488,2.6
648,0.467,3.3
651,0.448,3.4
654,0.429,3.4
657,0.411,3.4
660,0.393,6.9
663,0.375,5.2
666,0.359,5.2
669,0.343,5.3
672,0.326,4.5
675,0.307,5.3
678,0.286,5.5
681,0.263,5.5
684,0.237,4.5
687,0.207,3.8
690,0.179,3.8
693,0.168,3.8
696,0.18,2.2
699,0.18,3.1
700,0.18,3.1