File: PMMA/Calibration_Data/ULSTER/ULSTER_Cone_25kW_3.csv
Time,Mass,HRR
[s],[g],[kW/m2]
0,70,0
4,69.987,9.4
8,69.99,6
12,69.998,3.4
16,69.998,2
20,69.993,0
24,69.982,0
28,69.969,2.7
32,69.955,6.1
36,69.941,8.2
40,69.925,9.4
44,69.907,10.9
48,69.884,10.9
52,69.853,8.9
56,69.818,6.1
60,69.781,6.1
64,69.737,6.1
68,69.683,7.5
72,69.618,7.5
76,69.541,4.1
80,69.449,2.7
84,69.34,2.7
88,69.214,2.7
92,69.066,2.7
96,68.897,4.8
100,68.705,6.7
104,68.489,10.1
108,68.248,25.2
112,67.981,88.1
116,67.688,189.8
120,67.37,254.1
124,67.027,297.8
128,66.661,334
132,66.272,357.7
136,65.861,379.4
140,65.431,388.4
144,64.984,385.8
148,64.52,389.3
152,64.042,391.6
156,63.552,392.5
160,63.049,390.1
164,62.537,389.2
168,62.016,398.8
172,61.488,406.9
176,60.953,408.3
180,60.412,406.1
184,59.866,406.1
188,59.315,414.7
192,58.759,423.2
196,58.198,424.1
200,57.633,424.3
204,57.063,419.7
208,56.489,420.3
212,55.91,421.3
216,55.327,426.4
220,54.739,433.6
224,54.146,440.5
228,53.549,446
232,52.948,450.8
236,52.342,447.4
240,51.732,447.4
244,51.117,453.3
248,50.498,458.6
252,49.874,460.7
256,49.246,465.1
260,48.614,467.7
264,47.979,471.6
268,47.339,483.3
272,46.695,486.8
276,46.048,483.6
280,45.397,480.1
284,44.742,489.2
288,44.083,500.9
292,43.419,503.4
296,42.752,509.4
300,42.081,509.3
304,41.406,514.1
308,40.726,520.2
312,40.042,521.1
316,39.354,519
320,38.66,514.7
324,37.962,515.5
328,37.258,520.1
332,36.55,517.7
336,35.837,524
340,35.118,530.6
344,34.396,535
348,33.669,542.3
352,32.939,547.2
356,32.204,548.6
360,31.468,553.6
364,30.729,555.7
368,29.989,561.4
372,29.25,564.5
376,28.51,570.5
380,27.773,580.8
384,27.038,602.2
388,26.308,621.9
392,25.582,646.1
396,24.864,650.7
400,24.153,625.9
404,23.451,594.4
408,22.759,569.7
412,22.078,558.4
416,21.41,553.2
420,20.754,548.2
424,20.113,537.2
428,19.486,533.1
432,18.876,529.9
436,18.282,531.8
440,17.705,532.4
444,17.145,522.7
448,16.603,508.8
452,16.079,487.2
456,15.572,472.4
460,15.084,456.5
464,14.614,439.1
468,14.162,418
472,13.727,398.1
476,13.31,378.1
480,12.91,360
484,12.526,340
488,12.158,319.3
492,11.806,301.3
496,11.468,282
500,11.144,272.6
504,10.833,255.1
508,10.535,241.1
512,10.25,227.6
516,9.975,219.9
520,9.712,211.4
524,9.458,204.3
528,9.213,196.3
532,8.977,191
536,8.749,184.4
540,8.529,177.5
544,8.315,168.1
548,8.108,164.7
552,7.908,161
556,7.713,156.3
560,7.523,150.9
564,7.338,146.9
568,7.158,143
572,6.983,139.8
576,6.811,136.8
580,6.644,132.2
584,6.481,130.5
588,6.321,125.8
592,6.164,124.3
596,6.012,121.1
600,5.862,119.3
604,5.716,115.5
608,5.572,111.6
612,5.432,109
616,5.296,109.3
620,5.163,106.6
624,5.032,101.9
628,4.905,98.6
632,4.782,100.1
636,4.661,96.7
640,4.544,94
644,4.43,93
648,4.319,92.8
652,4.211,93.6
656,4.107,91.9
660,4.007,88.2
664,3.908,84.9
668,3.814,83.9
672,3.722,81.6
676,3.633,78.4
680,3.547,74.1
684,3.464,69.7
688,3.384,67.8
692,3.306,66.9
696,3.231,63.5
700,3.158,60.9
704,3.088,58.9
708,3.021,56.4
712,2.956,52.4
716,2.893,49.7
720,2.833,48.1
724,2.776,46.9
728,2.721,45.1
732,2.669,44.4
736,2.618,43.8
740,2.57,39.1
744,2.525,38
748,2.481,36.6
752,2.44,35.1
756,2.4,31.8
760,2.363,29.2
764,2.327,28.6
768,2.292,27.4
772,2.259,26.5
776,2.228,25.2
780,2.197,23.9
784,2.168,21.8
788,2.14,21.8
792,2.113,21.3
796,2.086,20.1
800,2.06,19.3
804,2.035,18.1
808,2.012,18.1
812,1.989,16.6
816,1.966,15.2
820,1.945,14.5
824,1.925,16
828,1.905,15.3
832,1.887,14
836,1.87,13.3
840,1.853,14.1
844,1.838,13.4
848,1.823,12
852,1.81,11.9
856,1.797,10
860,1.785,11.4
864,1.774,10.7
868,1.764,10
872,1.754,10
876,1.745,10
880,1.736,10
884,1.728,8.8
888,1.72,8.1
892,1.712,6.7
896,1.705,6.7
900,1.698,5.3
904,1.691,5.3
908,1.684,5.3
912,1.678,5.3
916,1.671,5.2
920,1.665,7.4
924,1.66,6
928,1.654,5.3
932,1.649,4.7
936,1.644,4
940,1.64,3.3
944,1.635,3.3
948,1.632,3.9
952,1.629,2.6
956,1.625,1.9
960,1.622,4.1
964,1.619,4.7
968,1.616,3.3
972,1.613,3.3
976,1.61,3.3
980,1.607,3.3
984,1.604,2.6
988,1.6,2.6
992,1.596,3.3
996,1.592,4
1000,1.587,2.6
1004,1.582,1.9
1008,1.576,2.7
1012,1.57,2.6
1016,1.564,3.4
1020,1.557,2.7
1024,1.55,0.7
1028,1.541,2
1032,1.533,0.7
1036,1.525,0
1040,1.517,0
1044,1.508,1.5
1048,1.499,1.5
1052,1.489,1.5
1056,1.477,1.5
1060,1.464,1.5
1064,1.449,0
1068,1.427,0
1072,1.398,0.7
1076,1.361,0
1080,1.353,0
1084,1.353,0