File: PMMA/Calibration_Data/UQ/UQ_TGA_N2_10K_2.csv
Time,Temperature,Mass
[s],[K],[mg]
0,316.797,5.092
12,318.797,5.0921
24,320.797,5.0966
36,322.797,5.0985
48,324.797,5.0986
60,326.797,5.0983
72,328.797,5.0981
84,330.797,5.0975
96,332.797,5.097
108,334.797,5.0973
120,336.797,5.096
132,338.797,5.0945
144,340.797,5.0936
156,342.797,5.0943
168,344.797,5.0954
180,346.797,5.096
192,348.797,5.0962
204,350.797,5.094
216,352.797,5.0936
228,354.797,5.0938
240,356.797,5.0937
252,358.797,5.0942
264,360.797,5.0936
276,362.797,5.094
288,364.797,5.0948
300,366.797,5.0931
312,368.797,5.0944
324,370.797,5.0954
336,372.797,5.0963
348,374.797,5.094
360,376.797,5.0931
372,378.797,5.093
384,380.797,5.0915
396,382.797,5.0895
408,384.797,5.089
420,386.797,5.0889
432,388.797,5.0885
444,390.797,5.0868
456,392.797,5.0867
468,394.797,5.0856
480,396.797,5.0853
492,398.797,5.0863
504,400.797,5.0841
516,402.797,5.0822
528,404.797,5.0827
540,406.797,5.0835
552,408.797,5.0809
564,410.797,5.0781
576,412.797,5.0775
588,414.797,5.0752
600,416.797,5.0747
612,418.797,5.0733
624,420.797,5.0726
636,422.797,5.0718
648,424.797,5.0717
660,426.797,5.0689
672,428.797,5.068
684,430.797,5.0659
696,432.797,5.0617
708,434.797,5.0585
720,436.797,5.0558
732,438.797,5.0527
744,440.797,5.0479
756,442.797,5.0435
768,444.797,5.0376
780,446.797,5.0305
792,448.797,5.0251
804,450.797,5.0205
816,452.797,5.014
828,454.797,5.008
840,456.797,5.0023
852,458.797,4.9952
864,460.797,4.9881
876,462.797,4.9817
888,464.797,4.977
900,466.797,4.9719
912,468.797,4.9671
924,470.797,4.9606
936,472.797,4.9536
948,474.797,4.9479
960,476.797,4.942
972,478.797,4.9373
984,480.797,4.9324
996,482.797,4.9268
1008,484.797,4.9229
1020,486.797,4.9185
1032,488.797,4.9154
1044,490.797,4.9137
1056,492.797,4.9118
1068,494.797,4.9097
1080,496.797,4.9074
1092,498.797,4.9048
1104,500.797,4.9025
1116,502.797,4.9008
1128,504.797,4.8983
1140,506.797,4.8966
1152,508.797,4.8966
1164,510.797,4.8966
1176,512.797,4.8964
1188,514.797,4.8957
1200,516.797,4.8928
1212,518.797,4.8904
1224,520.797,4.8889
1236,522.797,4.8868
1248,524.797,4.8851
1260,526.797,4.8827
1272,528.797,4.8797
1284,530.797,4.8762
1296,532.797,4.8738
1308,534.797,4.8685
1320,536.797,4.8653
1332,538.797,4.861
1344,540.797,4.8563
1356,542.797,4.8507
1368,544.797,4.8458
1380,546.797,4.8404
1392,548.797,4.8331
1404,550.797,4.8229
1416,552.797,4.814
1428,554.797,4.8053
1440,556.797,4.7949
1452,558.797,4.7849
1464,560.797,4.774
1476,562.797,4.7624
1488,564.797,4.7513
1500,566.797,4.7386
1512,568.797,4.7243
1524,570.797,4.7102
1536,572.797,4.6974
1548,574.797,4.6829
1560,576.797,4.6675
1572,578.797,4.6517
1584,580.797,4.6308
1596,582.797,4.6123
1608,584.797,4.591
1620,586.797,4.5677
1632,588.797,4.5403
1644,590.797,4.5102
1656,592.797,4.4782
1668,594.797,4.4362
1680,596.797,4.3943
1692,598.797,4.3505
1704,600.797,4.3014
1716,602.797,4.2448
1728,604.797,4.1664
1740,606.797,4.0986
1752,608.797,4.0134
1764,610.797,3.9256
1776,612.797,3.8291
1788,614.797,3.7209
1800,616.797,3.6039
1812,618.797,3.4804
1824,620.797,3.3459
1836,622.797,3.2062
1848,624.797,3.0569
1860,626.797,2.9024
1872,628.797,2.7467
1884,630.797,2.5834
1896,632.797,2.4197
1908,634.797,2.2578
1920,636.797,2.0869
1932,638.797,1.9217
1944,640.797,1.7554
1956,642.797,1.5889
1968,644.797,1.4293
1980,646.797,1.273
1992,648.797,1.1292
2004,650.797,0.9943
2016,652.797,0.8686
2028,654.797,0.7561
2040,656.797,0.653
2052,658.797,0.5613
2064,660.797,0.4808
2076,662.797,0.4118
2088,664.797,0.3496
2100,666.797,0.2981
2112,668.797,0.2515
2124,670.797,0.2121
2136,672.797,0.1811
2148,674.797,0.1539
2160,676.797,0.1308
2172,678.797,0.1118
2184,680.797,0.0973
2196,682.797,0.0829
2208,684.797,0.07
2220,686.797,0.0617
2232,688.797,0.0527
2244,690.797,0.0472
2256,692.797,0.0409
2268,694.797,0.0342
2280,696.797,0.0282
2292,698.797,0.0243
2304,700.797,0.0212
2316,702.797,0.0202
2328,704.797,0.019
2340,706.797,0.019
2352,708.797,0.019
2364,710.797,0.019
2376,712.797,0.019
2388,714.797,0.019
2400,716.797,0.019
2412,718.797,0.019
2424,720.797,0.019
2436,722.797,0.019
2448,724.797,0.019
2460,726.797,0.019
2472,728.797,0.019
2484,730.797,0.019
2496,732.797,0.019
2508,734.797,0.019
2520,736.797,0.019
2532,738.797,0.0189
2544,740.797,0.0188
2556,742.797,0.0187
2568,744.797,0.0186
2580,746.797,0.0185
2592,748.797,0.0184
2604,750.797,0.0183