File: PMMA/Calibration_Data/UQ/UQ_TGA_N2_10K_3.csv
Time,Temperature,Mass
[s],[K],[mg]
0,316.816,5.5945
18,319.816,5.5946
36,322.816,5.5986
54,325.816,5.5998
72,328.816,5.5993
90,331.816,5.5988
108,334.816,5.5999
126,337.816,5.5965
144,340.816,5.5945
162,343.816,5.5962
180,346.816,5.5986
198,349.816,5.5976
216,352.816,5.5957
234,355.816,5.5947
252,358.816,5.5938
270,361.816,5.5944
288,364.816,5.5942
306,367.816,5.5922
324,370.816,5.5929
342,373.816,5.5924
360,376.816,5.5902
378,379.816,5.5912
396,382.816,5.5873
414,385.816,5.5874
432,388.816,5.5882
450,391.816,5.5891
468,394.816,5.5871
486,397.816,5.5853
504,400.816,5.5822
522,403.816,5.5806
540,406.816,5.5802
558,409.816,5.5783
576,412.816,5.5764
594,415.816,5.5731
612,418.816,5.5711
630,421.816,5.5695
648,424.816,5.5669
666,427.816,5.5617
684,430.816,5.5606
702,433.816,5.5555
720,436.816,5.5513
738,439.816,5.5436
756,442.816,5.5363
774,445.816,5.524
792,448.816,5.5136
810,451.816,5.5037
828,454.816,5.4942
846,457.816,5.4838
864,460.816,5.4732
882,463.816,5.4656
900,466.816,5.4574
918,469.816,5.447
936,472.816,5.438
954,475.816,5.4272
972,478.816,5.419
990,481.816,5.4122
1008,484.816,5.4058
1026,487.816,5.3999
1044,490.816,5.3963
1062,493.816,5.3928
1080,496.816,5.3896
1098,499.816,5.3858
1116,502.816,5.3824
1134,505.816,5.3779
1152,508.816,5.3768
1170,511.816,5.3756
1188,514.816,5.3746
1206,517.816,5.3709
1224,520.816,5.3683
1242,523.816,5.3658
1260,526.816,5.3625
1278,529.816,5.3577
1296,532.816,5.3515
1314,535.816,5.3455
1332,538.816,5.3375
1350,541.816,5.3301
1368,544.816,5.321
1386,547.816,5.3116
1404,550.816,5.2986
1422,553.816,5.2827
1440,556.816,5.2667
1458,559.816,5.2504
1476,562.816,5.2326
1494,565.816,5.2119
1512,568.816,5.1899
1530,571.816,5.1683
1548,574.816,5.1426
1566,577.816,5.1169
1584,580.816,5.0868
1602,583.816,5.0534
1620,586.816,5.0147
1638,589.816,4.9701
1656,592.816,4.915
1674,595.816,4.8542
1692,598.816,4.7848
1710,601.816,4.6932
1728,604.816,4.5904
1746,607.816,4.4724
1764,610.816,4.3388
1782,613.816,4.1827
1800,616.816,4.0056
1818,619.816,3.8079
1836,622.816,3.5925
1854,625.816,3.3586
1872,628.816,3.1145
1890,631.816,2.8573
1908,634.816,2.5898
1926,637.816,2.3138
1944,640.816,2.0347
1962,643.816,1.7529
1980,646.816,1.478
1998,649.816,1.2244
2016,652.816,0.9938
2034,655.816,0.7941
2052,658.816,0.6283
2070,661.816,0.4912
2088,664.816,0.3823
2106,667.816,0.3035
2124,670.816,0.2336
2142,673.816,0.1839
2160,676.816,0.1445
2178,679.816,0.1151
2196,682.816,0.0931
2214,685.816,0.0757
2232,688.816,0.0616
2250,691.816,0.0512
2268,694.816,0.0417
2286,697.816,0.0355
2304,700.816,0.0316
2322,703.816,0.0292
2340,706.816,0.0274
2358,709.816,0.0266
2376,712.816,0.0266
2394,715.816,0.0266
2412,718.816,0.0266
2430,721.816,0.0266
2448,724.816,0.0266
2466,727.816,0.0263
2484,730.816,0.026
2502,733.816,0.0261
2520,736.816,0.0265
2538,739.816,0.0268
2556,742.816,0.0271
2574,745.816,0.0271
2592,748.816,0.0271
2610,751.816,0.0271
2628,754.816,0.0271
2646,757.816,0.0271
2664,760.816,0.0271
2682,763.816,0.027
2700,766.816,0.0254
2718,769.816,0.0251
2736,772.816,0.0247
2754,775.816,0.0235
2772,778.816,0.023
2790,781.816,0.0227
2808,784.816,0.0225
2826,787.816,0.0229
2844,790.816,0.0228
2862,793.816,0.0215
2880,796.816,0.0204
2898,799.816,0.0195
2916,802.816,0.0191
2934,805.816,0.0183
2952,808.816,0.0174
2970,811.816,0.0169
2988,814.816,0.0192
3006,817.816,0.0199
3024,820.816,0.0185
3042,823.816,0.0179
3060,826.816,0.0191
3078,829.816,0.0201
3096,832.816,0.0209
3114,835.816,0.0192
3132,838.816,0.0187
3150,841.816,0.0199
3168,844.816,0.0207
3186,847.816,0.0214
3204,850.816,0.0215
3222,853.816,0.0216
3240,856.816,0.022
3258,859.816,0.0223
3276,862.816,0.0209
3294,865.816,0.0197
3312,868.816,0.0185
3330,871.816,0.0182
3348,874.816,0.0184
3366,877.816,0.0184
3384,880.816,0.0184
3402,883.816,0.0165
3420,886.816,0.0165
3438,889.816,0.0172
3456,892.816,0.0172
3474,895.816,0.017
3492,898.816,0.0168
3510,901.816,0.0151
3528,904.816,0.0148
3546,907.816,0.0151
3564,910.816,0.0153
3582,913.816,0.0153
3600,916.816,0.014
3618,919.816,0.0136
3636,922.816,0.0147
3654,925.816,0.015
3672,928.816,0.0149
3690,931.816,0.014
3708,934.816,0.0137
3726,937.816,0.013
3744,940.816,0.0127
3762,943.816,0.0132
3780,946.816,0.0122
3798,949.816,0.0117
3816,952.816,0.0117
3834,955.816,0.0117
3852,958.816,0.0117
3870,961.816,0.0116
3888,964.816,0.0113
3906,967.816,0.011
3924,970.816,0.0093
3942,973.816,0.0088
3960,976.816,0.0076
3978,979.816,0.0068
3996,982.816,0.0066
4014,985.816,0.0071
4032,988.816,0.0082
4050,991.816,0.0087
4068,994.816,0.0062
4086,997.816,0.0062
4104,1000.816,0.0072