File: PMMA/Calibration_Data/UQ/UQ_TGA_O2-21_10K_1.csv
Time,Temperature,Mass
[s],[K],[mg]
0,316.009,5.0169
12,318.009,5.0183
24,320.009,5.0166
36,322.009,5.0181
48,324.009,5.0239
60,326.009,5.0326
72,328.009,5.0437
84,330.009,5.0541
96,332.009,5.0667
108,334.009,5.0774
120,336.009,5.0858
132,338.009,5.092
144,340.009,5.0946
156,342.009,5.0944
168,344.009,5.0955
180,346.009,5.0986
192,348.009,5.0969
204,350.009,5.0945
216,352.009,5.0925
228,354.009,5.0908
240,356.009,5.0875
252,358.009,5.0883
264,360.009,5.09
276,362.009,5.0862
288,364.009,5.0891
300,366.009,5.0891
312,368.009,5.0881
324,370.009,5.0861
336,372.009,5.0878
348,374.009,5.0904
360,376.009,5.0904
372,378.009,5.0942
384,380.009,5.0941
396,382.009,5.0936
408,384.009,5.094
420,386.009,5.0953
432,388.009,5.0956
444,390.009,5.0994
456,392.009,5.0989
468,394.009,5.096
480,396.009,5.0937
492,398.009,5.0937
504,400.009,5.0937
516,402.009,5.0922
528,404.009,5.0918
540,406.009,5.0911
552,408.009,5.091
564,410.009,5.0927
576,412.009,5.0915
588,414.009,5.0933
600,416.009,5.0903
612,418.009,5.0919
624,420.009,5.0908
636,422.009,5.0909
648,424.009,5.0916
660,426.009,5.0924
672,428.009,5.0933
684,430.009,5.0915
696,432.009,5.0884
708,434.009,5.0866
720,436.009,5.0874
732,438.009,5.0891
744,440.009,5.0889
756,442.009,5.0881
768,444.009,5.0866
780,446.009,5.0846
792,448.009,5.0837
804,450.009,5.0854
816,452.009,5.0848
828,454.009,5.085
840,456.009,5.0835
852,458.009,5.0835
864,460.009,5.0835
876,462.009,5.0828
888,464.009,5.0813
900,466.009,5.083
912,468.009,5.084
924,470.009,5.0809
936,472.009,5.0806
948,474.009,5.0806
960,476.009,5.0812
972,478.009,5.0815
984,480.009,5.0814
996,482.009,5.0824
1008,484.009,5.0828
1020,486.009,5.083
1032,488.009,5.0809
1044,490.009,5.0775
1056,492.009,5.0765
1068,494.009,5.0762
1080,496.009,5.0769
1092,498.009,5.0775
1104,500.009,5.0807
1116,502.009,5.0812
1128,504.009,5.0806
1140,506.009,5.0806
1152,508.009,5.0805
1164,510.009,5.0825
1176,512.009,5.0829
1188,514.009,5.0826
1200,516.009,5.082
1212,518.009,5.0813
1224,520.009,5.0812
1236,522.009,5.0812
1248,524.009,5.0794
1260,526.009,5.0774
1272,528.009,5.0756
1284,530.009,5.0734
1296,532.009,5.0685
1308,534.009,5.0622
1320,536.009,5.0541
1332,538.009,5.0472
1344,540.009,5.0379
1356,542.009,5.0276
1368,544.009,5.0137
1380,546.009,4.9982
1392,548.009,4.9762
1404,550.009,4.9598
1416,552.009,4.9412
1428,554.009,4.9218
1440,556.009,4.903
1452,558.009,4.883
1464,560.009,4.8594
1476,562.009,4.8322
1488,564.009,4.8038
1500,566.009,4.7652
1512,568.009,4.72
1524,570.009,4.6675
1536,572.009,4.604
1548,574.009,4.5122
1560,576.009,4.4043
1572,578.009,4.2712
1584,580.009,4.1329
1596,582.009,3.9954
1608,584.009,3.8457
1620,586.009,3.7022
1632,588.009,3.5547
1644,590.009,3.3949
1656,592.009,3.2467
1668,594.009,3.0716
1680,596.009,2.9118
1692,598.009,2.7296
1704,600.009,2.5111
1716,602.009,2.2768
1728,604.009,2.051
1740,606.009,1.8375
1752,608.009,1.65
1764,610.009,1.4832
1776,612.009,1.3184
1788,614.009,1.1679
1800,616.009,1.0277
1812,618.009,0.9198
1824,620.009,0.8134
1836,622.009,0.7326
1848,624.009,0.6523
1860,626.009,0.5938
1872,628.009,0.5365
1884,630.009,0.4822
1896,632.009,0.434
1908,634.009,0.3925
1920,636.009,0.3521
1932,638.009,0.3213
1944,640.009,0.2924
1956,642.009,0.264
1968,644.009,0.2385
1980,646.009,0.2157
1992,648.009,0.1954
2004,650.009,0.1759
2016,652.009,0.1551
2028,654.009,0.1384
2040,656.009,0.1246
2052,658.009,0.1103
2064,660.009,0.0967
2076,662.009,0.0841
2088,664.009,0.0759
2100,666.009,0.0632
2112,668.009,0.0549
2124,670.009,0.0464
2136,672.009,0.0393
2148,674.009,0.0277
2160,676.009,0.0235
2172,678.009,0.0193
2184,680.009,0.0156
2196,682.009,0.0089
2208,684.009,0.0073
2220,686.009,0.0088
2232,688.009,0.0068
2244,690.009,0.0062
2256,692.009,0.0058
2268,694.009,0.0043
2280,696.009,0.0025
2292,698.009,0.0025
2304,700.009,0.0046
2316,702.009,0.0055
2328,704.009,0.0065
2340,706.009,0.0065
2352,708.009,0.0065
2364,710.009,0.0065
2376,712.009,0.0065
2388,714.009,0.0065
2400,716.009,0.0064
2412,718.009,0.0061
2424,720.009,0.0031
2436,722.009,0.0003
2448,724.009,0
2460,726.009,0.0018
2472,728.009,0.0028
2484,730.009,0.0036
2496,732.009,0.0035
2508,734.009,0.0035
2520,736.009,0.0034
2532,738.009,0.0033
2544,740.009,0.0032
2556,742.009,0.0011
2568,744.009,0.0017
2580,746.009,0.0049
2592,748.009,0.0047
2604,750.009,0.0042