File: Non-charring/PMMA/NIST/NIST_MCC_60kpm_2.csv
Time,Temperature,HRR
s,K,W/g
0.000,363.069,0.000
2.000,364.362,-0.125
4.000,365.629,-0.182
6.000,366.965,-0.249
8.000,368.359,-0.154
10.000,369.776,-0.230
12.000,371.266,-0.351
14.000,372.768,0.001
16.000,374.33,-0.068
18.000,375.933,0.022
20.000,377.539,0.142
22.000,379.252,0.284
24.000,380.949,0.028
26.000,382.673,0.407
28.000,384.472,0.270
30.000,386.286,0.334
32.000,388.141,0.309
34.000,390.005,0.587
36.000,391.866,0.591
38.000,393.813,0.770
40.000,395.707,0.925
42.000,397.675,1.117
44.000,399.695,1.130
46.000,401.712,1.331
48.000,403.772,1.508
50.000,405.862,1.927
52.000,407.923,1.749
54.000,409.998,2.145
56.000,412.098,2.575
58.000,414.23,2.501
60.000,416.399,2.797
62.000,418.505,3.094
64.000,420.688,3.351
66.000,422.843,3.621
68.000,424.975,4.219
70.000,427.14,4.412
72.000,429.308,4.760
74.000,431.488,5.269
76.000,433.648,5.937
78.000,435.825,7.025
80.000,437.998,7.898
82.000,440.177,8.519
84.000,442.372,9.850
86.000,444.552,11.308
88.000,446.774,12.581
90.000,448.94,13.712
92.000,451.118,15.055
94.000,453.256,16.109
96.000,455.435,16.825
98.000,457.623,17.500
100.000,459.77,18.159
102.000,461.956,18.672
104.000,464.1,18.671
106.000,466.232,18.401
108.000,468.381,17.970
110.000,470.484,17.670
112.000,472.586,16.948
114.000,474.725,16.420
116.000,476.853,16.169
118.000,478.999,15.870
120.000,481.075,15.601
122.000,483.184,15.566
124.000,485.295,15.429
126.000,487.366,15.515
128.000,489.5,15.561
130.000,491.556,15.109
132.000,493.659,14.228
134.000,495.737,13.409
136.000,497.764,11.905
138.000,499.818,10.302
140.000,501.858,8.485
142.000,503.907,7.013
144.000,505.924,5.612
146.000,507.988,4.270
148.000,509.957,3.542
150.000,511.98,2.959
152.000,514.026,2.524
154.000,515.959,2.208
156.000,517.979,2.028
158.000,519.983,1.912
160.000,521.976,2.246
162.000,523.935,2.424
164.000,525.911,2.502
166.000,527.899,3.010
168.000,529.864,3.129
170.000,531.901,3.322
172.000,533.874,3.392
174.000,535.819,3.706
176.000,537.815,3.988
178.000,539.737,4.813
180.000,541.726,5.257
182.000,543.662,5.675
184.000,545.591,6.527
186.000,547.589,7.374
188.000,549.57,8.288
190.000,551.499,9.355
192.000,553.512,10.408
194.000,555.411,11.529
196.000,557.383,12.907
198.000,559.344,14.359
200.000,561.292,15.884
202.000,563.24,17.461
204.000,565.177,19.057
206.000,567.145,20.636
208.000,569.133,22.404
210.000,571.075,23.701
212.000,573.052,25.054
214.000,575.037,26.354
216.000,576.994,27.382
218.000,578.956,29.147
220.000,580.931,30.443
222.000,582.944,31.524
224.000,584.881,32.737
226.000,586.871,34.348
228.000,588.836,36.030
230.000,590.797,38.024
232.000,592.786,40.512
234.000,594.742,43.222
236.000,596.758,46.796
238.000,598.746,50.442
240.000,600.732,55.138
242.000,602.736,60.234
244.000,604.713,66.202
246.000,606.713,72.602
248.000,608.677,79.882
250.000,610.678,87.945
252.000,612.721,96.590
254.000,614.715,106.097
256.000,616.723,116.413
258.000,618.749,127.463
260.000,620.701,138.800
262.000,622.709,151.019
264.000,624.736,163.831
266.000,626.678,176.742
268.000,628.66,189.838
270.000,630.66,202.746
272.000,632.659,215.682
274.000,634.566,228.515
276.000,636.553,240.755
278.000,638.526,252.701
280.000,640.49,264.980
282.000,642.427,276.200
284.000,644.421,288.427
286.000,646.397,300.642
288.000,648.355,311.849
290.000,650.328,323.066
292.000,652.313,331.480
294.000,654.365,336.470
296.000,656.322,343.723
298.000,658.243,344.642
300.000,660.214,342.068
302.000,662.187,338.444
304.000,664.192,330.675
306.000,666.203,322.476
308.000,668.191,309.663
310.000,670.196,294.474
312.000,672.198,277.407
314.000,674.184,259.651
316.000,676.221,241.324
318.000,678.258,223.792
320.000,680.309,206.657
322.000,682.308,188.780
324.000,684.445,169.308
326.000,686.512,149.822
328.000,688.591,132.323
330.000,690.684,116.405
332.000,692.76,101.934
334.000,694.85,88.778
336.000,696.931,77.108
338.000,698.995,66.560
340.000,701.027,57.154
342.000,703.106,48.833
344.000,705.161,41.533
346.000,707.19,35.141
348.000,709.243,29.836
350.000,711.248,25.426
352.000,713.308,21.436
354.000,715.405,17.795
356.000,717.402,14.883
358.000,719.403,12.596
360.000,721.398,10.499
362.000,723.405,8.352
364.000,725.413,5.910
366.000,727.386,3.783
368.000,729.359,2.697
370.000,731.346,1.808
372.000,733.323,1.185
374.000,735.339,0.933
376.000,737.282,0.534
378.000,739.252,0.322
380.000,741.193,0.375
382.000,743.19,0.600
384.000,745.134,0.047
386.000,747.074,0.047
388.000,749.057,-0.092
390.000,750.957,-0.078
392.000,752.923,-0.088
394.000,754.862,-0.094
396.000,756.839,-0.318
398.000,758.778,-0.353
400.000,760.705,-0.707
402.000,762.716,-0.554
404.000,764.674,-0.496
406.000,766.628,-0.614
408.000,768.587,-0.414
410.000,770.576,-0.430
412.000,772.525,-0.493
414.000,774.529,-0.548
416.000,776.519,-0.440
418.000,778.479,-0.814
420.000,780.424,-0.364
422.000,782.417,-0.474
424.000,784.407,-0.330
426.000,786.367,-0.457
428.000,788.327,-0.481
430.000,790.327,-0.556
432.000,792.313,-0.484
434.000,794.312,-0.631
436.000,796.281,-0.587
438.000,798.289,-0.846
440.000,800.293,-0.857
442.000,802.291,-0.549
444.000,804.324,-0.754
446.000,806.305,-0.546
448.000,808.339,-0.671
450.000,810.339,-0.424
452.000,812.328,-0.788
454.000,814.397,-0.845
456.000,816.415,-0.865
458.000,818.435,-0.985
460.000,820.444,-0.864
462.000,822.416,-0.574
464.000,824.456,-0.447
466.000,826.463,-0.664
468.000,828.467,-0.482
470.000,830.499,-0.714
472.000,832.478,-0.784
474.000,834.472,-0.691
476.000,836.486,-0.665
478.000,838.479,-0.478
480.000,840.485,-0.482
482.000,842.5,-0.645
484.000,844.488,-0.585
486.000,846.496,-0.591
488.000,848.495,-0.761
490.000,850.472,-0.822
492.000,852.47,-0.872
494.000,854.559,-0.875
496.000,856.547,-0.660
498.000,858.494,-0.526
500.000,860.514,-0.306
502.000,862.535,-0.255
504.000,864.508,-0.316
506.000,866.558,-0.313
508.000,868.52,-0.417
510.000,870.51,-0.348
512.000,872.532,-0.330
514.000,874.593,-0.047
515.500,876.092,0.000