File: PMMA/Calibration_Data/LCPP/LCPP_Cone_65kW_1.csv
Time,Mass,HRR,Back Surface Temperature
[s],[g],[kW/m2],[K]
0,72.4584,-0.142574,305.18
1,72.4584,,305.182
2,72.4584,,305.15
3,72.4584,,305.174
4,72.4584,,305.149
5,72.4584,-0.0200449,305.139
6,72.4584,,305.111
7,72.4584,,305.055
8,72.4584,,305.055
9,72.4584,,305.026
10,72.4584,1.33322,305.044
11,72.4584,,305.075
12,72.4584,,305.071
13,72.4584,,305.149
14,72.4584,,305.196
15,72.4584,4.22594,305.257
16,72.4584,,305.372
17,72.4584,,305.439
18,72.2183,,305.609
19,72.1613,,305.763
20,72.2554,8.47821,305.912
21,72.0363,,306.188
22,72.0397,,306.39
23,72.053,,306.67
24,72.0529,,307.007
25,72.0582,5.44824,307.38
26,71.90413,,307.812
27,71.8712,,308.262
28,71.8669,,308.716
29,71.8721,,309.388
30,71.8725,95.226,309.956
31,71.7811,,310.604
32,71.695,,311.448
33,71.7259,,312.164
34,71.6001,,313.141
35,71.4803,416.165,313.958
36,71.3067,,314.853
37,71.0868,,315.826
38,70.4882,,316.94
39,70.43063,,318.004
40,70.3905,602.693,319.054
41,70.1952,,320.333
42,69.6191,,321.47
43,69.3098,,322.584
44,69.1764,,323.788
45,69.0005,700.725,325.193
46,68.7253,,326.415
47,68.428,,327.714
48,68.2183,,329.181
49,67.9984,,330.521
50,67.8082,700.099,331.854
51,67.4439,,333.413
52,66.4885,,334.813
53,66.10279,,336.16
54,66.0523,,337.813
55,66.0604,778.077,339.24
56,65.8178,,340.64
57,65.4322,,342.341
58,64.4833,,343.774
59,64.16842,,345.227
60,64.1625,809.773,346.712
61,64.10395,,348.39
62,63.9067,,349.896
63,63.0509,,351.401
64,62.6575,,352.862
65,62.57447,785.669,354.627
66,62.4165,,356.067
67,62.1378,,357.567
68,61.4087,,359.06
69,61.0115,,360.775
70,60.8941,784.415,362.268
71,60.70513,,363.708
72,60.4223,,365.419
73,59.7336,,366.884
74,59.5862,,368.275
75,59.3999,785.061,369.759
76,59.20269,,371.366
77,58.267,,372.75
78,57.8172,,374.125
79,57.763,,375.636
80,57.7024,825.731,376.998
81,57.4455,,378.247
82,56.7215,,379.702
83,56.1674,,381.058
84,55.9862,,382.357
85,55.8713,777.275,384.073
86,55.7054,,385.551
87,55.2805,,387.067
88,55.0076,,388.971
89,54.7213,,390.477
90,53.8421,763.008,392.101
91,53.6494,,393.657
92,53.6502,,395.416
93,53.41343,,397.031
94,53.1206,,398.779
95,52.6717,818.192,400.368
96,52.4866,,401.934
97,52.2194,,403.701
98,51.3438,,405.089
99,50.7731,,406.839
100,50.4992,802.965,408.425
101,50.3091,,410.029
102,50.1816,,411.78
103,50.09845,,413.431
104,49.7475,,415.239
105,49.3122,807.161,416.834
106,48.44795,,418.464
107,48.2047,,419.954
108,47.76614,,421.892
109,47.27063,,423.398
110,47.0193,793.144,425.004
111,46.9565,,426.913
112,46.7995,,428.43
113,46.2855,,430.142
114,45.4485,,431.695
115,45.3774,873.881,433.2
116,45.215,,435.16
117,44.9277,,436.63
118,44.054,,438.269
119,43.8047,,440.253
120,43.706,841.88,441.836
121,43.3523,,443.598
122,43.1266,,445.534
123,42.7524,,447.248
124,42.0986,,449.072
125,41.4821,872.715,450.911
126,41.2209,,452.69
127,41.0134,,454.33
128,40.8241,,456.224
129,40.5397,,457.976
130,39.8132,813.482,459.645
131,39.5886,,461.378
132,39.3986,,463.529
133,38.88593,,465.229
134,38.0421,,467.143
135,37.5379,936.535,469.268
136,37.3047,,471.1
137,37.1834,,473.104
138,36.9227,,474.885
139,36.2435,,477.202
140,35.9152,994.14,479.212
141,35.6584,,481.116
142,35.1811,,483.188
143,34.842,,485.49
144,34.6393,,487.541
145,33.7022,909.81,489.717
146,33.4013,,492.103
147,33.3151,,494.298
148,33.0533,,496.539
149,32.4825,,499.009
150,32.1213,967.224,501.331
151,31.7684,,503.942
152,31.1241,,505.802
153,30.4087,,508.597
154,30.1852,,510.902
155,29.9237,1060.91,513.273
156,29.48065,,516.178
157,29.2382,,518.465
158,28.9627,,521.324
159,27.6576,,523.682
160,27.21775,1206.41,525.983
161,26.85669,,528.759
162,26.444,,531.643
163,26.063,,534.811
164,25.808,,538.104
165,25.0391,1048.8,540.908
166,25.0527,,544.304
167,25.0039,,548.271
168,24.64747,,552.95
169,23.75277,,557.341
170,22.74,1096.28,562.431
171,22.4975,,566.615
172,22.302,,571.319
173,21.6242,,575.279
174,21.3836,,578.986
175,21.027,1073.19,582.591
176,20.5548,,586.617
177,19.7478,,589.972
178,19.4008,,593.337
179,19.1094,,597.086
180,18.322,1066.38,600.368
181,17.6737,,603.703
182,17.47,,607.09
183,17.0583,,611.322
184,16.3278,,615.715
185,15.7551,1227.37,621.188
186,15.3236,,625.069
187,14.7692,,630.45
188,14.4133,,635.32
189,14.1137,,641.957
190,13.72469,1283.11,649.272
191,13.3447,,658.552
192,12.2178,,672.102
193,11.7291,,684.658
194,11.4926,,699.052
195,10.3955,1544.71,719.696
196,9.997005,,743.335
197,9.714595,,773.233
198,8.45366,,809.475
199,8.230699,,871.036
200,7.765949,1814.99,904.286
201,6.775987,,921.779
202,6.37307,,928.145
203,6.105211,,929.172
204,5.662706,,929.166
205,5.091405,1508.76,928.437
206,4.82732,,924.653
207,4.328774,,920.976
208,3.200353,,917.729
209,2.965678,,913.99
210,2.818134,711.763,909.176
211,2.600803,,904.124
212,2.23134,,897.907
213,1.991859,,892.475
214,1.895113,,886.592
215,1.792811,227.274,880.647
216,1.678764,,875.181
217,1.516626,,869.282
218,1.381805,,864.35
219,0.880901,,859.85
220,0.917043,72.0468,854.511
221,1.045385,,850.188
222,0.97636,,846.166
223,0.946098,,841.431
224,0.949671,,837.255
225,0.952311,26.1015,833.894
226,0.893788,,830.336
227,0.69753,,827.579
228,0.745685,,824.62
229,0.856627,,821.467
230,0.877023,11.5004,818.739
231,0.876044,,816.81
232,0.874961,,814.842
233,0.873881,,812.717
234,0.878506,,810.259
235,0.789187,6.02865,808.361
236,1.005321,,806.482
237,1.239773,,804.927
238,1.279152,,803.885
239,1.281277,,802.981
240,1.284081,3.68612,802.293
241,1.284589,,801.698
242,1.348248,,801.122
243,1.299328,,800.389
244,1.344297,,799.398
245,1.358998,2.43745,797.935
246,1.361399,,796.544
247,1.357077,,795.759
248,1.294055,,795.244
249,1.283674,,794.518
250,1.193272,2.57469,793.706