File: PMMA/Calibration_Data/LCPP/LCPP_TGA_N2_2-5K_3.csv
Time,Temperature,Mass
[s],[K],[mg]
0,301.243,3.18254
50,300.899,3.18173
100,300.716,3.18104
150,300.579,3.18179
200,300.458,3.181
250,300.394,3.1813
300,300.345,3.18066
350,301.483,3.18123
400,303.317,3.18081
450,305.338,3.18034
500,307.34,3.18017
550,309.338,3.18001
600,311.304,3.17945
650,313.265,3.17932
700,315.202,3.17873
750,317.141,3.17821
800,319.088,3.17777
850,321.041,3.17805
900,322.972,3.17779
950,324.926,3.17735
1000,326.869,3.17736
1050,328.83,3.17725
1100,330.787,3.17696
1150,332.741,3.17684
1200,334.703,3.17665
1250,336.647,3.17679
1300,338.616,3.17635
1350,340.582,3.17655
1400,342.568,3.17635
1450,344.546,3.17615
1500,346.526,3.17601
1550,348.499,3.17592
1600,350.481,3.17596
1650,352.482,3.17528
1700,354.468,3.17517
1750,356.469,3.17522
1800,358.462,3.17484
1850,360.455,3.17467
1900,362.469,3.17467
1950,364.473,3.17462
2000,366.48,3.17394
2050,368.506,3.17391
2100,370.525,3.17362
2150,372.536,3.17395
2200,374.561,3.17343
2250,376.582,3.17312
2300,378.622,3.17257
2350,380.649,3.17215
2400,382.674,3.1719
2450,384.72,3.17151
2500,386.762,3.17103
2550,388.799,3.17083
2600,390.839,3.17035
2650,392.883,3.16982
2700,394.927,3.16918
2750,396.972,3.16906
2800,399.015,3.16805
2850,401.055,3.16784
2900,403.12,3.16706
2950,405.183,3.16603
3000,407.221,3.16505
3050,409.289,3.16413
3100,411.35,3.16328
3150,413.407,3.16267
3200,415.473,3.16225
3250,417.545,3.16138
3300,419.609,3.16052
3350,421.689,3.15939
3400,423.753,3.15879
3450,425.85,3.15778
3500,427.916,3.15623
3550,429.985,3.1557
3600,432.058,3.15405
3650,434.126,3.15386
3700,436.202,3.1521
3750,438.288,3.15147
3800,440.366,3.15021
3850,442.45,3.14893
3900,444.526,3.14718
3950,446.617,3.1462
4000,448.699,3.14478
4050,450.779,3.14369
4100,452.871,3.14245
4150,454.952,3.14036
4200,457.046,3.13902
4250,459.132,3.13799
4300,461.225,3.13589
4350,463.314,3.13401
4400,465.386,3.13207
4450,467.492,3.13089
4500,469.575,3.12902
4550,471.667,3.12785
4600,473.761,3.12683
4650,475.863,3.12548
4700,477.953,3.12427
4750,480.046,3.12342
4800,482.141,3.12299
4850,484.245,3.12206
4900,486.341,3.12111
4950,488.423,3.12112
5000,490.518,3.12024
5050,492.613,3.119
5100,494.714,3.11817
5150,496.8,3.11775
5200,498.909,3.11652
5250,500.999,3.11546
5300,503.091,3.11444
5350,505.193,3.11293
5400,507.297,3.11094
5450,509.39,3.10899
5500,511.48,3.10701
5550,513.583,3.10487
5600,515.686,3.1027
5650,517.779,3.09995
5700,519.874,3.09604
5750,521.972,3.09294
5800,524.066,3.08905
5850,526.162,3.08454
5900,528.267,3.08023
5950,530.364,3.07502
6000,532.457,3.06915
6050,534.551,3.06313
6100,536.654,3.05575
6150,538.749,3.04805
6200,540.852,3.0396
6250,542.946,3.02987
6300,545.042,3.0197
6350,547.142,3.00756
6400,549.239,2.99489
6450,551.331,2.98136
6500,553.433,2.96608
6550,555.529,2.9505
6600,557.631,2.93272
6650,559.733,2.91436
6700,561.836,2.89361
6750,563.938,2.8717
6800,566.026,2.84712
6850,568.128,2.82065
6900,570.231,2.79206
6950,572.331,2.76065
7000,574.421,2.72635
7050,576.523,2.68925
7100,578.618,2.649
7150,580.718,2.60529
7200,582.822,2.55838
7250,584.921,2.5078
7300,587.014,2.45341
7350,589.12,2.39609
7400,591.209,2.33461
7450,593.313,2.26917
7500,595.412,2.20022
7550,597.518,2.12705
7600,599.627,2.05054
7650,601.718,1.97099
7700,603.829,1.88781
7750,605.931,1.80075
7800,608.024,1.71067
7850,610.119,1.61653
7900,612.217,1.5196
7950,614.31,1.42211
8000,616.408,1.32349
8050,618.505,1.22232
8100,620.595,1.12122
8150,622.702,1.02176
8200,624.799,0.92418
8250,626.887,0.828619
8300,628.981,0.73755
8350,631.08,0.650108
8400,633.165,0.567846
8450,635.25,0.489851
8500,637.344,0.419514
8550,639.424,0.355832
8600,641.504,0.300045
8650,643.596,0.251747
8700,645.681,0.209924
8750,647.771,0.173643
8800,649.86,0.143623
8850,651.953,0.118752
8900,654.041,0.0984245
8950,656.132,0.081741
9000,658.221,0.0683134
9050,660.306,0.0573522
9100,662.397,0.0485997
9150,664.487,0.0412534
9200,666.575,0.0360837
9250,668.674,0.0319
9300,670.763,0.0284549
9350,672.858,0.0260035
9400,674.945,0.0240061
9450,677.035,0.0219047
9500,679.127,0.0209064
9550,681.212,0.0198432
9600,683.308,0.0198237
9650,685.393,0.0199404
9700,687.476,0.0198934
9750,689.581,0.0193333
9800,691.668,0.0186248
9850,693.762,0.0188331
9900,695.853,0.0186221
9950,697.946,0.0185419
10000,700.027,0.0187753
10050,702.11,0.0181827
10100,704.205,0.0178782
10150,706.294,0.0174904
10200,708.379,0.017984
10250,710.469,0.0178963
10300,712.558,0.0180005
10350,714.636,0.0180888
10400,716.727,0.0176479
10450,718.813,0.0177908
10500,720.894,0.0169874
10550,722.981,0.0169873
10600,725.061,0.016276
10650,727.155,0.0161082
10700,729.239,0.0160099
10750,731.321,0.0160075
10800,733.41,0.0161168
10850,735.499,0.0152473
10900,737.583,0.015492
10950,739.667,0.0158399
11000,741.757,0.0160928
11050,743.843,0.0150349
11100,745.919,0.0149906
11150,748.014,0.0149907
11200,750.082,0.0150065
11250,752.174,0.0142188
11300,754.251,0.0145136
11350,756.338,0.0145548
11400,758.418,0.0149714
11450,760.51,0.0143708
11500,762.584,0.0140121
11550,764.672,0.0139965
11600,766.748,0.0139607
11650,768.839,0.0140879
11700,770.92,0.0140965
11750,773.008,0.0139922
11800,775.088,0.0140078
11850,777.175,0.0138853
11900,779.268,0.0130976
11950,781.355,0.0137662
12000,783.433,0.0139906
12050,785.525,0.0133422
12100,787.611,0.0129939
12150,789.703,0.0130454
12200,791.774,0.0139354
12250,793.842,0.0133678
12300,794.908,0.0126643
12350,795.327,0.0129938
12400,795.511,0.0129938
12450,795.58,0.0129563
12500,795.617,0.0127599
12550,795.622,0.0129938
12600,795.634,0.0129938