File: PMMA/Calibration_Data/LCPP/LCPP_TGA_N2_5K_1.csv
Time,Temperature,Mass
[s],[K],[mg]
0,301.152,3.09388
25,300.977,3.09339
50,300.825,3.09329
75,300.732,3.09303
100,300.655,3.09311
125,300.58,3.09299
150,300.538,3.09333
175,300.482,3.09388
200,300.447,3.0937
225,300.415,3.09299
250,300.39,3.09299
275,300.36,3.09299
300,300.346,3.09189
325,301.233,3.09345
350,302.857,3.09263
375,304.644,3.09242
400,306.544,3.09238
425,308.526,3.09185
450,310.54,3.09168
475,312.547,3.09121
500,314.566,3.09129
525,316.589,3.09106
550,318.587,3.09085
575,320.582,3.09086
600,322.592,3.09055
625,324.572,3.09045
650,326.551,3.09046
675,328.533,3.0899
700,330.514,3.09007
725,332.5,3.08977
750,334.472,3.08925
775,336.455,3.08942
800,338.445,3.08954
825,340.426,3.08907
850,342.402,3.08901
875,344.392,3.08884
900,346.37,3.0883
925,348.365,3.08851
950,350.367,3.08825
975,352.363,3.08787
1000,354.358,3.0878
1025,356.36,3.08774
1050,358.366,3.08789
1075,360.388,3.0875
1100,362.379,3.08729
1125,364.399,3.08741
1150,366.414,3.08725
1175,368.44,3.08714
1200,370.457,3.08713
1225,372.488,3.08699
1250,374.52,3.08697
1275,376.553,3.08665
1300,378.587,3.08636
1325,380.626,3.08611
1350,382.659,3.08573
1375,384.703,3.08491
1400,386.734,3.08517
1425,388.79,3.08433
1450,390.83,3.08412
1475,392.876,3.08408
1500,394.938,3.08357
1525,396.979,3.08314
1550,399.042,3.08281
1575,401.095,3.08229
1600,403.151,3.08186
1625,405.207,3.08137
1650,407.278,3.08091
1675,409.345,3.08028
1700,411.409,3.07971
1725,413.477,3.07845
1750,415.554,3.07789
1775,417.619,3.07701
1800,419.705,3.07613
1825,421.754,3.07586
1850,423.837,3.07465
1875,425.93,3.07406
1900,427.999,3.07322
1925,430.08,3.07246
1950,432.166,3.07194
1975,434.241,3.07107
2000,436.33,3.07065
2025,438.419,3.06897
2050,440.499,3.06836
2075,442.596,3.06728
2100,444.679,3.06608
2125,446.774,3.06499
2150,448.863,3.06383
2175,450.95,3.0623
2200,453.042,3.06039
2225,455.142,3.05916
2250,457.228,3.05746
2275,459.323,3.05602
2300,461.407,3.05412
2325,463.502,3.05271
2350,465.607,3.0506
2375,467.697,3.04871
2400,469.796,3.04667
2425,471.897,3.04469
2450,473.995,3.0425
2475,476.087,3.04036
2500,478.186,3.03762
2525,480.279,3.03611
2550,482.377,3.03477
2575,484.478,3.03269
2600,486.585,3.03179
2625,488.683,3.03095
2650,490.78,3.02999
2675,492.889,3.02925
2700,494.988,3.02838
2725,497.085,3.02747
2750,499.191,3.02646
2775,501.284,3.02569
2800,503.39,3.02504
2825,505.487,3.02421
2850,507.592,3.02385
2875,509.691,3.02302
2900,511.792,3.02123
2925,513.892,3.01968
2950,515.983,3.0188
2975,518.081,3.01723
3000,520.184,3.01506
3025,522.287,3.01301
3050,524.4,3.0109
3075,526.496,3.0081
3100,528.601,3.00507
3125,530.697,3.00228
3150,532.795,2.9986
3175,534.91,2.99453
3200,537.012,2.99067
3225,539.106,2.98558
3250,541.206,2.9803
3275,543.312,2.97461
3300,545.414,2.9679
3325,547.519,2.96095
3350,549.625,2.95304
3375,551.728,2.94425
3400,553.834,2.93439
3425,555.95,2.92405
3450,558.045,2.91313
3475,560.153,2.90106
3500,562.248,2.8879
3525,564.353,2.874
3550,566.458,2.85885
3575,568.559,2.84269
3600,570.66,2.82528
3625,572.766,2.8059
3650,574.874,2.78506
3675,576.972,2.76249
3700,579.08,2.73705
3725,581.188,2.70962
3750,583.294,2.6793
3775,585.403,2.64633
3800,587.514,2.61038
3825,589.615,2.57097
3850,591.715,2.52833
3875,593.826,2.48199
3900,595.929,2.43199
3925,598.051,2.37758
3950,600.153,2.31951
3975,602.263,2.25704
4000,604.375,2.19019
4025,606.491,2.11882
4050,608.586,2.04353
4075,610.707,1.96386
4100,612.817,1.8799
4125,614.931,1.79262
4150,617.04,1.70141
4175,619.149,1.60576
4200,621.255,1.50803
4225,623.363,1.409
4250,625.466,1.3083
4275,627.559,1.20599
4300,629.655,1.10357
4325,631.749,1.00234
4350,633.849,0.903514
4375,635.937,0.808239
4400,638.019,0.717077
4425,640.098,0.63062
4450,642.175,0.55012
4475,644.254,0.475085
4500,646.33,0.407326
4525,648.4,0.346599
4550,650.472,0.292754
4575,652.55,0.245462
4600,654.621,0.204695
4625,656.693,0.169552
4650,658.746,0.13983
4675,660.815,0.115144
4700,662.878,0.0949701
4725,664.95,0.0785803
4750,667.023,0.065311
4775,669.106,0.0545319
4800,671.181,0.0459484
4825,673.261,0.0392808
4850,675.333,0.0339681
4875,677.426,0.0298243
4900,679.5,0.0263647
4925,681.592,0.0240148
4950,683.674,0.0220153
4975,685.765,0.0201267
5000,687.851,0.0189973
5025,689.93,0.0179948
5050,692.021,0.0178875
5075,694.107,0.0169034
5100,696.193,0.0167251
5125,698.278,0.0169007
5150,700.369,0.0168992
5175,702.457,0.0163601
5200,704.54,0.0161467
5225,706.627,0.0159914
5250,708.705,0.0160077
5275,710.8,0.0160069
5300,712.88,0.0159911
5325,714.968,0.0158627
5350,717.054,0.0152854
5375,719.13,0.0152548
5400,721.211,0.0152016
5425,723.294,0.0151124
5450,725.398,0.0150935
5475,727.492,0.0152642
5500,729.559,0.0149183
5525,731.643,0.0150948
5550,733.727,0.0150075
5575,735.815,0.0150209
5600,737.892,0.0151125
5625,739.971,0.0141876
5650,742.043,0.0145639
5675,744.126,0.0148458
5700,746.205,0.015072
5725,748.29,0.014686
5750,750.366,0.013995
5775,752.456,0.014043
5800,754.531,0.014247
5825,756.621,0.0139922
5850,758.698,0.0139969
5875,760.771,0.014087
5900,762.857,0.0136687
5925,764.944,0.0137367
5950,767.016,0.0139907
5975,769.102,0.0139822
6000,771.185,0.0138231
6025,773.268,0.0131267
6050,775.355,0.0138603
6075,777.432,0.0138112
6100,779.524,0.0133997
6125,781.602,0.0131396
6150,783.696,0.0135726
6175,785.774,0.0134737
6200,787.857,0.0139249
6225,789.947,0.0130122
6250,791.957,0.0137098
6275,793.281,0.0134516
6300,794.099,0.0130087
6325,794.619,0.0128187
6350,794.972,0.0129938
6375,795.177,0.0129938
6400,795.308,0.0127887
6425,795.403,0.0121327
6450,795.458,0.0120093
6475,795.495,0.0129916
6500,795.521,0.0123736
6525,795.532,0.0119968
6550,795.535,0.0119961
6575,795.55,0.012043
6600,795.553,0.0125612