File: PMMA/Calibration_Data/LCPP/LCPP_TGA_N2_2-5K_1.csv
Time,Temperature,Mass
[s],[K],[mg]
0,301.365,3.00723
50,301.024,3.00648
100,300.81,3.00604
150,300.672,3.0058
200,300.563,3.00545
250,300.49,3.00544
300,300.44,3.00515
350,301.554,3.00571
400,303.392,3.00531
450,305.411,3.00491
500,307.424,3.00447
550,309.4,3.00441
600,311.361,3.00414
650,313.315,3.00371
700,315.263,3.00334
750,317.225,3.00305
800,319.177,3.00268
850,321.117,3.00265
900,323.065,3.00251
950,325.006,3.00227
1000,326.942,3.0023
1050,328.915,3.00191
1100,330.851,3.00187
1150,332.794,3.00155
1200,334.754,3.00075
1250,336.723,3.00155
1300,338.697,3.00125
1350,340.66,3.00106
1400,342.634,3.00097
1450,344.61,3.00106
1500,346.599,3.00084
1550,348.57,3.00069
1600,350.552,3.0005
1650,352.547,3.00018
1700,354.533,3.0002
1750,356.526,3.00006
1800,358.525,2.99997
1850,360.528,2.99979
1900,362.533,2.99974
1950,364.542,2.99966
2000,366.551,2.99972
2050,368.56,2.99921
2100,370.585,2.99942
2150,372.611,2.99914
2200,374.631,2.99925
2250,376.662,2.99898
2300,378.684,2.99855
2350,380.718,2.99837
2400,382.75,2.99801
2450,384.789,2.9975
2500,386.821,2.99715
2550,388.855,2.99689
2600,390.902,2.99637
2650,392.937,2.99601
2700,394.989,2.99542
2750,397.02,2.9951
2800,399.087,2.99497
2850,401.129,2.99403
2900,403.184,2.99383
2950,405.239,2.99299
3000,407.296,2.99206
3050,409.352,2.99103
3100,411.413,2.99031
3150,413.473,2.9904
3200,415.539,2.98996
3250,417.6,2.98902
3300,419.689,2.98822
3350,421.749,2.98729
3400,423.828,2.98617
3450,425.896,2.98497
3500,427.963,2.98423
3550,430.026,2.9837
3600,432.11,2.98195
3650,434.186,2.98188
3700,436.26,2.98048
3750,438.335,2.9797
3800,440.41,2.97813
3850,442.492,2.97694
3900,444.577,2.97617
3950,446.665,2.97508
4000,448.744,2.97342
4050,450.832,2.97191
4100,452.917,2.97095
4150,455,2.96935
4200,457.088,2.96802
4250,459.174,2.96701
4300,461.255,2.96534
4350,463.346,2.9635
4400,465.437,2.96176
4450,467.512,2.95994
4500,469.601,2.95901
4550,471.695,2.95794
4600,473.783,2.95683
4650,475.876,2.9555
4700,477.974,2.955
4750,480.073,2.95422
4800,482.162,2.95318
4850,484.268,2.95307
4900,486.36,2.9524
4950,488.443,2.95213
5000,490.532,2.95123
5050,492.641,2.95095
5100,494.741,2.9501
5150,496.838,2.94913
5200,498.928,2.9482
5250,501.032,2.94746
5300,503.129,2.9461
5350,505.226,2.94492
5400,507.307,2.94326
5450,509.41,2.94198
5500,511.504,2.94
5550,513.608,2.9371
5600,515.693,2.93569
5650,517.797,2.93295
5700,519.89,2.93
5750,521.985,2.92672
5800,524.076,2.92304
5850,526.178,2.91939
5900,528.287,2.91533
5950,530.377,2.91027
6000,532.488,2.90525
6050,534.582,2.89934
6100,536.679,2.89258
6150,538.778,2.88504
6200,540.871,2.87715
6250,542.971,2.868
6300,545.072,2.8584
6350,547.17,2.847
6400,549.265,2.83488
6450,551.364,2.82204
6500,553.451,2.80738
6550,555.552,2.79242
6600,557.653,2.77521
6650,559.75,2.75721
6700,561.854,2.73693
6750,563.944,2.71566
6800,566.057,2.69159
6850,568.144,2.66573
6900,570.245,2.63808
6950,572.352,2.60739
7000,574.442,2.57394
7050,576.544,2.53754
7100,578.658,2.49828
7150,580.763,2.45581
7200,582.861,2.41013
7250,584.961,2.36115
7300,587.072,2.3085
7350,589.169,2.2529
7400,591.26,2.19365
7450,593.365,2.13041
7500,595.453,2.06425
7550,597.561,1.99408
7600,599.668,1.92063
7650,601.766,1.84429
7700,603.863,1.76444
7750,605.963,1.68074
7800,608.06,1.59401
7850,610.161,1.50438
7900,612.269,1.4121
7950,614.359,1.31898
8000,616.459,1.22453
8050,618.547,1.12796
8100,620.634,1.03285
8150,622.744,0.938738
8200,624.833,0.846586
8250,626.924,0.756613
8300,629.013,0.670921
8350,631.099,0.589731
8400,633.186,0.513445
8450,635.265,0.44249
8500,637.356,0.377828
8550,639.443,0.31996
8600,641.526,0.269407
8650,643.618,0.224917
8700,645.698,0.186511
8750,647.78,0.153391
8800,649.883,0.12612
8850,651.966,0.103739
8900,654.052,0.0853316
8950,656.132,0.0705095
9000,658.218,0.0584386
9050,660.314,0.0487349
9100,662.406,0.0407641
9150,664.493,0.0341538
9200,666.587,0.0295841
9250,668.678,0.0258121
9300,670.756,0.0229937
9350,672.853,0.020156
9400,674.94,0.0188074
9450,677.032,0.0170022
9500,679.117,0.0160039
9550,681.209,0.0159248
9600,683.303,0.0148337
9650,685.393,0.0149366
9700,687.482,0.0149408
9750,689.578,0.014971
9800,691.678,0.0146231
9850,693.758,0.0148002
9900,695.843,0.0142195
9950,697.925,0.0135507
10000,700.021,0.0137714
10050,702.108,0.0133864
10100,704.199,0.0138698
10150,706.282,0.0134795
10200,708.372,0.0139787
10250,710.458,0.0138594
10300,712.561,0.0131534
10350,714.645,0.0130846
10400,716.739,0.0130087
10450,718.819,0.0129938
10500,720.897,0.0128895
10550,722.983,0.0129938
10600,725.069,0.0129913
10650,727.16,0.0122617
10700,729.236,0.0120036
10750,731.335,0.0119991
10800,733.414,0.0121266
10850,735.495,0.0114732
10900,737.587,0.0113941
10950,739.679,0.0118443
11000,741.757,0.0120997
11050,743.845,0.0118352
11100,745.925,0.0109971
11150,748.01,0.0109972
11200,750.096,0.0109991
11250,752.176,0.0111046
11300,754.267,0.0113777
11350,756.349,0.0105586
11400,758.435,0.0109683
11450,760.518,0.0109822
11500,762.606,0.0110105
11550,764.697,0.0101915
11600,766.77,0.0100567
11650,768.848,0.0106986
11700,770.942,0.0111013
11750,773.027,0.010996
11800,775.106,0.0109358
11850,777.195,0.010002
11900,779.29,0.0100971
11950,781.364,0.0107684
12000,783.456,0.0108918
12050,785.556,0.0108845
12100,787.634,0.00998384
12150,789.715,0.0100507
12200,791.809,0.0109403
12250,793.854,0.0105433
12300,794.917,0.0106549
12350,795.341,0.0103747
12400,795.529,0.00999868
12450,795.6,0.00999868
12500,795.639,0.00999868
12550,795.651,0.00999868
12600,795.648,0.00999868