File: PMMA/Calibration_Data/LCPP/LCPP_TGA_N2_5K_3.csv
Time,Temperature,Mass
[s],[K],[mg]
0,301.174,3.06027
25,300.996,3.06019
50,300.875,3.06016
75,300.787,3.06
100,300.693,3.05912
125,300.637,3.06
150,300.581,3.06
175,300.527,3.06
200,300.493,3.06
225,300.449,3.05994
250,300.427,3.05915
275,300.409,3.05898
300,300.373,3.05796
325,301.297,3.05975
350,302.895,3.05908
375,304.683,3.05897
400,306.59,3.05864
425,308.575,3.05828
450,310.59,3.05796
475,312.609,3.0578
500,314.636,3.0576
525,316.644,3.05719
550,318.652,3.05704
575,320.641,3.05694
600,322.636,3.05662
625,324.629,3.05646
650,326.612,3.05614
675,328.6,3.05596
700,330.57,3.05596
725,332.56,3.0557
750,334.533,3.05551
775,336.515,3.05537
800,338.49,3.05522
825,340.482,3.05493
850,342.451,3.05464
875,344.44,3.05475
900,346.423,3.05437
925,348.417,3.05443
950,350.403,3.05418
975,352.412,3.05386
1000,354.401,3.05399
1025,356.416,3.05384
1050,358.415,3.05367
1075,360.429,3.05362
1100,362.424,3.05331
1125,364.449,3.05336
1150,366.458,3.05319
1175,368.47,3.05332
1200,370.519,3.05324
1225,372.549,3.05284
1250,374.544,3.05274
1275,376.604,3.0525
1300,378.617,3.0523
1325,380.656,3.05186
1350,382.711,3.0517
1375,384.73,3.05125
1400,386.786,3.05115
1425,388.825,3.05054
1450,390.869,3.05005
1475,392.93,3.05004
1500,394.971,3.04979
1525,397.027,3.04932
1550,399.087,3.04889
1575,401.143,3.04825
1600,403.198,3.04778
1625,405.262,3.04733
1650,407.326,3.04692
1675,409.388,3.04611
1700,411.47,3.04567
1725,413.527,3.04481
1750,415.594,3.04389
1775,417.655,3.04311
1800,419.751,3.04212
1825,421.802,3.04187
1850,423.892,3.04084
1875,425.969,3.04032
1900,428.045,3.03939
1925,430.115,3.03882
1950,432.205,3.03796
1975,434.299,3.03673
2000,436.392,3.03648
2025,438.451,3.03493
2050,440.527,3.03377
2075,442.651,3.03254
2100,444.726,3.0312
2125,446.811,3.03006
2150,448.895,3.02886
2175,450.984,3.02764
2200,453.085,3.02614
2225,455.163,3.02405
2250,457.274,3.02299
2275,459.348,3.02125
2300,461.442,3.01985
2325,463.535,3.01773
2350,465.624,3.0156
2375,467.725,3.0137
2400,469.832,3.01067
2425,471.935,3.00868
2450,474.032,3.00543
2475,476.131,3.0035
2500,478.227,3.00105
2525,480.31,2.99868
2550,482.432,2.99748
2575,484.521,2.99557
2600,486.609,2.99455
2625,488.703,2.99317
2650,490.831,2.99229
2675,492.93,2.99188
2700,495.031,2.99108
2725,497.12,2.99028
2750,499.22,2.98939
2775,501.318,2.98868
2800,503.424,2.98801
2825,505.524,2.98668
2850,507.632,2.98583
2875,509.731,2.98504
2900,511.832,2.98323
2925,513.933,2.98133
2950,516.043,2.97988
2975,518.144,2.97823
3000,520.248,2.97622
3025,522.348,2.97401
3050,524.455,2.97109
3075,526.546,2.96812
3100,528.654,2.96493
3125,530.748,2.96167
3150,532.85,2.95797
3175,534.956,2.95376
3200,537.058,2.94931
3225,539.162,2.94383
3250,541.253,2.93838
3275,543.356,2.93219
3300,545.46,2.92524
3325,547.56,2.91787
3350,549.673,2.90973
3375,551.767,2.90059
3400,553.867,2.89055
3425,555.964,2.88004
3450,558.074,2.86882
3475,560.181,2.85662
3500,562.286,2.84346
3525,564.382,2.82933
3550,566.48,2.81413
3575,568.579,2.79796
3600,570.686,2.78061
3625,572.79,2.76143
3650,574.899,2.74081
3675,577.003,2.71853
3700,579.114,2.6934
3725,581.208,2.66647
3750,583.314,2.6368
3775,585.42,2.60443
3800,587.525,2.56938
3825,589.639,2.53089
3850,591.741,2.48926
3875,593.851,2.44423
3900,595.958,2.39561
3925,598.067,2.34296
3950,600.18,2.28658
3975,602.282,2.22641
4000,604.39,2.16183
4025,606.503,2.09302
4050,608.613,2.02028
4075,610.722,1.94312
4100,612.83,1.86234
4125,614.935,1.77793
4150,617.029,1.68982
4175,619.135,1.59781
4200,621.237,1.50314
4225,623.341,1.40735
4250,625.445,1.30765
4275,627.552,1.20798
4300,629.641,1.10717
4325,631.737,1.0081
4350,633.834,0.910402
4375,635.917,0.814933
4400,638.014,0.7237
4425,640.087,0.637072
4450,642.195,0.555632
4475,644.272,0.479508
4500,646.346,0.409753
4525,648.422,0.347108
4550,650.492,0.291429
4575,652.566,0.242721
4600,654.643,0.200101
4625,656.718,0.163444
4650,658.785,0.13241
4675,660.868,0.106599
4700,662.939,0.0853743
4725,665.02,0.0681192
4750,667.091,0.0540528
4775,669.165,0.0427782
4800,671.25,0.0335453
4825,673.331,0.026406
4850,675.414,0.0206615
4875,677.49,0.0160561
4900,679.577,0.0124949
4925,681.665,0.0100084
4950,683.742,0.00800546
4975,685.83,0.00589674
5000,687.918,0.00488635
5025,690.008,0.00388365
5050,692.095,0.00379173
5075,694.184,0.00289382
5100,696.262,0.00271921
5125,698.362,0.00281368
5150,700.448,0.0024424
5175,702.526,0.00218705
5200,704.618,0.00208194
5225,706.704,0.0018943
5250,708.783,0.00200884
5275,710.869,0.00200122
5300,712.948,0.0017867
5325,715.037,0.00174694
5350,717.121,0.00111955
5375,719.211,0.0013011
5400,721.292,0.00118968
5425,723.384,0.00109064
5450,725.457,0.00108814
5475,727.533,0.00151715
5500,729.623,0.000967259
5525,731.706,0.00119718
5550,733.789,0.00101236
5575,735.869,0.00101176
5600,737.953,0.00114625
5625,740.03,0.000980882
5650,742.106,0.000651049
5675,744.195,0.000855586
5700,746.278,0.00107584
5725,748.36,0.000982056
5750,750.444,0.000914074
5775,752.523,1.69E-06
5800,754.609,0.000454431
5825,756.695,0.000931843
5850,758.785,0.000426497
5875,760.851,7.43E-07
5900,762.928,0.000078766
5925,765.023,0.000681602
5950,767.101,0.000494557
5975,769.188,3.30E-06
6000,771.265,2.58E-07
6025,773.345,8.46E-06
6050,775.431,0.000269295
6075,777.51,-0.00019158
6100,779.596,1.52E-09
6125,781.673,0.000129857
6150,783.753,0.000111534
6175,785.833,0.000521177
6200,787.929,0.000033186
6225,790.012,0.000184327
6250,792.038,0.000237078
6275,793.355,5.17E-06
6300,794.157,0.000997571
6325,794.679,0.000506146
6350,795.018,6.01E-08
6375,795.232,0.000539671
6400,795.366,-0.00120719
6425,795.458,0.000998449
6450,795.516,0.000998378
6475,795.556,0.000732816
6500,795.578,0.000618079
6525,795.59,0.000996307
6550,795.595,0.000998378
6575,795.607,0.000958051
6600,795.611,0.000998378