File: PMMA/Calibration_Data/LCPP/LCPP_Cone_25kW_1.csv
Time,Mass,HRR,Back Surface Temperature
[s],[g],[kW/m2],[K]
0,67.0167,0.656419,303.994
2,67.0167,,304.026
4,67.0167,,304.071
6,67.0167,,304.172
8,67.0167,,304.402
10,67.0167,5.37361,304.769
12,67.0167,,305.15
14,67.0167,,305.69
16,67.0167,,306.415
18,66.7375,,307.25
20,66.73908,8.84904,308.18
22,66.5129,,309.337
24,66.4177,,310.547
26,66.4199,,311.903
28,66.41345,,313.249
30,66.49,3.35835,314.873
32,66.5895,,316.429
34,66.6085,,318.134
36,66.6103,,319.866
38,66.6043,,321.799
40,66.6256,7.2456,323.694
42,66.5292,,325.503
44,66.511,,327.572
46,66.4209,,329.609
48,66.3215,,331.487
50,66.21358,5.94629,333.682
52,66.1979,,335.635
54,66.1897,,337.761
56,66.1211,,339.779
58,66.1303,,341.98
60,66.1953,4.66858,344.11
62,66.3059,,346.102
64,66.40127,,348.35
66,66.3052,,350.542
68,66.4048,,352.464
70,66.4232,1.72363,354.638
72,66.4207,,356.667
74,66.4807,,358.762
76,66.58734,,360.708
78,66.5111,,362.842
80,66.4902,1.2353,364.926
82,66.4191,,366.719
84,66.3414,,368.72
86,66.3055,,370.646
88,66.1345,,372.253
90,65.9081,6.52718,373.842
92,65.8294,,375.323
94,65.72417,,376.721
96,65.7096,,377.708
98,65.6911,,378.772
100,65.6866,2.62081,379.995
102,65.6889,,381.388
104,65.6121,,382.682
106,65.7071,,384.11
108,65.5949,,385.589
110,65.5765,-1.17911,387.172
112,65.5318,,389.028
114,65.5277,,391.388
116,65.5888,,393.655
118,65.5914,,396.16
120,65.5148,188.064,398.503
122,65.5224,,400.669
124,65.4248,,402.987
126,65.3136,,405.246
128,65.2968,,407.223
130,65.0013,346.007,409.308
132,64.7389,,411.225
134,64.0776,,413.264
136,64.1081,,415.127
138,63.6675,,417.081
140,62.6837,374.931,419.037
142,62.4213,,420.823
144,62.2339,,422.7
146,61.9456,,424.665
148,61.7285,,426.392
150,61.43635,400.049,428.307
152,61.1468,,430.072
154,60.74045,,432.001
156,60.1639,,433.759
158,59.2845,,435.728
160,59.12555,412.376,437.499
162,58.83299,,439.382
164,58.626,,441.128
166,58.4668,,443.055
168,58.3078,,444.766
170,58.0265,420.182,446.249
172,57.7142,,447.962
174,57.1699,,449.817
176,56.8331,,451.504
178,56.643,,453.069
180,56.0213,424.391,454.392
182,55.8125,,456.022
184,55.2861,,457.697
186,54.9367,,459.317
188,54.6394,,461.084
190,54.1312,421.225,462.916
192,53.9027,,464.694
194,53.63328,,466.597
196,53.4248,,468.363
198,53.032,,470.285
200,52.2982,444.141,472.134
202,52.0558,,474.195
204,51.8269,,476.304
206,51.2679,,478.294
208,51.1217,,480.169
210,50.9253,434.319,482.242
212,50.6329,,484.209
214,50.35421,,486.337
216,49.8222,,488.242
218,49.2654,,490.347
220,48.8089,455.737,492.498
222,48.433,,494.507
224,48.06549,,496.441
226,47.7391,,498.561
228,47.4352,,500.679
230,46.6612,476.815,502.713
232,46.4114,,504.788
234,46.20959,,506.873
236,45.6663,,508.908
238,45.4383,,511.04
240,44.9427,500.341,513.019
242,44.7247,,515.08
244,44.4381,,517.139
246,43.9315,,518.961
248,43.12089,,520.845
250,42.5236,506.763,522.587
252,42.0735,,524.389
254,41.5353,,526.166
256,41.3455,,527.851
258,41.2054,,529.65
260,40.8675,542.091,531.326
262,40.2652,,533.191
264,39.9276,,534.91
266,39.2089,,536.762
268,38.7772,,538.447
270,38.24562,553.089,540.277
272,37.94727,,542.186
274,37.2939,,543.953
276,36.8126,,545.923
278,36.53194,,547.893
280,36.34,557.556,549.733
282,35.8536,,551.774
284,35.244,,553.668
286,34.84746,,555.741
288,34.1148,,557.701
290,33.8497,585.771,559.846
292,33.1112,,561.971
294,32.8403,,563.967
296,32.46515,,566.264
298,31.4546,,568.619
300,31.246,575.364,570.8
302,30.9673,,573.212
304,30.2768,,575.656
306,29.743,,578.055
308,29.4414,,580.463
310,28.7586,569.141,582.862
312,28.1019,,585.057
314,27.7463,,586.998
316,26.9514,,589.3
318,26.8421,,591.89
320,26.5455,587.324,594.014
322,25.6144,,596.316
324,25.299,,598.605
326,25.034,,600.629
328,24.3319,,602.656
330,24.0166,631.528,604.532
332,23.6401,,606.289
334,23.241,,608.176
336,22.6419,,610.169
338,22.3445,,612.095
340,21.9023,623.52,613.857
342,21.10031,,615.728
344,20.4534,,617.809
346,20.0318,,619.976
348,19.6397,,621.965
350,18.7483,622.236,624.411
352,18.4186,,627.106
354,17.9418,,629.781
356,17.2512,,632.769
358,16.8343,,635.589
360,16.024,637.507,639.002
362,15.7418,,643.173
364,15.0806,,648.478
366,14.4459,,660.703
368,14.1413,,676.471
370,13.8436,638.132,710.32
372,12.96572,,791.645
374,12.2627,,874.809
376,11.9526,,866.964
378,11.4401,,834.399
380,10.6211,632.087,802.062
382,10.3234,,777.51
384,9.687494,,757.723
386,9.247477,,739.618
388,8.928766,,724.442
390,8.45463,601.449,712.356
392,7.906993,,703.225
394,7.442437,,696.448
396,7.027841,,689.772
398,6.541319,,683.262
400,5.989858,527.595,676.318
402,5.822392,,670.202
404,5.536255,,662.484
406,4.881277,,652.143
408,4.628611,,641.039
410,4.324025,509.099,632.771
412,3.933483,,625.176
414,3.327718,,617.467
416,3.118138,,611.354
418,2.559235,,605.821
420,2.417202,338.528,600.898
422,2.15235,,596.371
424,1.914354,,592.587
426,1.602386,,589.094
428,1.488551,,586.139
430,1.313934,147.636,583.312
432,1.184205,,581.526
434,1.019422,,580.271
436,0.986698,,578.432
438,0.898043,,576.964
440,0.816668,47.0534,575.027
442,0.817798,,573.075
444,0.705545,,571.797
446,0.526075,,570.903
448,0.5893,,570.655
450,0.705664,7.72439,570.535
452,0.879692,,570.047
454,0.815673,,570.251
456,0.7094,,570.269
458,0.703805,,570.682
460,0.609664,6.40898,570.921
462,0.593386,,571.011
464,0.696722,,570.755
466,0.706456,,570.726
468,0.816846,,570.206
470,0.815876,2.67599,569.379
472,0.709364,,568.192
474,0.592121,,567.231
476,0.589752,,566.157
478,0.610361,,565.505
480,0.707208,-0.831879,566.139
482,0.70181,,567.3
484,0.592513,,567.17
486,0.683048,,567.427
488,0.592122,,567.578
490,0.612483,-0.893132,567.727
492,0.589877,,568.138
494,0.526877,,568.035
496,0.516136,,567.628
498,0.437463,,568.18
500,0.409746,0.480228,568.521