File: PMMA/Calibration_Data/LCPP/LCPP_TGA_N2_15K_3.csv
Time,Temperature,Mass
[s],[K],[mg]
0,301.168,3.06913
9,301.109,3.06934
18,301.033,3.06938
27,300.988,3.06906
36,300.933,3.06895
45,300.893,3.06922
54,300.841,3.06889
63,300.793,3.06851
72,300.765,3.06897
81,300.748,3.06839
90,300.701,3.06809
99,300.685,3.06883
108,300.652,3.06884
117,300.628,3.06812
126,300.601,3.06791
135,300.584,3.0679
144,300.564,3.0679
153,300.552,3.0679
162,300.516,3.0679
171,300.5,3.06835
180,300.497,3.06834
189,300.483,3.06791
198,300.456,3.0679
207,300.44,3.0679
216,300.44,3.0679
225,300.408,3.0679
234,300.41,3.0679
243,300.4,3.0679
252,300.375,3.0679
261,300.389,3.0679
270,300.381,3.0679
279,300.363,3.0679
288,300.361,3.0679
297,300.34,3.06763
306,300.682,3.0671
315,302.108,3.06927
324,303.945,3.06739
333,305.929,3.0665
342,307.985,3.0661
351,310.047,3.06561
360,312.129,3.06528
369,314.234,3.0649
378,316.351,3.06467
387,318.476,3.0644
396,320.633,3.06421
405,322.789,3.06401
414,324.969,3.0636
423,327.142,3.06333
432,329.333,3.06315
441,331.515,3.06285
450,333.71,3.06258
459,335.898,3.06249
468,338.087,3.06227
477,340.275,3.06203
486,342.469,3.06182
495,344.671,3.06177
504,346.866,3.06169
513,349.072,3.06161
522,351.279,3.0613
531,353.483,3.06137
540,355.678,3.0613
549,357.876,3.06116
558,360.086,3.06097
567,362.312,3.0609
576,364.506,3.06078
585,366.728,3.06079
594,368.936,3.06067
603,371.163,3.06066
612,373.383,3.06035
621,375.608,3.06015
630,377.828,3.06004
639,380.058,3.05962
648,382.279,3.05942
657,384.507,3.0591
666,386.73,3.05876
675,388.97,3.05837
684,391.198,3.0583
693,393.427,3.05797
702,395.676,3.05741
711,397.913,3.05709
720,400.152,3.05659
729,402.4,3.05623
738,404.64,3.05592
747,406.899,3.05522
756,409.138,3.05455
765,411.402,3.05381
774,413.648,3.05339
783,415.899,3.05262
792,418.152,3.05198
801,420.414,3.05149
810,422.68,3.05082
819,424.942,3.04998
828,427.213,3.04903
837,429.48,3.04836
846,431.74,3.0475
855,434.004,3.04677
864,436.273,3.04591
873,438.554,3.04471
882,440.818,3.04373
891,443.091,3.04278
900,445.363,3.04159
909,447.65,3.04038
918,449.926,3.03911
927,452.205,3.03748
936,454.482,3.03573
945,456.759,3.03406
954,459.041,3.03241
963,461.314,3.03093
972,463.598,3.02942
981,465.871,3.02724
990,468.161,3.02479
999,470.449,3.02268
1008,472.724,3.02025
1017,475.013,3.01771
1026,477.298,3.01566
1035,479.581,3.01246
1044,481.877,3.0098
1053,484.168,3.00637
1062,486.453,3.003
1071,488.738,2.9996
1080,491.026,2.99574
1089,493.315,2.99213
1098,495.589,2.98877
1107,497.89,2.98594
1116,500.162,2.98355
1125,502.457,2.98123
1134,504.745,2.97979
1143,507.036,2.97829
1152,509.326,2.97714
1161,511.612,2.97625
1170,513.904,2.97502
1179,516.179,2.97432
1188,518.469,2.97317
1197,520.755,2.97178
1206,523.035,2.97034
1215,525.33,2.96891
1224,527.609,2.96735
1233,529.902,2.96518
1242,532.191,2.9634
1251,534.475,2.9612
1260,536.761,2.95858
1269,539.041,2.9554
1278,541.338,2.95197
1287,543.616,2.94872
1296,545.898,2.94499
1305,548.182,2.94045
1314,550.462,2.93564
1323,552.741,2.93059
1332,555.028,2.92429
1341,557.312,2.91827
1350,559.583,2.91089
1359,561.877,2.90307
1368,564.149,2.89471
1377,566.435,2.8855
1386,568.718,2.87573
1395,570.998,2.8652
1404,573.284,2.85423
1413,575.56,2.84261
1422,577.831,2.83011
1431,580.112,2.81668
1440,582.387,2.80272
1449,584.676,2.78737
1458,586.952,2.77084
1467,589.231,2.7528
1476,591.501,2.73217
1485,593.781,2.70991
1494,596.06,2.68506
1503,598.335,2.65715
1512,600.619,2.62649
1521,602.901,2.59221
1530,605.176,2.55423
1539,607.462,2.51247
1548,609.733,2.46625
1557,612.009,2.41501
1566,614.274,2.3589
1575,616.538,2.29768
1584,618.801,2.23118
1593,621.062,2.15941
1602,623.323,2.08238
1611,625.573,2.00031
1620,627.827,1.91308
1629,630.079,1.82068
1638,632.323,1.72377
1647,634.575,1.62373
1656,636.824,1.52069
1665,639.073,1.41451
1674,641.331,1.30665
1683,643.591,1.19838
1692,645.85,1.09149
1701,648.101,0.985437
1710,650.366,0.883003
1719,652.627,0.783171
1728,654.892,0.688537
1737,657.16,0.599962
1746,659.432,0.518057
1755,661.692,0.443334
1764,663.965,0.376016
1773,666.233,0.316128
1782,668.508,0.262943
1791,670.776,0.217186
1800,673.034,0.177977
1809,675.308,0.145026
1818,677.566,0.117878
1827,679.826,0.0955695
1836,682.078,0.0777309
1845,684.324,0.0633696
1854,686.575,0.0520363
1863,688.826,0.043255
1872,691.076,0.036503
1881,693.316,0.031082
1890,695.564,0.0267449
1899,697.805,0.0238411
1908,700.05,0.021153
1917,702.296,0.0192935
1926,704.543,0.0179178
1935,706.785,0.0166202
1944,709.034,0.0158262
1953,711.276,0.0151482
1962,713.52,0.0144961
1971,715.76,0.0146341
1980,718.008,0.0144057
1989,720.252,0.0142681
1998,722.499,0.0137253
2007,724.745,0.0135576
2016,726.984,0.013515
2025,729.225,0.0134624
2034,731.47,0.0132689
2043,733.718,0.0130734
2052,735.96,0.0131095
2061,738.193,0.0130784
2070,740.44,0.0131853
2079,742.68,0.012635
2088,744.925,0.0126923
2097,747.171,0.0127484
2106,749.415,0.0129105
2115,751.649,0.0130634
2124,753.881,0.012314
2133,756.129,0.0125723
2142,758.366,0.0120773
2151,760.611,0.012141
2160,762.845,0.0124285
2169,765.083,0.0119468
2178,767.33,0.0120757
2187,769.574,0.0121533
2196,771.813,0.0117452
2205,774.053,0.0119476
2214,776.291,0.0119288
2223,778.532,0.0118804
2232,780.777,0.0115308
2241,783.021,0.0114767
2250,785.059,0.0116281
2259,786.704,0.011611
2268,788.055,0.0110246
2277,789.172,0.0111676
2286,790.121,0.0112363
2295,790.927,0.0109877
2304,791.63,0.0105127
2313,792.231,0.0108202
2322,792.734,0.0109402
2331,793.165,0.0106503
2340,793.531,0.0100963
2349,793.856,0.0107576
2358,794.127,0.0110717
2367,794.359,0.0102069
2376,794.56,0.0103587
2385,794.723,0.0101372
2394,794.873,0.0101037
2403,794.999,0.0103157
2412,795.103,0.0101748
2421,795.202,0.0102291
2430,795.278,0.0103687
2439,795.343,0.0105148
2448,795.41,0.0104734
2457,795.45,0.0102196
2466,795.505,0.00987921
2475,795.533,0.00994628
2484,795.562,0.0100743
2493,795.595,0.00985639
2502,795.613,0.0100721
2511,795.628,0.0101023
2520,795.641,0.00972856
2529,795.661,0.0100491
2538,795.665,0.0101027
2547,795.685,0.010103
2556,795.688,0.010103
2565,795.696,0.010103
2574,795.697,0.010103
2583,795.704,0.010103
2592,795.714,0.010103
2598,795.716,0.010103