File: PMMA/Calibration_Data/LCPP/LCPP_TGA_N2_15K_2.csv
Time,Temperature,Mass
[s],[K],[mg]
0,301.299,3.12389
9,301.225,3.12375
18,301.15,3.1237
27,301.096,3.12353
36,301.037,3.1232
45,300.972,3.12328
54,300.934,3.12357
63,300.879,3.1232
72,300.846,3.12334
81,300.816,3.12335
90,300.775,3.12301
99,300.743,3.12299
108,300.703,3.12359
117,300.679,3.12264
126,300.67,3.12287
135,300.637,3.12298
144,300.597,3.12299
153,300.594,3.12299
162,300.567,3.12299
171,300.551,3.12299
180,300.54,3.12299
189,300.506,3.12299
198,300.5,3.12299
207,300.484,3.12299
216,300.47,3.12299
225,300.457,3.12299
234,300.432,3.12299
243,300.418,3.12256
252,300.411,3.12218
261,300.399,3.12276
270,300.391,3.12239
279,300.381,3.12199
288,300.373,3.12199
297,300.35,3.12173
306,300.695,3.12143
315,302.119,3.12395
324,303.97,3.12216
333,305.961,3.1213
342,308.003,3.12088
351,310.068,3.12044
360,312.147,3.11997
369,314.259,3.11971
378,316.373,3.11957
387,318.526,3.1194
396,320.668,3.11923
405,322.833,3.11913
414,325.018,3.11884
423,327.188,3.11861
432,329.371,3.11829
441,331.568,3.11809
450,333.754,3.11796
459,335.942,3.11782
468,338.141,3.11773
477,340.337,3.11756
486,342.521,3.11732
495,344.724,3.11706
504,346.919,3.11698
513,349.127,3.11685
522,351.321,3.11662
531,353.523,3.11652
540,355.728,3.11636
549,357.933,3.11644
558,360.148,3.11608
567,362.366,3.11579
576,364.576,3.11566
585,366.777,3.11566
594,369.005,3.11543
603,371.218,3.11537
612,373.441,3.11502
621,375.66,3.11486
630,377.887,3.11469
639,380.112,3.11427
648,382.341,3.11429
657,384.563,3.11404
666,386.799,3.11378
675,389.026,3.11363
684,391.26,3.11338
693,393.492,3.11287
702,395.728,3.11234
711,397.969,3.11197
720,400.218,3.11142
729,402.475,3.11109
738,404.707,3.11084
747,406.958,3.11031
756,409.215,3.10948
765,411.458,3.10902
774,413.698,3.10839
783,415.974,3.10782
792,418.228,3.10708
801,420.479,3.1066
810,422.742,3.10587
819,425.013,3.10518
828,427.276,3.10433
837,429.537,3.10357
846,431.811,3.10275
855,434.072,3.102
864,436.346,3.10127
873,438.61,3.10038
882,440.894,3.09892
891,443.165,3.09808
900,445.435,3.09708
909,447.709,3.09583
918,449.98,3.09414
927,452.263,3.0925
936,454.544,3.09087
945,456.812,3.08914
954,459.09,3.08743
963,461.37,3.08595
972,463.657,3.08442
981,465.93,3.08183
990,468.219,3.08004
999,470.496,3.07766
1008,472.78,3.07516
1017,475.063,3.0726
1026,477.349,3.06987
1035,479.645,3.06701
1044,481.935,3.06391
1053,484.211,3.06051
1062,486.497,3.05726
1071,488.791,3.05372
1080,491.071,3.04999
1089,493.36,3.04632
1098,495.652,3.04309
1107,497.94,3.04027
1116,500.228,3.03772
1125,502.509,3.03605
1134,504.796,3.03458
1143,507.088,3.03323
1152,509.375,3.03182
1161,511.657,3.03033
1170,513.947,3.02978
1179,516.238,3.02848
1188,518.521,3.02717
1197,520.804,3.02578
1206,523.094,3.02433
1215,525.383,3.02291
1224,527.666,3.02149
1233,529.963,3.01927
1242,532.244,3.01757
1251,534.524,3.01517
1260,536.815,3.01268
1269,539.099,3.00965
1278,541.38,3.00618
1287,543.669,3.00264
1296,545.946,2.99886
1305,548.22,2.99461
1314,550.509,2.98975
1323,552.784,2.98438
1332,555.066,2.97853
1341,557.352,2.97185
1350,559.63,2.96446
1359,561.919,2.95664
1368,564.2,2.94815
1377,566.478,2.93862
1386,568.763,2.92859
1395,571.04,2.91802
1404,573.317,2.90687
1413,575.605,2.89508
1422,577.885,2.88224
1431,580.149,2.86867
1440,582.438,2.85422
1449,584.716,2.83866
1458,586.995,2.82152
1467,589.274,2.80296
1476,591.554,2.7824
1485,593.83,2.75979
1494,596.105,2.73411
1503,598.38,2.70584
1512,600.668,2.67485
1521,602.947,2.63999
1530,605.226,2.60169
1539,607.512,2.55922
1548,609.785,2.51224
1557,612.063,2.46045
1566,614.335,2.40386
1575,616.596,2.34198
1584,618.863,2.27446
1593,621.121,2.20157
1602,623.372,2.1232
1611,625.633,2.03929
1620,627.888,1.95093
1629,630.143,1.8571
1638,632.391,1.75902
1647,634.653,1.65649
1656,636.887,1.55123
1665,639.149,1.44436
1674,641.392,1.33644
1683,643.652,1.22762
1692,645.91,1.1201
1701,648.17,1.01406
1710,650.43,0.910058
1719,652.695,0.808083
1728,654.949,0.710467
1737,657.216,0.618912
1746,659.477,0.534126
1755,661.757,0.45701
1764,664.025,0.387967
1773,666.302,0.326337
1782,668.568,0.271912
1791,670.836,0.224836
1800,673.102,0.184749
1809,675.354,0.15119
1818,677.622,0.12316
1827,679.873,0.100557
1836,682.124,0.0822956
1845,684.375,0.0676634
1854,686.621,0.056112
1863,688.857,0.0469041
1872,691.104,0.0400317
1881,693.345,0.0345474
1890,695.588,0.0305244
1899,697.829,0.0271643
1908,700.068,0.0249047
1917,702.319,0.0230832
1926,704.561,0.0215997
1935,706.796,0.020043
1944,709.044,0.0191366
1953,711.284,0.0191082
1962,713.525,0.0187838
1971,715.77,0.0183545
1980,718.016,0.0180257
1989,720.255,0.0181716
1998,722.497,0.0179369
2007,724.739,0.017637
2016,726.985,0.0176405
2025,729.229,0.0177586
2034,731.473,0.0176186
2043,733.718,0.0174426
2052,735.961,0.0173266
2061,738.205,0.0174551
2070,740.444,0.0173786
2079,742.682,0.0171733
2088,744.923,0.017202
2097,747.165,0.0169592
2106,749.413,0.0170232
2115,751.648,0.0170272
2124,753.892,0.0168925
2133,756.134,0.0168191
2142,758.373,0.0165178
2151,760.616,0.0166189
2160,762.851,0.0164551
2169,765.094,0.0163371
2178,767.336,0.0162907
2187,769.575,0.0164682
2196,771.818,0.0162214
2205,774.064,0.0162262
2214,776.299,0.0162533
2223,778.547,0.0165708
2232,780.787,0.0162186
2241,783.029,0.0159064
2250,785.062,0.0161412
2259,786.702,0.0159559
2268,788.053,0.0158836
2277,789.174,0.0157736
2286,790.122,0.0157166
2295,790.927,0.0156865
2304,791.632,0.0150851
2313,792.216,0.015795
2322,792.723,0.0152182
2331,793.15,0.0149957
2340,793.519,0.0150358
2349,793.843,0.015285
2358,794.113,0.015096
2367,794.347,0.0150946
2376,794.555,0.0150949
2385,794.728,0.0150949
2394,794.869,0.0150949
2403,794.995,0.0151513
2412,795.101,0.0148151
2421,795.196,0.015062
2430,795.278,0.0153538
2439,795.342,0.0155034
2448,795.396,0.0154625
2457,795.449,0.0152031
2466,795.496,0.0147574
2475,795.537,0.0144569
2484,795.561,0.0146344
2493,795.595,0.0148869
2502,795.612,0.0150878
2511,795.627,0.0150949
2520,795.648,0.0149191
2529,795.661,0.015084
2538,795.667,0.0149497
2547,795.687,0.0148663
2556,795.689,0.01509
2565,795.686,0.0150948
2574,795.701,0.0150949
2583,795.711,0.0150949
2592,795.71,0.0150949
2598,795.703,0.0150949