File: PMMA/Calibration_Data/LCPP/LCPP_TGA_N2_10K_1.csv
Time,Temperature,Mass
[s],[K],[mg]
0,301.205,3.01186
9,301.148,3.01144
18,301.082,3.01159
27,301.027,3.01136
36,300.971,3.01123
45,300.91,3.01082
54,300.882,3.01121
63,300.856,3.01081
72,300.812,3.01117
81,300.772,3.01048
90,300.735,3.01031
99,300.714,3.01048
108,300.687,3.01038
117,300.661,3.01039
126,300.633,3.01016
135,300.619,3.01
144,300.604,3.00998
153,300.574,3.01004
162,300.559,3.00993
171,300.542,3.0099
180,300.532,3.0099
189,300.5,3.0099
198,300.499,3.01009
207,300.482,3.0099
216,300.469,3.00999
225,300.453,3.00991
234,300.439,3.0099
243,300.417,3.00998
252,300.413,3.00975
261,300.412,3.00973
270,300.403,3.00949
279,300.39,3.00903
288,300.389,3.00936
297,300.376,3.00903
306,300.864,3.00936
315,302.9,3.01167
324,305.498,3.00981
333,308.273,3.00824
342,311.1,3.00805
351,313.934,3.00763
360,316.779,3.0072
369,319.649,3.00683
378,322.541,3.0065
387,325.455,3.00634
396,328.354,3.00604
405,331.276,3.00549
414,334.195,3.00548
423,337.126,3.00501
432,340.061,3.00482
441,342.986,3.00471
450,345.933,3.00458
459,348.877,3.00419
468,351.818,3.00435
477,354.769,3.00365
486,357.729,3.00353
495,360.683,3.00343
504,363.641,3.00315
513,366.613,3.00291
522,369.574,3.00283
531,372.545,3.00232
540,375.524,3.00194
549,378.496,3.00214
558,381.474,3.00173
567,384.454,3.00154
576,387.434,3.00118
585,390.436,3.00083
594,393.423,3.00045
603,396.406,3.00031
612,399.403,2.99993
621,402.415,2.9992
630,405.419,2.9984
639,408.427,2.99829
648,411.431,2.9971
657,414.458,2.99645
666,417.474,2.99547
675,420.489,2.99491
684,423.519,2.99366
693,426.536,2.9932
702,429.574,2.99246
711,432.606,2.99117
720,435.635,2.99031
729,438.667,2.98882
738,441.713,2.98796
747,444.747,2.98623
756,447.799,2.98499
765,450.848,2.98366
774,453.886,2.98199
783,456.929,2.97994
792,459.977,2.97711
801,463.031,2.97455
810,466.081,2.97221
819,469.136,2.9692
828,472.187,2.96658
837,475.232,2.96323
846,478.295,2.95963
855,481.353,2.95613
864,484.407,2.95215
873,487.466,2.94756
882,490.527,2.943
891,493.588,2.93836
900,496.648,2.93396
909,499.712,2.92955
918,502.772,2.92584
927,505.823,2.92297
936,508.883,2.92078
945,511.95,2.91913
954,515.002,2.91753
963,518.062,2.91635
972,521.124,2.91515
981,524.188,2.91331
990,527.243,2.91106
999,530.307,2.90966
1008,533.363,2.90716
1017,536.419,2.90449
1026,539.473,2.90194
1035,542.526,2.89832
1044,545.581,2.89423
1053,548.633,2.88954
1062,551.673,2.88482
1071,554.728,2.87862
1080,557.782,2.87141
1089,560.826,2.86407
1098,563.871,2.85466
1107,566.924,2.84505
1116,569.97,2.83392
1125,573.009,2.82148
1134,576.055,2.80806
1143,579.1,2.79362
1152,582.14,2.77817
1161,585.174,2.76138
1170,588.226,2.74268
1179,591.265,2.72134
1188,594.302,2.69698
1197,597.347,2.66975
1206,600.387,2.63785
1215,603.427,2.60074
1224,606.468,2.55819
1233,609.509,2.50986
1242,612.536,2.45397
1251,615.568,2.39041
1260,618.582,2.31762
1269,621.597,2.2362
1278,624.613,2.14565
1287,627.614,2.04458
1296,630.631,1.93464
1305,633.618,1.81643
1314,636.616,1.68995
1323,639.624,1.55602
1332,642.624,1.41831
1341,645.627,1.27572
1350,648.622,1.13321
1359,651.638,0.993143
1368,654.658,0.856216
1377,657.666,0.725864
1386,660.685,0.604803
1395,663.706,0.495308
1404,666.738,0.398551
1413,669.771,0.314812
1422,672.816,0.244446
1431,675.847,0.186285
1440,678.874,0.139461
1449,681.897,0.103084
1458,684.91,0.075509
1467,687.926,0.0545276
1476,690.924,0.0395259
1485,693.931,0.0284694
1494,696.929,0.0206332
1503,699.924,0.0153035
1512,702.917,0.0113408
1521,705.906,0.00869795
1530,708.902,0.00705283
1539,711.883,0.00583446
1548,714.876,0.00478235
1557,717.857,0.00442166
1566,720.846,0.00385154
1575,723.834,0.00385791
1584,726.809,0.00358374
1593,729.803,0.00346833
1602,732.785,0.00340886
1611,735.771,0.00338472
1620,738.757,0.00327732
1629,741.745,0.00346873
1638,744.731,0.00309137
1647,747.709,0.00296122
1656,750.695,0.00300882
1665,753.683,0.00282321
1674,756.661,0.00301586
1683,759.644,0.00309854
1692,762.628,0.0029258
1701,765.608,0.00265202
1710,768.602,0.00275389
1719,771.589,0.00255017
1728,774.569,0.00247116
1737,777.553,0.00250617
1746,780.46,0.00232959
1755,782.851,0.00259152
1764,784.799,0.00186844
1773,786.399,0.00192914
1782,787.758,0.00218024
1791,788.902,0.00197706
1800,789.878,0.00176193
1809,790.746,0.00196044
1818,791.465,0.00183092
1827,792.081,0.00194489
1836,792.614,0.00171714
1845,793.073,0.00195576
1854,793.461,0.00176093
1863,793.788,0.00151584
1872,794.075,0.00103983
1881,794.321,0.00125973
1890,794.532,0.0017344
1899,794.712,0.00196995
1908,794.863,0.001841
1917,794.998,0.00180861
1926,795.108,0.0010403
1935,795.206,0.00118041
1944,795.278,0.00119422
1953,795.36,0.00138489
1962,795.41,0.00100141
1971,795.473,0.000613438
1980,795.516,0.000655147
1989,795.553,0.00126014
1998,795.582,0.000394344
2007,795.61,0.000772443
2016,795.633,0.000541833
2025,795.651,0.000416052
2034,795.667,0.000652845
2043,795.677,0.000683187
2052,795.694,0.00081133
2061,795.699,0.000878535
2070,795.708,0.00042216
2079,795.72,0.000978946
2082,795.715,0.000995373