File: PMMA/Calibration_Data/LCPP/LCPP_TGA_N2_10K_2.csv
Time,Temperature,Mass
[s],[K],[mg]
0,301.192,2.94796
9,301.12,2.94788
18,301.051,2.94785
27,300.993,2.9481
36,300.948,2.94741
45,300.912,2.94736
54,300.854,2.94765
63,300.816,2.94725
72,300.783,2.94736
81,300.761,2.94701
90,300.713,2.9472
99,300.69,2.94731
108,300.653,2.94662
117,300.636,2.94648
126,300.613,2.94706
135,300.586,2.94666
144,300.559,2.94696
153,300.553,2.94714
162,300.523,2.94703
171,300.503,2.94697
180,300.482,2.94655
189,300.465,2.94642
198,300.471,2.94719
207,300.435,2.94637
216,300.429,2.94685
225,300.418,2.94636
234,300.403,2.94626
243,300.407,2.94609
252,300.381,2.94608
261,300.385,2.94599
270,300.369,2.94607
279,300.35,2.946
288,300.346,2.94599
297,300.345,2.94599
306,300.834,2.94631
315,302.863,2.94859
324,305.453,2.94655
333,308.223,2.94512
342,311.036,2.94499
351,313.88,2.94467
360,316.736,2.94432
369,319.589,2.9439
378,322.475,2.94367
387,325.372,2.94351
396,328.289,2.94301
405,331.201,2.94255
414,334.124,2.94222
423,337.051,2.94202
432,339.985,2.94221
441,342.925,2.94155
450,345.853,2.94157
459,348.793,2.94131
468,351.739,2.94099
477,354.697,2.94063
486,357.65,2.94054
495,360.597,2.94024
504,363.563,2.93999
513,366.524,2.93975
522,369.497,2.9396
531,372.459,2.93928
540,375.434,2.93927
549,378.414,2.93886
558,381.389,2.93896
567,384.359,2.9384
576,387.349,2.93804
585,390.331,2.93775
594,393.32,2.93743
603,396.318,2.93744
612,399.319,2.93675
621,402.328,2.93623
630,405.328,2.93573
639,408.339,2.93512
648,411.346,2.9346
657,414.364,2.93397
666,417.376,2.93323
675,420.402,2.9328
684,423.424,2.93197
693,426.451,2.93135
702,429.482,2.93064
711,432.513,2.92956
720,435.55,2.92895
729,438.585,2.92787
738,441.624,2.92656
747,444.673,2.92537
756,447.711,2.92396
765,450.755,2.92265
774,453.807,2.92098
783,456.859,2.91912
792,459.892,2.91697
801,462.942,2.91524
810,466.006,2.91232
819,469.061,2.90948
828,472.112,2.9069
837,475.166,2.90423
846,478.219,2.90075
855,481.278,2.89732
864,484.336,2.89355
873,487.405,2.88985
882,490.464,2.88579
891,493.523,2.88171
900,496.58,2.87803
909,499.641,2.87453
918,502.689,2.87113
927,505.76,2.86798
936,508.817,2.86571
945,511.886,2.8639
954,514.937,2.86268
963,517.998,2.86156
972,521.055,2.85969
981,524.115,2.8586
990,527.169,2.8567
999,530.227,2.85473
1008,533.301,2.85281
1017,536.348,2.84997
1026,539.402,2.84759
1035,542.464,2.84424
1044,545.512,2.84081
1053,548.553,2.83649
1062,551.611,2.83207
1071,554.671,2.82644
1080,557.711,2.81984
1089,560.77,2.813
1098,563.819,2.80457
1107,566.867,2.79547
1116,569.913,2.78519
1125,572.955,2.7734
1134,576.002,2.76059
1143,579.046,2.74654
1152,582.097,2.73138
1161,585.139,2.71525
1170,588.172,2.69695
1179,591.217,2.67549
1188,594.256,2.65171
1197,597.296,2.62486
1206,600.338,2.59283
1215,603.379,2.55595
1224,606.424,2.51404
1233,609.451,2.46533
1242,612.491,2.40962
1251,615.521,2.34695
1260,618.532,2.27439
1269,621.553,2.19337
1278,624.564,2.10361
1287,627.572,2.00432
1296,630.579,1.89656
1305,633.583,1.78025
1314,636.581,1.65609
1323,639.576,1.52514
1332,642.578,1.38901
1341,645.589,1.24955
1350,648.587,1.11077
1359,651.601,0.973315
1368,654.609,0.839831
1377,657.629,0.713517
1386,660.656,0.59758
1395,663.683,0.493511
1404,666.714,0.402528
1413,669.737,0.323729
1422,672.772,0.257772
1431,675.795,0.203176
1440,678.827,0.1595
1449,681.846,0.125839
1458,684.871,0.100516
1467,687.868,0.0814692
1476,690.883,0.0678449
1485,693.879,0.0580695
1494,696.877,0.0511816
1503,699.866,0.0462839
1512,702.865,0.0426707
1521,705.857,0.0401823
1530,708.842,0.039195
1539,711.829,0.0378291
1548,714.814,0.0367475
1557,717.802,0.0364995
1566,720.794,0.0361603
1575,723.778,0.0359892
1584,726.77,0.0358296
1593,729.76,0.0357801
1602,732.744,0.0355236
1611,735.738,0.0355646
1620,738.72,0.0352501
1629,741.71,0.0355473
1638,744.69,0.0357893
1647,747.676,0.0351254
1656,750.661,0.035101
1665,753.643,0.0352976
1674,756.634,0.0350143
1683,759.616,0.0349353
1692,762.604,0.034868
1701,765.59,0.0347752
1710,768.569,0.0349621
1719,771.558,0.0346095
1728,774.549,0.0343967
1737,777.538,0.0341643
1746,780.444,0.0348497
1755,782.834,0.034431
1764,784.785,0.0338554
1773,786.402,0.0337045
1782,787.756,0.0341984
1791,788.911,0.0339266
1800,789.894,0.034186
1809,790.753,0.0339861
1818,791.471,0.0341685
1827,792.092,0.0339759
1836,792.629,0.0341277
1845,793.09,0.0340728
1854,793.471,0.0339903
1863,793.81,0.0339895
1872,794.094,0.033487
1881,794.339,0.0338325
1890,794.548,0.0337723
1899,794.73,0.0340862
1908,794.886,0.0339909
1917,795.011,0.034319
1926,795.124,0.0341108
1935,795.223,0.0339925
1944,795.308,0.0339896
1953,795.377,0.0339895
1962,795.433,0.0338747
1971,795.489,0.0335181
1980,795.522,0.0334731
1989,795.563,0.0336185
1998,795.6,0.032922
2007,795.629,0.0334994
2016,795.649,0.0330876
2025,795.677,0.0329931
2034,795.686,0.0329913
2043,795.701,0.0329912
2052,795.715,0.0329912
2061,795.725,0.0328728
2070,795.729,0.0326931
2079,795.737,0.0329737
2088,795.733,0.0330627
2097,795.736,0.0330639
2100,795.74,0.0329912