File: PMMA/Calibration_Data/LCPP/LCPP_TGA_N2_5K_2.csv
Time,Temperature,Mass
[s],[K],[mg]
0,301.208,3.0349
25,301.037,3.03478
50,300.896,3.03446
75,300.795,3.03411
100,300.705,3.03411
125,300.643,3.03441
150,300.581,3.03499
175,300.53,3.03499
200,300.487,3.03499
225,300.454,3.03411
250,300.435,3.034
275,300.404,3.034
300,300.363,3.03287
325,301.262,3.03467
350,302.889,3.03405
375,304.671,3.03381
400,306.578,3.03368
425,308.561,3.03337
450,310.583,3.03321
475,312.6,3.03286
500,314.607,3.03282
525,316.641,3.03253
550,318.624,3.03228
575,320.633,3.03224
600,322.614,3.03198
625,324.598,3.03169
650,326.578,3.03156
675,328.57,3.0314
700,330.536,3.03126
725,332.53,3.03095
750,334.5,3.03068
775,336.476,3.03064
800,338.467,3.03076
825,340.442,3.0303
850,342.425,3.03011
875,344.417,3.03007
900,346.396,3.02961
925,348.4,3.02966
950,350.379,3.02944
975,352.381,3.02942
1000,354.376,3.0295
1025,356.39,3.02926
1050,358.391,3.02913
1075,360.401,3.02909
1100,362.401,3.02868
1125,364.429,3.02874
1150,366.448,3.02857
1175,368.47,3.02841
1200,370.491,3.02843
1225,372.498,3.02814
1250,374.543,3.0281
1275,376.571,3.02791
1300,378.605,3.02793
1325,380.65,3.02755
1350,382.677,3.02735
1375,384.712,3.02673
1400,386.748,3.02678
1425,388.808,3.02625
1450,390.846,3.02575
1475,392.905,3.02559
1500,394.946,3.02524
1525,396.999,3.02492
1550,399.048,3.02475
1575,401.11,3.02411
1600,403.174,3.02363
1625,405.236,3.02337
1650,407.296,3.02291
1675,409.361,3.02228
1700,411.438,3.02183
1725,413.502,3.02105
1750,415.591,3.02026
1775,417.661,3.01977
1800,419.722,3.01905
1825,421.807,3.01832
1850,423.886,3.01729
1875,425.966,3.01702
1900,428.033,3.01615
1925,430.106,3.01525
1950,432.2,3.01487
1975,434.283,3.01343
2000,436.365,3.01358
2025,438.45,3.01197
2050,440.535,3.01092
2075,442.619,3.01014
2100,444.707,3.00894
2125,446.799,3.00798
2150,448.884,3.00681
2175,450.979,3.00549
2200,453.062,3.00375
2225,455.163,3.00217
2250,457.245,3.001
2275,459.338,2.99999
2300,461.436,2.99786
2325,463.526,2.99655
2350,465.624,2.9946
2375,467.709,2.9927
2400,469.806,2.99067
2425,471.905,2.9887
2450,473.998,2.9865
2475,476.099,2.98362
2500,478.19,2.98154
2525,480.289,2.97968
2550,482.395,2.97867
2575,484.494,2.97669
2600,486.604,2.97581
2625,488.705,2.97485
2650,490.8,2.97411
2675,492.899,2.97326
2700,494.999,2.9724
2725,497.099,2.97147
2750,499.2,2.97052
2775,501.304,2.96965
2800,503.395,2.96943
2825,505.497,2.9689
2850,507.597,2.9679
2875,509.695,2.96706
2900,511.798,2.9662
2925,513.892,2.96435
2950,516,2.96289
2975,518.101,2.96123
3000,520.21,2.95952
3025,522.309,2.95802
3050,524.414,2.95515
3075,526.521,2.9529
3100,528.626,2.95024
3125,530.73,2.9475
3150,532.826,2.94398
3175,534.919,2.94026
3200,537.033,2.93642
3225,539.127,2.93171
3250,541.234,2.92663
3275,543.328,2.9211
3300,545.441,2.91464
3325,547.541,2.90788
3350,549.635,2.90049
3375,551.738,2.89208
3400,553.842,2.88271
3425,555.941,2.87283
3450,558.043,2.86243
3475,560.151,2.85094
3500,562.253,2.83826
3525,564.351,2.82478
3550,566.46,2.81022
3575,568.558,2.79451
3600,570.669,2.77773
3625,572.776,2.75899
3650,574.871,2.73887
3675,576.972,2.7172
3700,579.082,2.69252
3725,581.183,2.66609
3750,583.293,2.6368
3775,585.399,2.6049
3800,587.511,2.5702
3825,589.607,2.53197
3850,591.709,2.49077
3875,593.834,2.44612
3900,595.932,2.39777
3925,598.046,2.34526
3950,600.148,2.28932
3975,602.26,2.22956
4000,604.362,2.16541
4025,606.47,2.09707
4050,608.578,2.0251
4075,610.695,1.94888
4100,612.785,1.86895
4125,614.891,1.78547
4150,617.003,1.69844
4175,619.108,1.6075
4200,621.217,1.51404
4225,623.314,1.41911
4250,625.42,1.32295
4275,627.516,1.22538
4300,629.607,1.12796
4325,631.707,1.03238
4350,633.805,0.938374
4375,635.896,0.847893
4400,637.988,0.761453
4425,640.074,0.679674
4450,642.159,0.603252
4475,644.238,0.532201
4500,646.311,0.467488
4525,648.385,0.409429
4550,650.459,0.357927
4575,652.53,0.312827
4600,654.605,0.273869
4625,656.677,0.240074
4650,658.752,0.211344
4675,660.824,0.187546
4700,662.9,0.168126
4725,664.972,0.152429
4750,667.043,0.139683
4775,669.122,0.12949
4800,671.195,0.121117
4825,673.278,0.114726
4850,675.363,0.109434
4875,677.444,0.105431
4900,679.524,0.1021
4925,681.619,0.100022
4950,683.711,0.0980112
4975,685.792,0.0963974
5000,687.878,0.0949038
5025,689.957,0.0939013
5050,692.047,0.093885
5075,694.127,0.0933449
5100,696.218,0.0927355
5125,698.301,0.0929121
5150,700.397,0.0930011
5175,702.478,0.0929568
5200,704.574,0.0929823
5225,706.659,0.0928104
5250,708.743,0.0924243
5275,710.827,0.0920322
5300,712.919,0.0920302
5325,714.995,0.0920736
5350,717.086,0.0921241
5375,719.166,0.092126
5400,721.248,0.0919093
5425,723.334,0.0916605
5450,725.413,0.091426
5475,727.505,0.0917074
5500,729.581,0.0917278
5525,731.672,0.0920984
5550,733.756,0.0918957
5575,735.84,0.0918471
5600,737.918,0.0913136
5625,740.003,0.0911708
5650,742.089,0.0915827
5675,744.171,0.0918483
5700,746.259,0.0918533
5725,748.338,0.091014
5750,750.414,0.0908998
5775,752.497,0.0910535
5800,754.573,0.0914632
5825,756.66,0.0917991
5850,758.739,0.0910114
5875,760.821,0.0910937
5900,762.904,0.0910648
5925,764.987,0.0913033
5950,767.07,0.0908958
5975,769.146,0.0910035
6000,771.228,0.0908002
6025,773.319,0.0901309
6050,775.391,0.0908694
6075,777.479,0.0907937
6100,779.556,0.0907373
6125,781.632,0.09034
6150,783.726,0.090494
6175,785.805,0.0904785
6200,787.896,0.0907538
6225,789.98,0.0900065
6250,791.995,0.0907838
6275,793.326,0.090278
6300,794.118,0.090003
6325,794.645,0.0894591
6350,794.979,0.0899136
6375,795.194,0.0899136
6400,795.335,0.0897085
6425,795.424,0.0899134
6450,795.481,0.0898694
6475,795.52,0.0900607
6500,795.554,0.0902898
6525,795.559,0.089915
6550,795.585,0.0899136
6575,795.588,0.0899592
6600,795.584,0.0897722