File: PMMA/Calibration_Data/LCPP/LCPP_TGA_N2_15K_1.csv
Time,Temperature,Mass
[s],[K],[mg]
0,301.279,3.04276
9,301.228,3.04274
18,301.168,3.04258
27,301.096,3.04245
36,301.039,3.04221
45,300.987,3.04223
54,300.921,3.04231
63,300.879,3.04221
72,300.843,3.042
81,300.813,3.04173
90,300.769,3.042
99,300.751,3.042
108,300.719,3.04195
117,300.686,3.04187
126,300.668,3.04183
135,300.639,3.04168
144,300.621,3.04163
153,300.601,3.04193
162,300.583,3.04151
171,300.564,3.04167
180,300.541,3.04135
189,300.522,3.041
198,300.506,3.041
207,300.483,3.041
216,300.474,3.04161
225,300.474,3.04102
234,300.448,3.041
243,300.439,3.041
252,300.434,3.041
261,300.421,3.041
270,300.42,3.041
279,300.405,3.041
288,300.385,3.041
297,300.376,3.04061
306,300.712,3.04023
315,302.148,3.04252
324,303.983,3.04092
333,305.958,3.04012
342,307.997,3.03976
351,310.078,3.03931
360,312.149,3.03918
369,314.246,3.03879
378,316.372,3.03878
387,318.492,3.03853
396,320.646,3.03837
405,322.805,3.03812
414,324.986,3.03786
423,327.155,3.03751
432,329.34,3.03738
441,331.524,3.03726
450,333.704,3.03716
459,335.897,3.03698
468,338.088,3.03697
477,340.286,3.03666
486,342.484,3.03646
495,344.674,3.03629
504,346.878,3.03627
513,349.058,3.03625
522,351.269,3.03599
531,353.474,3.03585
540,355.681,3.03585
549,357.885,3.03556
558,360.089,3.03547
567,362.294,3.0352
576,364.493,3.03508
585,366.715,3.03501
594,368.942,3.0346
603,371.149,3.03461
612,373.363,3.03436
621,375.588,3.03415
630,377.81,3.03419
639,380.038,3.03377
648,382.262,3.03358
657,384.486,3.03353
666,386.709,3.03303
675,388.939,3.03293
684,391.175,3.03286
693,393.41,3.03238
702,395.644,3.03214
711,397.885,3.03169
720,400.125,3.03152
729,402.374,3.03111
738,404.624,3.03095
747,406.871,3.03059
756,409.116,3.03012
765,411.364,3.02962
774,413.626,3.0291
783,415.88,3.02841
792,418.132,3.02805
801,420.388,3.02731
810,422.65,3.0268
819,424.923,3.02608
828,427.173,3.02528
837,429.448,3.0247
846,431.713,3.02394
855,433.979,3.02344
864,436.251,3.02245
873,438.515,3.02152
882,440.793,3.02017
891,443.07,3.01971
900,445.351,3.01855
909,447.622,3.01711
918,449.899,3.01608
927,452.177,3.01449
936,454.451,3.01273
945,456.734,3.01106
954,459.012,3.00942
963,461.295,3.00794
972,463.576,3.00556
981,465.858,3.00369
990,468.135,3.00162
999,470.425,2.99955
1008,472.709,2.99716
1017,474.99,2.99454
1026,477.278,2.99203
1035,479.566,2.98925
1044,481.85,2.98619
1053,484.138,2.98322
1062,486.417,2.97997
1071,488.705,2.97681
1080,490.988,2.97329
1089,493.278,2.97039
1098,495.563,2.96739
1107,497.858,2.96488
1116,500.13,2.96258
1125,502.422,2.96075
1134,504.715,2.95911
1143,506.997,2.95759
1152,509.292,2.95667
1161,511.579,2.95547
1170,513.874,2.95478
1179,516.156,2.95348
1188,518.446,2.95218
1197,520.728,2.95129
1206,523.011,2.94976
1215,525.305,2.94883
1224,527.583,2.94741
1233,529.873,2.94527
1242,532.157,2.94327
1251,534.439,2.9413
1260,536.724,2.9388
1269,539.008,2.93619
1278,541.29,2.9334
1287,543.568,2.9298
1296,545.848,2.92646
1305,548.129,2.92239
1314,550.415,2.91805
1323,552.7,2.91324
1332,554.988,2.90746
1341,557.261,2.90185
1350,559.542,2.89481
1359,561.828,2.88763
1368,564.109,2.87935
1377,566.384,2.87062
1386,568.674,2.86123
1395,570.947,2.85098
1404,573.233,2.84018
1413,575.511,2.82887
1422,577.786,2.81654
1431,580.069,2.80331
1440,582.339,2.78911
1449,584.623,2.77404
1458,586.892,2.75731
1467,589.177,2.73901
1476,591.458,2.71875
1485,593.733,2.69618
1494,596.013,2.67108
1503,598.285,2.64325
1512,600.57,2.61238
1521,602.847,2.57818
1530,605.131,2.5402
1539,607.42,2.49831
1548,609.693,2.45189
1557,611.982,2.40075
1566,614.249,2.34497
1575,616.519,2.28361
1584,618.784,2.21719
1593,621.047,2.14548
1602,623.301,2.06864
1611,625.568,1.98662
1620,627.817,1.89955
1629,630.068,1.80747
1638,632.32,1.71078
1647,634.573,1.61038
1656,636.836,1.50682
1665,639.083,1.40082
1674,641.344,1.29325
1683,643.592,1.18471
1692,645.851,1.0772
1701,648.117,0.970867
1710,650.389,0.86756
1719,652.647,0.76862
1728,654.916,0.673293
1737,657.184,0.584717
1746,659.454,0.503274
1755,661.722,0.428944
1764,663.994,0.362527
1773,666.265,0.303197
1782,668.54,0.250789
1791,670.814,0.20556
1800,673.079,0.167103
1809,675.345,0.134728
1818,677.6,0.108239
1827,679.849,0.0864909
1836,682.1,0.0693058
1845,684.338,0.0554016
1854,686.585,0.0446721
1863,688.828,0.0361931
1872,691.069,0.0295238
1881,693.31,0.024404
1890,695.546,0.020756
1899,697.794,0.0177417
1908,700.027,0.0156042
1917,702.271,0.0139205
1926,704.507,0.0125745
1935,706.754,0.0112548
1944,708.987,0.0100445
1953,711.234,0.0100985
1962,713.48,0.00990248
1971,715.717,0.0096117
1980,717.958,0.00930552
1989,720.198,0.00923025
1998,722.442,0.00895357
2007,724.687,0.00884267
2016,726.938,0.008705
2025,729.17,0.00879416
2034,731.419,0.00884291
2043,733.66,0.00857864
2052,735.899,0.00846379
2061,738.152,0.00836387
2070,740.379,0.00832141
2079,742.628,0.0082791
2088,744.87,0.00829238
2097,747.109,0.0084946
2106,749.349,0.00814583
2115,751.598,0.00812688
2124,753.83,0.00814271
2133,756.074,0.00827513
2142,758.315,0.00765703
2151,760.554,0.00769065
2160,762.795,0.0077901
2169,765.04,0.00746132
2178,767.271,0.00740029
2187,769.515,0.00757848
2196,771.754,0.00758464
2205,774.002,0.00722157
2214,776.247,0.00733968
2223,778.488,0.00762465
2232,780.729,0.00745647
2241,782.974,0.00734613
2250,785.002,0.0074259
2259,786.642,0.00705924
2268,788.001,0.00723991
2277,789.129,0.00716446
2286,790.073,0.00701649
2295,790.888,0.0069724
2304,791.598,0.00650006
2313,792.19,0.00683078
2322,792.69,0.00656771
2331,793.128,0.00603015
2340,793.5,0.00604743
2349,793.816,0.00637901
2358,794.094,0.00614776
2367,794.33,0.00610995
2376,794.529,0.00610948
2385,794.705,0.00610948
2394,794.858,0.00602867
2403,794.982,0.00598334
2412,795.093,0.00587143
2421,795.179,0.00559532
2430,795.257,0.00539889
2439,795.324,0.00550771
2448,795.383,0.00546486
2457,795.431,0.00521277
2466,795.475,0.00510217
2475,795.511,0.00509637
2484,795.538,0.0050962
2493,795.568,0.0050962
2502,795.583,0.0050962
2511,795.597,0.00521029
2520,795.623,0.00536796
2529,795.636,0.00537672
2538,795.645,0.00568306
2547,795.663,0.00598563
2556,795.663,0.00610378
2565,795.673,0.00606297
2574,795.684,0.00610861
2583,795.691,0.00610948
2592,795.696,0.00610948
2598,795.688,0.00610948