File: PMMA/Calibration_Data/LCPP/LCPP_TGA_N2_2-5K_2.csv
Time,Temperature,Mass
[s],[K],[mg]
0,301.319,3.12678
50,300.979,3.12646
100,300.767,3.12604
150,300.623,3.12631
200,300.52,3.12519
250,300.439,3.12545
300,300.398,3.12514
350,301.517,3.12552
400,303.366,3.12516
450,305.368,3.12445
500,307.389,3.12425
550,309.36,3.12405
600,311.316,3.12367
650,313.288,3.12344
700,315.237,3.12303
750,317.19,3.12259
800,319.12,3.12219
850,321.064,3.12221
900,323.03,3.12198
950,324.969,3.12151
1000,326.919,3.12138
1050,328.88,3.12136
1100,330.821,3.12128
1150,332.768,3.121
1200,334.735,3.12076
1250,336.693,3.12079
1300,338.655,3.12041
1350,340.646,3.12052
1400,342.607,3.12049
1450,344.579,3.12031
1500,346.557,3.12026
1550,348.538,3.12025
1600,350.534,3.12037
1650,352.509,3.11995
1700,354.514,3.11989
1750,356.504,3.1197
1800,358.489,3.11917
1850,360.506,3.11919
1900,362.509,3.11881
1950,364.513,3.11861
2000,366.523,3.11853
2050,368.543,3.11814
2100,370.554,3.11781
2150,372.585,3.11785
2200,374.595,3.11754
2250,376.626,3.11718
2300,378.655,3.11688
2350,380.685,3.11653
2400,382.72,3.11641
2450,384.753,3.1161
2500,386.795,3.11532
2550,388.835,3.11487
2600,390.873,3.11437
2650,392.913,3.11425
2700,394.955,3.11394
2750,397.006,3.11312
2800,399.048,3.11289
2850,401.116,3.11205
2900,403.171,3.11111
2950,405.229,3.11025
3000,407.284,3.11003
3050,409.345,3.10903
3100,411.404,3.10828
3150,413.465,3.1075
3200,415.52,3.107
3250,417.588,3.10604
3300,419.655,3.10523
3350,421.72,3.10425
3400,423.782,3.10306
3450,425.863,3.10201
3500,427.944,3.10123
3550,430.017,3.10071
3600,432.088,3.09895
3650,434.16,3.09873
3700,436.233,3.09711
3750,438.317,3.09609
3800,440.392,3.09512
3850,442.466,3.09394
3900,444.556,3.09219
3950,446.634,3.09124
4000,448.727,3.08954
4050,450.804,3.08882
4100,452.894,3.08712
4150,454.981,3.08536
4200,457.071,3.08403
4250,459.161,3.082
4300,461.248,3.08088
4350,463.344,3.07849
4400,465.43,3.07607
4450,467.526,3.07505
4500,469.608,3.07302
4550,471.704,3.07194
4600,473.787,3.07001
4650,475.887,3.06874
4700,477.978,3.06822
4750,480.065,3.06721
4800,482.157,3.06674
4850,484.262,3.06597
4900,486.346,3.06509
4950,488.437,3.06493
5000,490.543,3.06421
5050,492.627,3.06312
5100,494.72,3.062
5150,496.828,3.06123
5200,498.916,3.0602
5250,501.01,3.05942
5300,503.117,3.05751
5350,505.201,3.05592
5400,507.302,3.05392
5450,509.398,3.05198
5500,511.49,3.05
5550,513.593,3.0471
5600,515.687,3.04502
5650,517.784,3.04202
5700,519.88,3.039
5750,521.976,3.03514
5800,524.071,3.03106
5850,526.173,3.02724
5900,528.275,3.02301
5950,530.36,3.01715
6000,532.466,3.01126
6050,534.563,3.00512
6100,536.67,2.99729
6150,538.768,2.98946
6200,540.873,2.98082
6250,542.959,2.9708
6300,545.06,2.96043
6350,547.15,2.94811
6400,549.253,2.93533
6450,551.349,2.92181
6500,553.455,2.90636
6550,555.553,2.89078
6600,557.65,2.873
6650,559.742,2.85465
6700,561.846,2.83382
6750,563.953,2.81213
6800,566.049,2.78766
6850,568.155,2.76138
6900,570.259,2.7329
6950,572.356,2.70191
7000,574.453,2.66814
7050,576.554,2.63119
7100,578.655,2.59158
7150,580.763,2.54857
7200,582.867,2.50213
7250,584.963,2.45251
7300,587.048,2.39898
7350,589.164,2.34252
7400,591.248,2.28209
7450,593.356,2.21768
7500,595.451,2.14979
7550,597.54,2.07767
7600,599.65,2.0019
7650,601.755,1.92315
7700,603.851,1.84018
7750,605.951,1.75354
7800,608.052,1.66405
7850,610.147,1.57193
7900,612.25,1.47724
7950,614.346,1.38108
8000,616.456,1.2833
8050,618.535,1.18277
8100,620.63,1.08421
8150,622.719,0.98691
8200,624.814,0.891637
8250,626.913,0.798596
8300,628.992,0.709989
8350,631.086,0.625372
8400,633.168,0.545491
8450,635.26,0.470276
8500,637.343,0.401626
8550,639.424,0.340074
8600,641.519,0.285863
8650,643.605,0.238434
8700,645.68,0.197022
8750,647.773,0.160899
8800,649.86,0.130978
8850,651.952,0.106328
8900,654.035,0.0860607
8950,656.123,0.0693297
9000,658.22,0.0558998
9050,660.299,0.0450535
9100,662.392,0.0359872
9150,664.485,0.0289805
9200,666.576,0.0232128
9250,668.667,0.0190764
9300,670.752,0.0160054
9350,672.839,0.0130932
9400,674.92,0.0110182
9450,677.028,0.00999869
9500,679.111,0.00900033
9550,681.202,0.00793721
9600,683.293,0.00783017
9650,685.386,0.00794896
9700,687.479,0.00785058
9750,689.567,0.00733906
9800,691.648,0.00662941
9850,693.735,0.00682983
9900,695.826,0.00671614
9950,697.899,0.00654622
10000,699.997,0.00666687
10050,702.083,0.00582517
10100,704.17,0.00641102
10150,706.26,0.00564535
10200,708.339,0.00598856
10250,710.433,0.00600517
10300,712.524,0.00600516
10350,714.607,0.00609379
10400,716.699,0.00599216
10450,718.784,0.00506955
10500,720.869,0.00499193
10550,722.951,0.0049919
10600,725.035,0.00499185
10650,727.129,0.004937
10700,729.207,0.00406746
10750,731.296,0.00401208
10800,733.382,0.00413979
10850,735.474,0.00390448
10900,737.553,0.00435872
10950,739.636,0.00408767
11000,741.713,0.00409782
11050,743.804,0.00399351
11100,745.899,0.00399354
11150,747.984,0.00399362
11200,750.067,0.00390564
11250,752.148,0.00332301
11300,754.231,0.00351658
11350,756.321,0.00357041
11400,758.399,0.0039782
11450,760.469,0.0031071
11500,762.555,0.00301503
11550,764.643,0.00299946
11600,766.731,0.00294883
11650,768.81,0.00378819
11700,770.898,0.00343732
11750,772.98,0.00299514
11800,775.063,0.00299599
11850,777.153,0.00301332
11900,779.25,0.00307965
11950,781.328,0.00276913
12000,783.428,0.00288996
12050,785.508,0.00249281
12100,787.59,0.00199682
12150,789.673,0.00204342
12200,791.764,0.00293839
12250,793.816,0.00299511
12300,794.88,0.00265332
12350,795.307,0.00201764
12400,795.475,0.00199676
12450,795.562,0.00199676
12500,795.584,0.00199676
12550,795.599,0.00199676
12600,795.604,0.00199676