File: Non-charring/PMMA/DBI-Lund/DBI-Lund_Gasification_25kW_2.csv
Time,Mass
[s],[g]
0,73.8
5,73.86313
10,73.9807
15,73.8947
20,73.9169
25,73.7062
30,73.9047
35,73.8819
40,73.7301
45,73.8132
50,73.70085
55,73.9036
60,73.7543
65,73.6257
70,73.8055
75,73.51817
80,73.7233
85,73.5948
90,73.6176
95,73.6629
100,73.53658
105,73.6424
110,73.5921
115,73.5044
120,73.594
125,73.2717
130,73.2408
135,73.3005
140,73.1378
145,73.1803
150,73.0621
155,72.8431
160,72.7932
165,72.52611
170,72.5393
175,72.2116
180,72.0977
185,72.0005
190,71.6064
195,71.5534
200,71.2835
205,71.1964
210,70.8679
215,70.8735
220,70.43265
225,70.2828
230,69.87063
235,69.814
240,69.5234
245,69.2594
250,68.8284
255,68.6304
260,68.3571
265,68.2307
270,67.8084
275,67.51299
280,67.2814
285,66.6979
290,66.5497
295,66.2538
300,65.8796
305,65.5356
310,65.448
315,64.949
320,64.5885
325,64.229
330,64.0358
335,63.636
340,63.3103
345,62.7124
350,62.6042
355,62.20073
360,61.8553
365,61.3529
370,60.9635
375,60.5659
380,60.1715
385,59.757
390,59.4073
395,59.0137
400,58.6455
405,58.0996
410,57.7683
415,57.33726
420,56.8661
425,56.4725
430,55.86831
435,55.6065
440,55.0584
445,54.6549
450,54.1725
455,53.7151
460,53.2833
465,52.7454
470,52.3238
475,51.7571
480,51.34542
485,50.7996
490,50.4813
495,49.8267
500,49.32181
505,48.9955
510,48.39726
515,48.0201
520,47.4608
525,46.8924
530,46.3094
535,45.93837
540,45.4306
545,44.8792
550,44.137
555,43.926
560,43.1649
565,42.9306
570,42.3324
575,41.6584
580,41.2699
585,40.63995
590,40.2369
595,39.6668
600,39.0758
605,38.5337
610,38.0321
615,37.4752
620,37.0373
625,36.4953
630,35.8502
635,35.3838
640,34.779
645,34.139
650,33.7826
655,33.1378
660,32.5713
665,32.0435
670,31.6475
675,31.00053
680,30.5979
685,29.9872
690,29.3539
695,28.7722
700,28.3143
705,27.5561
710,27.1022
715,26.4496
720,25.8954
725,25.39836
730,24.7976
735,24.2315
740,23.64848
745,23.0174
750,22.4881
755,21.9722
760,21.3862
765,21.0446
770,20.1562
775,19.80354
780,19.0638
785,18.6265
790,18.091
795,17.4796
800,16.8595
805,16.3116
810,15.7027
815,15.3481
820,14.853
825,14.4588
830,13.9504
835,13.3737
840,13.0715
845,12.7677
850,12.4505
855,12.0897
860,11.6335
865,11.17539
870,11.0904
875,10.7078
880,10.4775
885,10.0944
890,9.920587
895,9.414774
900,9.127592
905,9.113973
910,8.697397
915,8.521082
920,8.254599
925,7.83314
930,7.816291
935,7.513828
940,7.107216
945,7.048937
950,6.888292
955,6.66251
960,6.292401
965,6.141026
970,6.071533
975,5.691028
980,5.597079
985,5.585928
990,5.199428
995,5.172895
1000,5.095445
1005,4.69772
1010,4.681833
1015,4.614552
1020,4.367967
1025,4.301795
1030,3.926771
1035,4.07669
1040,3.842047
1045,3.685248
1050,3.500765
1055,3.278837
1060,3.303833
1065,3.062422
1070,3.174266
1075,2.958337
1080,2.95436
1085,2.647849
1090,2.618468
1095,2.563766
1100,2.343869
1105,2.36362
1110,2.224953
1115,2.158493
1120,2.19601
1125,1.921477
1130,1.959242
1135,1.834119
1140,1.654669
1145,1.791609
1150,1.628016
1155,1.657433
1160,1.459035
1165,1.54097
1170,1.349374
1175,1.461359
1180,1.398598
1185,1.150862
1190,1.228137
1195,1.090658
1200,1.026689
1205,0.921943
1210,0.856261
1215,0.946367
1220,0.878476
1225,0.992803
1230,0.849521
1235,0.755655
1240,0.566568
1245,0.735333
1250,0.639208
1255,0.595098
1260,0.512656
1265,0.708487
1270,0.53071
1275,0.442709
1280,0.471606
1285,0.430345
1290,0.452141
1295,0.538935
1300,0.445704
1305,0.260399
1310,0.463165
1315,0.300675
1320,0.332127
1325,0.224405
1330,0.138545
1335,0.265379
1339,0.249818