File: Non-charring/PMMA/DBI-Lund/DBI-Lund_Gasification_25kW_1.csv
Time,Mass
[s],[g]
0,69.1
5,69.136
10,69.2002
15,69.1512
20,69.11565
25,69.1723
30,68.9555
35,69.0178
40,69.1496
45,68.9513
50,69.0184
55,69.0051
60,68.8764
65,68.7671
70,68.9217
75,68.96127
80,68.8663
85,69.06161
90,68.8737
95,69.0508
100,68.87044
105,68.7394
110,68.8122
115,68.7145
120,68.7444
125,68.7354
130,68.6817
135,68.6562
140,68.54304
145,68.3417
150,68.4063
155,68.1867
160,68.1205
165,68.23277
170,67.7804
175,67.8181
180,67.6031
185,67.2533
190,67.3026
195,67.1023
200,66.87227
205,66.71773
210,66.4386
215,66.4459
220,65.9783
225,65.882
230,65.659
235,65.3222
240,65.1027
245,64.8475
250,64.4496
255,64.4751
260,64.1118
265,63.6002
270,63.56524
275,63.2548
280,62.8079
285,62.44356
290,62.252
295,61.9565
300,61.5931
305,61.1703
310,60.9087
315,60.441
320,60.4698
325,60.0457
330,59.6139
335,59.2727
340,58.9845
345,58.5729
350,58.21683
355,57.9497
360,57.4063
365,57.0147
370,56.6999
375,56.3018
380,55.9112
385,55.449
390,54.9825
395,54.55366
400,54.13986
405,53.8055
410,53.3302
415,52.8327
420,52.4885
425,51.8729
430,51.51616
435,51.05
440,50.7915
445,50.2623
450,49.83011
455,49.4381
460,48.9083
465,48.5218
470,48.1422
475,47.3865
480,47.05024
485,46.3574
490,46.1761
495,45.7672
500,45.1324
505,44.8257
510,44.22631
515,43.6199
520,43.1405
525,42.8708
530,42.3323
535,41.7378
540,41.3919
545,40.6507
550,40.0783
555,39.751
560,39.3064
565,38.6462
570,38.1677
575,37.6213
580,37.1957
585,36.6233
590,36.291
595,35.7565
600,35.0768
605,34.6952
610,34.034
615,33.6273
620,32.9584
625,32.6457
630,31.9474
635,31.4717
640,30.8682
645,30.29
650,29.8704
655,29.1921
660,28.6611
665,28.1393
670,27.5471
675,27.07
680,26.4203
685,25.8342
690,25.4738
695,24.8048
700,24.429
705,23.865
710,23.2686
715,22.8704
720,22.2975
725,21.6335
730,21.0156
735,20.3682
740,19.842
745,19.448
750,18.87299
755,18.4464
760,17.7425
765,17.2729
770,16.9112
775,16.3688
780,15.6164
785,15.4025
790,14.7376
795,14.5206
800,14.123
805,13.7565
810,13.3019
815,12.90177
820,12.7676
825,12.276
830,12.0677
835,11.5675
840,11.4089
845,11.0617
850,10.81752
855,10.5325
860,10.1884
865,9.931582
870,9.710775
875,9.33877
880,9.095265
885,9.012908
890,8.784714
895,8.633519
900,8.267135
905,8.111146
910,7.798265
915,7.726479
920,7.522675
925,7.373295
930,7.072459
935,7.117839
940,6.864698
945,6.744091
950,6.458813
955,6.40727
960,6.19607
965,6.059214
970,5.770681
975,5.547164
980,5.544186
985,5.236629
990,5.139884
995,5.006422
1000,4.704224
1005,4.641811
1010,4.648737
1015,4.438927
1020,4.418077
1025,4.180332
1030,4.157661
1035,3.987323
1040,3.912325
1045,3.804403
1050,3.654907
1055,3.426622
1060,3.401853
1065,3.382935
1070,3.199986
1075,3.157103
1080,3.039581
1085,3.009195
1090,2.920586
1095,2.79029
1100,2.515624
1105,2.539775
1110,2.292948
1115,2.282578
1120,2.301512
1125,2.33293
1130,2.210976
1135,2.019812
1140,2.029424
1145,2.113395
1150,1.851026
1155,1.816714
1160,1.73883
1165,1.753091
1170,1.771484
1175,1.62713
1180,1.59635
1185,1.61137
1190,1.348771
1195,1.321252
1200,1.365348
1205,1.10174
1210,1.220465
1215,0.977586
1220,1.204799
1225,1.176532
1230,1.057779
1235,1.12931
1240,0.987112
1245,0.807941
1250,0.928178
1255,0.843159
1260,0.805518
1265,0.694215
1270,0.708041
1275,0.701484
1280,0.539759
1285,0.548255
1290,0.610997
1295,0.590498
1300,0.56301
1305,0.494261
1310,0.433293
1315,0.50655
1320,0.397148
1325,0.435789
1330,0.474534
1335,0.383413
1340,0.329996
1345,0.197579
1350,0.366437
1355,0.086646
1360,0.071138
1365,0.153264
1370,0.185299
1375,0.051334
1380,0.029428
1385,0.001533
1390,-0.064872
1395,-0.068849
1400,-0.053085
1405,-0.131973
1410,-0.228084
1415,-0.105205
1420,-0.164963
1425,-0.058867
1430,-0.175379
1435,-0.120214
1440,-0.218547
1445,-0.39078
1450,-0.134838
1455,-0.281728
1460,-0.263739
1465,-0.190512
1470,-0.343178
1473,-0.383643