File: Non-charring/PMMA/DBI-Lund/DBI-Lund_DSC_N2_20K_3.csv
Time,Temperature,Heat Flow
[s],[K],[W/g]
0,298.33,-1.44E-02
10.0002,298.3747,-1.34E-02
19.9998,298.6668,-3.90E-03
30,299.5878,3.28E-02
40.0002,301.3823,9.99E-02
49.9998,304.087,0.1896
60,307.529,0.28545
70.0002,311.515,0.37366
79.9998,315.824,0.44487
90,320.259,0.49138
100.0002,324.673,0.51857
109.9998,328.99,0.53134
120,333.1669,0.5334
130.0002,337.201,0.52578
139.9998,341.112,0.51633
150,344.893,0.50807
160.0002,348.59,0.49973
169.9998,352.218,0.49553
180,355.813,0.48998
190.0002,359.389,0.48103
199.9998,362.972,0.4663
210,366.5381,0.4556
220.0002,370.11,0.44734
229.9998,373.671,0.44185
240,377.208,0.43781
250.0002,380.712,0.43715
259.9998,384.182,0.43662
270,387.6141,0.43503
280.0002,391.03,0.44349
289.9998,394.407,0.4544
300,397.783,0.46884
310.0002,401.145,0.48881
319.9998,404.495,0.50038
330,407.849,0.50546
340.0002,411.196,0.49667
349.9998,414.544,0.48843
360,417.892,0.47907
370.0002,421.232,0.46981
379.9998,424.58,0.46452
390,427.92,0.45826
400.0002,431.2552,0.45445
409.9998,434.586,0.45139
420,437.908,0.45034
430.0002,441.217,0.45085
439.9998,444.529,0.45483
450,447.848,0.46056
460.0002,451.1678,0.46838
469.9998,454.498,0.47624
480,457.826,0.48225
490.0002,461.1661,0.48733
499.9998,464.511,0.48476
510,467.849,0.48185
520.0002,471.186,0.47087
529.9998,474.525,0.45869
540,477.865,0.44628
550.0002,481.2,0.43899
559.9998,484.5301,0.43605
570,487.852,0.43913
580.0002,491.185,0.43878
589.9998,494.51,0.43581
600,497.831,0.42655
610.0002,501.161,0.4088
619.9998,504.492,0.38564
630,507.824,0.36384
640.0002,511.149,0.34207
649.9998,514.478,0.32184
660,517.8039,0.30837
670.0002,521.135,0.29717
679.9998,524.473,0.29367
690,527.805,0.29065
700.0002,531.14,0.29305
709.9998,534.482,0.29784
720,537.827,0.30728
730.0002,541.163,0.31573
739.9998,544.497,0.32303
750,547.832,0.33038
760.0002,551.152,0.33862
769.9998,554.482,0.34778
780,557.809,0.35839
790.0002,561.131,0.37201
799.9998,564.454,0.38694
810,567.777,0.40442
820.0002,571.096,0.4197
829.9998,574.4238,0.43313
840,577.744,0.44788
850.0002,581.079,0.45916
859.9998,584.406,0.47318
870,587.736,0.48817
880.0002,591.063,0.50934
889.9998,594.4,0.54087
900,597.727,0.58808
910.0002,601.063,0.65076
919.9998,604.387,0.73411
930,607.713,0.83995
940.0002,611.039,0.96684
949.9998,614.364,1.12137
960,617.689,1.30964
970.0002,621.012,1.52718
979.9998,624.338,1.77738
990,627.654,2.05606
1000,630.98,2.35792
1010,634.3007,2.66992
1020,637.63,2.95724
1030,640.959,3.1685
1040,644.287,3.27238
1050,647.625,3.36763
1060,650.9679,3.47155
1070,654.304,3.39577
1080,657.65,3.25926
1090,660.997,3.16137
1100,664.343,3.04049
1110,667.689,2.7025
1120,671.045,2.3019
1130,674.396,1.86532
1140,677.747,1.4631
1150,681.09,1.10545
1160,684.433,0.79337
1170,687.765,0.5421
1180,691.09,0.34594
1190,694.418,0.19694
1200,697.735,8.80E-02
1210,701.06,5.92E-03
1220,704.373,-4.79E-02
1230,707.69,-8.56E-02
1240,711.005,-0.10278
1250,714.332,-0.10288
1260,717.659,-0.10077
1270,720.9841,-0.11894
1280,724.305,-0.14447
1290,727.628,-0.16307
1300,730.958,-0.1763
1310,734.287,-0.1833
1320,737.628,-0.18627
1330,740.967,-0.18762
1340,744.301,-0.18713
1350,747.638,-0.18457
1360,750.971,-0.1853
1370,754.2981,-0.18396
1380,757.632,-0.18303
1390,760.963,-0.18312
1400,764.2972,-0.18301
1410,767.623,-0.17746
1420,770.95,-0.17439
1430,774.281,-0.17634
1440,777.614,-0.17536
1450,780.938,-0.17309
1460,784.271,-0.17569
1470,787.608,-0.17617
1480,790.941,-0.17431
1490,794.272,-0.175
1500,797.61,-0.1742
1510,800.951,-0.17188
1520,804.28,-0.16998
1530,807.618,-0.16698
1540,810.957,-0.16245
1550,814.298,-0.15768
1560,817.626,-0.15266
1570,820.958,-0.14935
1580,824.288,-0.14406
1590,827.62,-0.14203
1600,830.952,-0.13889
1610,834.2827,-0.1291
1620,837.6032,-0.12568
1630,840.941,-0.12557
1640,844.279,-0.12545
1650,847.604,-0.11954
1660,850.945,-0.11404
1670,854.2767,-0.10783
1680,857.612,-9.96E-02
1690,860.9471,-9.26E-02
1700,864.28,-8.63E-02
1710,867.614,-8.06E-02
1720,870.945,-7.11E-02
1730,874.279,-6.17E-02
1740,877.6157,-5.14E-02
1750,880.951,-4.35E-02
1760,884.293,-3.23E-02
1770,887.625,-1.95E-02
1780,890.961,-1.22E-02
1790,894.297,-1.16E-03
1800,897.635,1.34E-02
1810,900.972,2.88E-02
1820,904.304,4.10E-02
1830,907.645,5.39E-02
1840,910.971,6.90E-02
1850,914.303,8.24E-02
1860,917.641,9.64E-02
1870,920.972,0.11223
1880,924.3058,0.13307
1890,927.64,0.15329
1900,930.972,0.17243
1910,934.302,0.18665
1920,937.642,0.20333
1930,940.975,0.22367
1940,944.313,0.24483
1950,947.649,0.27113
1960,950.982,0.29226
1970,954.313,0.31517
1980,957.65,0.34448
1990,960.986,0.36858
2000,964.323,0.39304
2010,967.6632,0.41639
2020,971,0.44718
2030,974.338,0.47981
2040,977.674,0.51554
2050,981.002,0.54798
2060,984.343,0.57539
2070,987.6776,0.60983
2080,991.008,0.6417
2090,994.34,0.66601
2100,997.674,0.68893
2110,1001.01,0.71543
2120,1004.34,0.7433
2130,1007.67,0.76276
2140,1011.01,0.77402
2150,1014.34,0.79287
2160,1017.68,0.81381
2170,1021.02,0.8313
2180,1024.35,0.84759
2190,1027.69,0.86293
2200,1031.03,0.88239
2210,1034.37,0.89989
2220,1037.71,0.91644
2230,1041.05,0.93715
2240,1044.39,0.95024
2250,1047.72,0.96697
2260,1051.06,0.97525
2270,1054.4,0.98873
2280,1057.73,0.99864
2290,1061.07,1.01298
2300,1064.4,1.02192
2310,1067.74,1.03583
2320,1071.07,1.04797
2330,1074.41,1.06093
2340,1077.74,1.07472
2350,1081.07,1.08304
2360,1084.41,1.08796
2370,1087.75,1.09527
2380,1091.08,1.09943
2390,1094.43,1.10333
2400,1097.76,1.11015
2410,1101.1,1.11034
2420,1104.43,1.11558
2430,1107.76,1.11469
2440,1111.09,1.12235
2450,1114.42,1.11716
2460,1117.749,1.11865
2470,1121.08,1.11799
2480,1124.41,1.11759
2490,1127.75,1.11826
2500,1131.09,1.12299
2510,1134.42,1.12475
2520,1137.76,1.13004
2530,1141.09,1.13125
2540,1144.43,1.13382
2550,1147.77,1.13997
2560,1151.1,1.1464
2570,1154.44,1.15669
2580,1157.77,1.16509
2590,1161.11,1.17463
2600,1164.43,1.18419
2610,1167.76,1.19544
2620,1171.09,1.20896
2630,1174.43,1.22392
2640,1177.75,1.23306
2650,1181.08,1.24811
2660,1184.41,1.26629
2670,1187.74,1.2837
2680,1191.06,1.30341
2690,1194.39,1.32714
2700,1197.72,1.35209
2710,1201.05,1.37742
2720,1204.38,1.40029
2730,1207.72,1.42978
2740,1211.05,1.4571
2750,1214.39,1.48596
2760,1217.73,1.51492
2770,1221.05,1.54512
2774,1222.39,1.55753