File: Non-charring/PMMA/DBI-Lund/DBI-Lund_Gasification_50kW_1.csv
Time,Mass
[s],[g]
0,68.6
2,68.50784
4,68.4398
6,68.3432
8,68.4813
10,68.2468
12,68.1927
14,68.4351
16,68.1874
18,68.2298
20,68.2833
22,68.1555
24,68.2264
26,68.0774
28,68.12969
30,68.0588
32,68.0048
34,67.9747
36,67.7035
38,67.57268
40,67.4957
42,67.1802
44,67.1427
46,66.81801
48,66.6814
50,66.3915
52,66.2957
54,66.04
56,65.8
58,65.473
60,65.2901
62,65.0589
64,64.6649
66,64.3602
68,64.2518
70,63.8512
72,63.8963
74,63.4242
76,63.1741
78,62.8045
80,62.4829
82,62.2819
84,62.043
86,61.7012
88,61.3898
90,61.0279
92,60.5623
94,60.4942
96,59.9772
98,59.7611
100,59.4712
102,59.0579
104,58.7752
106,58.4485
108,58.1745
110,57.7674
112,57.5534
114,57.0903
116,56.9652
118,56.48236
120,56.1476
122,55.8385
124,55.4409
126,55.2763
128,54.6011
130,54.4765
132,54.1355
134,53.5688
136,53.3786
138,52.8496
140,52.6654
142,52.2836
144,51.7849
146,51.56874
148,51.12359
150,50.6687
152,50.4035
154,50.04
156,49.64287
158,49.0695
160,48.7977
162,48.4534
164,47.8602
166,47.5848
168,47.1927
170,46.6464
172,46.1694
174,45.8274
176,45.4844
178,45.08107
180,44.5642
182,44.0848
184,43.7242
186,43.1919
188,42.7629
190,42.4393
192,42.109
194,41.4299
196,41.0933
198,40.7275
200,40.1468
202,39.8558
204,39.2679
206,38.7808
208,38.4014
210,37.785
212,37.39142
214,36.9735
216,36.2299
218,35.7957
220,35.4586
222,34.9523
224,34.4908
226,34.073
228,33.489
230,32.9269
232,32.3823
234,31.8509
236,31.3747
238,30.9005
240,30.3506
242,29.698
244,29.2385
246,28.8015
248,28.0439
250,27.6667
252,26.9421
254,26.402
256,26.0518
258,25.2919
260,24.6453
262,24.2459
264,23.5863
266,22.9267
268,22.4291
270,21.702
272,21.0763
274,20.5895
276,19.9912
278,19.3909
280,18.7007
282,18.0153
284,17.3829
286,16.8192
288,16.1744
290,15.558
292,14.8341
294,14.1556
296,13.4325
298,12.71181
300,12.1468
302,11.5227
304,10.8718
306,10.1943
308,9.428215
310,9.136618
312,8.426748
314,7.957148
316,7.249951
318,6.878339
320,6.487753
322,6.080676
324,5.612216
326,5.373336
328,4.961907
330,4.613969
332,4.306239
334,4.124284
336,3.59954
338,3.572349
340,3.138129
342,2.803187
344,2.798439
346,2.462569
348,2.152897
350,1.989826
352,1.728961
354,1.597358
356,1.518344
358,1.386737
360,1.348649
362,1.172756
364,0.852774
366,0.736022
368,0.694289
370,0.508322
372,0.454039
374,0.430702
376,0.021929
378,0.013025
380,-0.093769
382,-0.160611
384,-0.11316
386,-0.365541
388,-0.458547
390,-0.46992
392,-0.528158
394,-0.582855
396,-0.601887
398,-0.782821
400,-0.694289
402,-0.710797
404,-0.882072
406,-0.86966
408,-1.027933
410,-0.884485
412,-1.028654
414,-1.151505
416,-1.00862
418,-0.962032
420,-1.250583
422,-1.259798
424,-0.966131
426,-1.344805
428,-1.198379
430,-1.26639
432,-1.133286
434,-1.278397
436,-1.242284
438,-1.343731
440,-1.276375
442,-1.322868
444,-1.306156
446,-1.354211
448,-1.311272
450,-1.29676
452,-1.25671
454,-1.360871
456,-1.224886
458,-1.372422
460,-1.441966
462,-1.301416
464,-1.251501
466,-1.288956
468,-1.397166
470,-1.314537
472,-1.31959
474,-1.223166
476,-1.411941
478,-1.296671
480,-1.270041
482,-1.304995
484,-1.289175
486,-1.287713
488,-1.359112
490,-1.275822
492,-1.276476
494,-1.264238
496,-1.211943
498,-1.327198
500,-1.338153
502,-1.226382
504,-1.220996
506,-1.205152
508,-1.252902
510,-1.308992
512,-1.213708
513,-1.384179