File: Non-charring/PMMA/DBI-Lund/DBI-Lund_DSC_N2_20K_1.csv
Time,Temperature,Heat Flow
[s],[K],[W/g]
0,299.357,-1.87E-02
10.0002,299.351,-1.52E-02
19.9998,299.605,-6.35E-03
30,300.466,3.06E-02
40.0002,302.1607,0.10408
49.9998,304.741,0.21151
60,308.067,0.32541
70.0002,311.936,0.43514
79.9998,316.128,0.5233
90,320.463,0.58628
100.0002,324.8,0.62243
109.9998,329.049,0.63903
120,333.177,0.63909
130.0002,337.175,0.62969
139.9998,341.048,0.61853
150,344.819,0.60478
160.0002,348.506,0.59572
169.9998,352.124,0.59099
180,355.716,0.58774
190.0002,359.295,0.58002
199.9998,362.876,0.5731
210,366.458,0.56781
220.0002,370.034,0.56501
229.9998,373.605,0.56612
240,377.147,0.56497
250.0002,380.652,0.56606
259.9998,384.117,0.56911
270,387.55,0.57274
280.0002,390.974,0.57923
289.9998,394.347,0.58545
300,397.725,0.59514
310.0002,401.0903,0.60862
319.9998,404.449,0.61641
330,407.802,0.61831
340.0002,411.152,0.61631
349.9998,414.503,0.61458
360,417.849,0.61168
370.0002,421.202,0.60935
379.9998,424.551,0.60773
390,427.889,0.60801
400.0002,431.23,0.60843
409.9998,434.561,0.60974
420,437.879,0.61001
430.0002,441.201,0.61162
439.9998,444.518,0.61503
450,447.84,0.6201
460.0002,451.156,0.62534
469.9998,454.482,0.63393
480,457.807,0.63925
490.0002,461.141,0.64596
499.9998,464.483,0.64922
510,467.825,0.65189
520.0002,471.162,0.64937
529.9998,474.5011,0.64776
540,477.835,0.64522
550.0002,481.168,0.64496
559.9998,484.494,0.64763
570,487.83,0.65296
580.0002,491.163,0.65737
589.9998,494.5,0.65527
600,497.824,0.64923
610.0002,501.147,0.63814
619.9998,504.474,0.62258
630,507.801,0.61181
640.0002,511.13,0.59939
649.9998,514.45,0.58912
660,517.7878,0.58101
670.0002,521.114,0.573
679.9998,524.447,0.56543
690,527.773,0.55941
700.0002,531.106,0.55351
709.9998,534.444,0.54644
720,537.777,0.54289
730.0002,541.126,0.54842
739.9998,544.482,0.60352
750,547.844,0.64522
760.0002,551.1979,0.68109
769.9998,554.5457,0.71849
780,557.879,0.76599
790.0002,561.207,0.83295
799.9998,564.533,0.89201
810,567.847,0.94541
820.0002,571.1572,0.98961
829.9998,574.462,1.01799
840,577.775,1.04217
850.0002,581.081,1.06311
859.9998,584.389,1.07944
870,587.703,1.09113
880.0002,591.012,1.10422
889.9998,594.337,1.1237
900,597.668,1.15458
910.0002,601.005,1.20174
919.9998,604.332,1.26086
930,607.658,1.33704
940.0002,610.991,1.43131
949.9998,614.314,1.54675
960,617.6436,1.68672
970.0002,620.967,1.84441
979.9998,624.2852,2.02717
990,627.6,2.22485
1000,630.92,2.44059
1010,634.233,2.6641
1020,637.555,2.8659
1030,640.877,3.00457
1040,644.207,3.07849
1050,647.54,3.13496
1060,650.882,3.11809
1070,654.234,3.03552
1080,657.5868,3.03336
1090,660.9393,3.00728
1100,664.287,2.92479
1110,667.641,2.7834
1120,670.991,2.57547
1130,674.344,2.27791
1140,677.698,1.94389
1150,681.044,1.60602
1160,684.386,1.29493
1170,687.731,1.04383
1180,691.063,0.84359
1190,694.382,0.69615
1200,697.723,0.62797
1210,701.07,0.62081
1220,704.392,0.58091
1230,707.697,0.52927
1240,710.989,0.47657
1250,714.285,0.40159
1260,717.591,0.35239
1270,720.902,0.31148
1280,724.225,0.28696
1290,727.559,0.2715
1300,730.895,0.26497
1310,734.237,0.26226
1320,737.58,0.26359
1330,740.919,0.26473
1340,744.267,0.26704
1350,747.604,0.27247
1360,750.94,0.27187
1370,754.264,0.27401
1380,757.6,0.27674
1390,760.938,0.28067
1400,764.2629,0.27968
1410,767.599,0.28145
1420,770.9201,0.28422
1430,774.2482,0.28042
1440,777.578,0.2828
1450,780.91,0.28458
1460,784.246,0.28376
1470,787.581,0.28495
1480,790.914,0.28694
1490,794.252,0.29016
1500,797.588,0.29339
1510,800.927,0.29725
1520,804.266,0.30234
1530,807.601,0.30747
1540,810.932,0.31528
1550,814.268,0.32396
1560,817.5948,0.33247
1570,820.92,0.34164
1580,824.244,0.35314
1590,827.565,0.35803
1600,830.897,0.3642
1610,834.229,0.37625
1620,837.557,0.38333
1630,840.8926,0.39002
1640,844.229,0.40096
1650,847.565,0.40942
1660,850.901,0.42194
1670,854.239,0.43154
1680,857.574,0.44225
1690,860.916,0.45708
1700,864.25,0.46918
1710,867.587,0.48178
1720,870.92,0.49593
1730,874.259,0.50908
1740,877.594,0.52769
1750,880.926,0.54097
1760,884.263,0.54887
1770,887.599,0.56531
1780,890.932,0.57657
1790,894.265,0.58854
1800,897.601,0.60144
1810,900.934,0.6155
1820,904.266,0.62917
1830,907.59,0.63759
1840,910.92,0.64471
1850,914.255,0.65676
1860,917.598,0.66462
1870,920.936,0.68101
1880,924.275,0.69814
1890,927.613,0.71332
1900,930.953,0.72969
1910,934.292,0.74613
1920,937.643,0.76513
1930,940.9696,0.77876
1940,944.302,0.79723
1950,947.634,0.81371
1960,950.9671,0.83187
1970,954.296,0.84506
1980,957.627,0.85922
1990,960.959,0.86953
2000,964.288,0.87779
2010,967.621,0.88586
2020,970.955,0.89673
2030,974.291,0.90973
2040,977.628,0.92348
2050,980.966,0.93401
2060,984.3013,0.94529
2070,987.639,0.95519
2080,990.98,0.96772
2090,994.315,0.97699
2100,997.655,0.98488
2110,1000.99,0.99705
2120,1004.33,1.00381
2130,1007.66,1.01154
2140,1011,1.01214
2150,1014.34,1.02085
2160,1017.67,1.02385
2170,1021,1.02924
2180,1024.34,1.03321
2190,1027.67,1.03814
2200,1031.01,1.04092
2210,1034.34,1.04224
2220,1037.68,1.04646
2230,1041.02,1.0541
2240,1044.35,1.06102
2250,1047.68,1.06284
2260,1051.02,1.06637
2270,1054.35,1.07137
2280,1057.69,1.07147
2290,1061.03,1.0755
2300,1064.37,1.07682
2310,1067.71,1.08061
2320,1071.04,1.08613
2330,1074.38,1.08968
2340,1077.71,1.09523
2350,1081.05,1.09705
2360,1084.38,1.09737
2370,1087.72,1.09843
2380,1091.06,1.09647
2390,1094.39,1.10279
2400,1097.72,1.10888
2410,1101.06,1.10615
2420,1104.4,1.10794
2430,1107.73,1.10695
2440,1111.07,1.11306
2450,1114.41,1.11256
2460,1117.75,1.11945
2470,1121.08,1.11921
2480,1124.42,1.12433
2490,1127.76,1.13305
2500,1131.09,1.1418
2510,1134.43,1.14646
2520,1137.78,1.15784
2530,1141.11,1.16589
2540,1144.44,1.1737
2550,1147.77,1.18934
2560,1151.1,1.19877
2570,1154.43,1.21346
2580,1157.76,1.23603
2590,1161.08,1.25266
2600,1164.4,1.26935
2610,1167.73,1.29372
2620,1171.05,1.31608
2630,1174.38,1.33852
2640,1177.71,1.35972
2650,1181.03,1.38894
2660,1184.37,1.41961
2670,1187.7,1.44774
2680,1191.03,1.49276
2690,1194.36,1.54089
2700,1197.69,1.59483
2710,1201.02,1.64415
2720,1204.35,1.69742
2730,1207.69,1.74875
2740,1211.02,1.78407
2752,1215.01,1.84406
2762,1218.35,1.89679
2772,1221.68,-0.59396
2774,1222.36,-0.55779