File: Non-charring/PMMA/DBI-Lund/DBI-Lund_Cone_25kW_2.csv
Time,Mass,HRR,Back Surface Temperature 1
[s],[g],[kW/m2],[K]
0,73.21,2.47389,0
2,73.1836,0.990775,0
4,73.152,0.131944,0
6,73.1399,-0.531252,0
8,73.1758,-1.21542,0
10,73.1686,-1.32642,0
12,73.12,-2.31387,0
14,73.1591,-1.91618,0
16,73.1944,-1.58407,0
18,73.2196,-1.45849,0
20,73.1933,-1.52921,0
22,73.1782,-1.20781,0
24,73.1866,-0.647,0
26,73.1731,-1.0779,0
28,73.1806,-1.51849,0
30,73.1677,-1.3378,0
32,73.17669,-1.1146,0
34,73.1729,-0.345021,0
36,73.12387,-1.08478,0
38,73.1344,-1.4925,0
40,73.1566,-1.47736,0
42,73.15861,-1.24272,0
44,73.1135,-1.14203,0
46,73.1717,-1.39252,0
48,73.1668,-1.50699,0
50,73.13656,-0.575176,0
52,73.119,-0.25465,0
54,73.1585,-0.205358,0
56,73.1667,-0.457647,0
58,73.1632,-0.57886,0
60,73.1313,-1.11349,0
62,73.1611,-1.02638,0
64,73.1568,-1.04585,0
66,73.1564,-1.43673,0
68,73.1543,-0.602548,0
70,73.1179,-0.418817,0
72,73.10632,-0.13376,0
74,73.1383,-0.274894,0
76,73.1195,-0.445744,0
78,73.1168,-0.500304,0
80,73.1111,-0.384248,0
82,73.11594,-0.0741807,0
84,73.0855,-0.208384,0
86,73.1104,-0.387679,0
88,73.0819,-0.50988,0
90,73.0993,-0.57098,0
92,73.1021,-0.479798,0
94,73.089,-0.223535,0
96,73.0357,-0.319281,0
98,73.0743,0.325111,0
100,73.0604,-0.491161,0
102,73.0203,-0.253607,0
104,73.0242,9.60997,0
106,73.0145,35.2662,0
108,72.9727,59.2207,0
110,72.8639,101.799,0
112,72.7528,161.272,0
114,72.5611,210.159,0
116,72.3826,274.231,0
118,72.1396,305.028,0
120,71.8485,325.77,0
122,71.5988,342.235,0
124,71.3306,347.262,0
126,71.0295,352.007,0
128,70.742,371.291,0
130,70.4489,382.636,0
132,70.1465,377.576,0
134,69.8408,379.616,0
136,69.556,384.326,0
138,69.24233,387.356,0
140,68.9304,388.33,0
142,68.5983,397.974,0
144,68.27375,399.877,0
146,67.9544,396.605,0
148,67.6526,420.018,0
150,67.3224,414.945,0
152,66.9754,410.459,0
154,66.6738,434.071,0
156,66.3183,413.21,0
158,65.9829,423.082,0
160,65.6144,430.726,0
162,65.2585,428.876,0
164,64.9192,437.134,0
166,64.5594,445.325,0
168,64.2238,444.951,0
170,63.856,448.527,0
172,63.5417,433.584,0
174,63.1994,424.177,0
176,62.8485,420.394,0
178,62.47608,423.846,0
180,62.1343,469.298,0
182,61.7661,438.967,0
184,61.3667,437.861,0
186,61.0205,469.284,0
188,60.664,452.365,0
190,60.2853,466.954,0
192,59.9027,458.5,0
194,59.4937,481.319,0
196,59.14805,465.418,0
198,58.7859,467.331,0
200,58.3991,455.531,0
202,57.99,472.134,0
204,57.5778,470.143,0
206,57.2455,466.701,0
208,56.8703,488.142,0
210,56.475,472.996,0
212,56.0834,477.673,0
214,55.6922,475.159,0
216,55.3237,485.906,0
218,54.9215,480.627,0
220,54.5113,488.706,0
222,54.1101,492.587,0
224,53.733,504.697,0
226,53.3398,485.986,0
228,52.9176,516.924,0
230,52.5018,481.993,0
232,52.1453,496.538,0
234,51.7248,490.145,0
236,51.3363,501.771,0
238,50.9641,497.52,0
240,50.5944,482.081,0
242,50.15565,469.271,0
244,49.7145,499.44,0
246,49.3251,500.073,0
248,48.9347,504.278,0
250,48.5145,481.193,0
252,48.0818,509.273,0
254,47.6724,511.235,0
256,47.292,524.729,0
258,46.8735,524.051,0
260,46.44113,519.749,0
262,46.0112,520.124,0
264,45.6078,523.851,0
266,45.1638,523.214,0
268,44.7529,536.523,0
270,44.2956,534.903,0
272,43.8556,536.116,0
274,43.443,540.779,0
276,42.9991,541.811,0
278,42.5607,549.461,0
280,42.10782,535.533,0
282,41.6507,546.107,0
284,41.2415,551.426,0
286,40.79677,548.358,0
288,40.3667,552.769,0
290,39.9121,542.954,0
292,39.4581,556.913,0
294,39.0083,556.169,0
296,38.5285,553.646,0
298,38.0684,568.524,0
300,37.6275,562.64,0
302,37.1569,550.408,0
304,36.7022,556.93,0
306,36.2295,561.638,0
308,35.7644,580.984,0
310,35.2885,567.106,0
312,34.8027,582.127,0
314,34.3173,593.712,0
316,33.8665,581.171,0
318,33.375,583.736,0
320,32.88881,554.393,0
322,32.4085,570.223,0
324,31.9303,582.309,0
326,31.4897,577.379,0
328,31.0252,593.5669,0
330,30.5479,588.494,0
332,30.039,598.428,0
334,29.5887,593.878,0
336,29.1086,603.888,0
338,28.613,582.052,0
340,28.1163,596.646,0
342,27.6465,609.874,0
344,27.1614,591.219,0
346,26.6457,606.499,0
348,26.1446,596.379,0
350,25.6632,595.938,0
352,25.1622,626.872,0
354,24.6436,626.575,0
356,24.1155,618.992,0
358,23.6335,657.804,0
360,23.1901,631.342,0
362,22.5956,631.077,0
364,22.1027,619.315,0
366,21.6044,638.545,0
368,21.0745,615.805,0
370,20.5408,631.96,0
372,20.0473,639.402,0
374,19.5111,659.682,0
376,18.9748,612.07,0
378,18.4352,625.662,0
380,17.8798,679.438,0
382,17.3849,659.092,0
384,16.8571,666.45,0
386,16.2963,669.246,0
388,15.6963,688.244,0
390,15.1743,635.781,0
392,14.6361,713.123,0
394,14.018,748.781,0
396,13.4366,733.482,0
398,12.8655,708.875,0
400,12.3043,681.349,0
402,11.7293,702.019,0
404,11.16225,706.539,0
406,10.5718,686.458,0
408,9.974294,701.381,0
410,9.393096,689.158,0
412,8.914456,699.734,0
414,8.354954,694.007,0
416,7.818815,664.844,0
418,7.248224,646.386,0
420,6.744099,631.612,0
422,6.19127,624.957,0
424,5.681749,618.702,0
426,5.208713,610.542,0
428,4.690872,599.479,0
430,4.189611,587.518,0
432,3.706359,588.11,0
434,3.287452,545.511,0
436,2.834262,526.078,0
438,2.397577,510.929,0
440,1.985483,481.433,0
442,1.637289,452.485,0
444,1.282921,406.517,0
446,0.97344,375.751,0
448,0.681462,290.217,0
450,0.45614,254.945,0
452,0.319673,198.874,0
454,0.188684,144.509,0
456,0.07488,123.377,0
458,0.01492,93.274,0
460,-0.009089,69.8135,0
462,-0.049128,57.9762,0
464,-0.084922,44.1319,0
466,-0.072453,35.8836,0
468,-0.11526,25.2082,0
470,-0.135355,18.8142,0
472,-0.130581,15.6175,0
474,-0.107,12.4578,0
476,-0.117812,10.3293,0
478,-0.11,9.89836,0
480,-0.11451,9.05693,0
482,-0.134,7.99091,0
484,-0.159286,6.99301,0
486,-0.152453,5.02907,0
488,-0.168955,3.98638,0
490,-0.188162,2.87255,0
492,-0.132125,2.0857,0
494,-0.130901,1.77595,0
496,-0.174784,1.11843,0
498,-0.151792,1.05867,0
500,-0.138135,0.879984,0
502,-0.148668,0.851646,0
504,-0.176263,0.908954,0
506,-0.160298,1.04021,0
508,-0.162164,1.25603,0
510,-0.16693,1.29966,0
512,-0.178079,1.10881,0
514,-0.155729,1.82057,0
516,-0.148283,1.79521,0
518,-0.188513,1.77795,0
520,-0.173511,1.87226,0
522,-0.154504,2.03131,0
524,-0.149364,2.21125,0
526,-0.197455,1.63812,0
528,-0.220208,1.11024,0
530,-0.172141,-0.173867,0
532,-0.155704,-0.667492,0
534,-0.170157,-0.569546,0
536,-0.179687,-0.453995,0
538,-0.17829,-0.184973,0
540,-0.162905,-0.358458,0
542,-0.183086,-0.411343,0
544,-0.163535,-0.606139,0
546,-0.167099,-0.333115,0
548,-0.168734,0.281432,0
550,-0.175053,0.547336,0
552,-0.149217,0.602625,0
554,-0.156205,0.46326,0