File: Non-charring/PMMA/GIDAZE+/GIDAZE+_Cone_65kW_1.csv
Time,Mass,HRR,Back Surface Temperature 1,Back Surface Temperature 3,Back Surface Temperature 4
[s],[g],[kW/m2],[K],[K],[K]
0,71.3,-0.787434,338.453,305.852,303.711
2,71.212,-0.662397,385.574,306.043,303.693
4,71.3007,-0.954844,427.041,306.27,303.668
6,71.195,-0.943874,464.663,306.663,303.628
8,71.0107,-0.673274,496.068,307.4,303.63
10,71.1095,-0.659609,523.455,308.535,303.636
12,71.19529,-1.00627,550.937,310.204,303.649
14,71.1088,-1.00042,578.399,312.307,303.663
16,71.0117,-1.03015,632.358,314.799,303.692
18,71.0921,0.686942,709.279,317.694,303.744
20,71.09126,49.5458,726.991,320.808,303.84
22,70.9318,185.225,725.345,324.153,303.934
24,70.3451,345.129,723.996,327.697,304.086
26,70.10858,388.712,722.457,331.374,304.258
28,69.8948,425.187,719.352,335.175,304.46
30,69.4097,495.926,716.958,339.014,304.695
32,68.4167,561.06,715.135,342.896,304.945
34,68.0333,584.996,714.217,346.772,305.267
36,67.7958,649.059,713.188,350.641,305.627
38,67.3786,646.588,712.808,354.457,306.074
40,66.0919,642.782,712.89,358.233,306.528
42,65.607,647.351,712.765,361.934,306.989
44,65.4864,697.483,713.287,365.546,307.497
46,65.2855,661.971,713.476,369.053,308.152
48,64.1752,672.301,713.658,372.799,308.657
50,63.1576,679.731,713.597,376.594,308.978
52,63.1566,689.941,714.759,380.422,309.441
54,62.889,726.169,714.053,384.275,310.158
56,62.5401,666.894,714.463,388.162,310.956
58,61.204,731.707,715.047,391.964,311.443
60,60.7156,707.29,716.672,395.712,311.978
62,60.2489,712.075,718.069,399.444,312.648
64,60.062,717.944,718.421,403.13,313.474
66,59.1646,692.718,718.315,406.732,314.357
68,58.2599,710.288,719.078,410.278,315.259
70,58.05379,731.79,720.061,413.774,316.179
72,57.33562,704.447,721.32,417.321,317.11
74,57.0049,747.46,722.522,420.923,318.124
76,56.78774,687.596,723.532,424.632,319.249
78,55.6302,727.239,723.967,428.359,320.73
80,54.7487,667.365,724.733,432.192,322.395
82,54.3635,753.137,727.254,436.092,324.54
84,54.0982,744.445,728.171,440.087,327.989
86,53.4342,731.507,727.21,444.205,330.773
88,52.9026,767.03,725.859,448.446,332.495
90,52.06386,722.43,723.541,452.859,332.903
92,50.8991,727.267,720.186,457.497,332.735
94,51.1,728.8911,717.542,462.473,331.839
96,50.54586,731.551,714.216,468.073,330.002
98,49.6289,720.094,712.237,473.985,328.401
100,48.8775,740.106,710.407,479.067,327.022
102,48.4281,784.706,709.201,483.878,326.065
104,48.06048,742.859,708.059,488.656,325.457
106,47.2326,794.392,708.112,493.657,325.131
108,46.02985,725.315,708.531,498.785,325.074
110,45.9133,755.918,708.437,503.998,325.129
112,45.376,745.606,707.329,509.526,325.371
114,45.0458,790.872,706.683,515.228,325.697
116,44.1116,786.091,706.295,521.104,326.108
118,43.622,776.18,705.733,527.275,326.557
120,42.4893,821.01,705.325,533.62,327.081
122,42.3208,816.988,705.433,540.221,327.615
124,41.5216,746.568,704.95,547.333,328.219
126,40.9211,824.157,705.137,554.951,328.822
128,39.9787,837.672,703.983,562.668,329.443
130,39.2645,815.896,703.756,570.629,330.105
132,38.74388,833.533,703.941,578.729,330.753
134,38.5594,805.87,703.513,586.611,331.389
136,37.8816,839.741,703.342,595.619,332.058
138,37.0324,873.059,702.078,606.87,332.698
140,35.646,823.71,703.019,619.822,333.341
142,35.5044,827.75,703.478,637.557,334.016
144,35.1034,822.319,702.735,677.333,334.673
146,34.2007,920.319,703.309,722.431,335.341
148,32.9287,905.963,703.054,750.599,336.05
150,32.17279,873.502,702.128,758.787,336.7
152,31.9867,1015.31,702.505,765.059,337.42
154,31.007,976.818,702.257,767.542,338.111
156,29.5535,933.677,702.649,771.606,338.799
158,29.1514,976.498,702.601,772.124,339.499
160,28.8837,984.549,701.902,776.678,340.192
162,28.0763,1019.39,701.464,775.984,340.869
164,26.8461,989.476,701.147,779.872,341.631
166,25.8946,1023.48,700.726,781.759,342.299
168,25.1056,997.582,700.963,785.008,342.954
170,24.82341,981.414,701.529,786.892,343.998
172,23.5577,1086.95,703.106,787.353,345.21
174,22.3592,969.683,703.88,785.986,346.325
176,21.3089,1085.36,703.797,785.807,347.427
178,21.1734,1064.43,707.411,784.545,348.843
180,20.4042,1008.59,709.076,786.524,350.625
182,18.7886,1076.58,714.375,787.232,353.169
184,18.316,1137.7,717.159,789.555,356.775
186,17.184,994.538,719.67,789.416,360.633
188,16.7677,1099,716.807,791.087,363.909
190,15.5854,1044.01,716.506,789.534,367.025
192,14.2194,1076.52,715.528,789.503,369.995
194,13.5061,1164.96,716.313,793.035,372.828
196,13.2591,1030.86,719.068,793.052,375.89
198,12.27595,1109.23,719.568,798.038,378.988
200,10.62218,1038.76,718.97,802.453,382.224
202,10.1874,1029.64,718.582,804.411,385.895
204,9.417907,1109.56,717.545,802.45,390.002
206,8.982353,1025.09,715.302,799.673,394.651
208,8.400909,941.514,712.864,801.61,398.232
210,7.14727,952.733,713.284,804.731,401.234
212,6.490198,875.12,718.887,803.53,404.3
214,6.237791,853.621,726.991,797.965,407.31
216,5.958349,712.344,734.007,798.264,410.217
218,4.455122,731.936,741.05,797.236,413.047
220,4.351766,647.945,745.22,794.734,416.414
222,3.951566,581.776,750.139,793.658,420.047
224,3.932683,566.53,756.792,798.667,423.728
226,3.465483,514.406,764.426,801.842,428.071
228,2.92606,476.953,773.344,811.695,434.341
230,2.643131,435.954,783.384,825.351,445.259
232,2.175381,417.903,789.891,841.646,467.841
234,2.12755,377,854.847,893.598,498.052
236,2.024923,330.464,900.675,956.016,542.59
238,1.722413,300.313,939.53,999.15,570.001
240,1.338983,281.442,966.404,983.646,610.129
242,1.209009,245.536,995.825,1081.514,633.132
244,0.867627,217.201,1035.461,1046,644.589
246,0.905059,196.758,1067.636,1116.335,657.488
248,0.722342,174.818,1101.518,1156.453,665.815
250,0.435612,145.392,1060.611,1228.587,650.655
252,0.401241,125.273,978.214,1177.016,635.5
254,0.585571,118.754,903.565,1131.214,619.845
256,0.601035,98.2235,863.832,1180.088,608.672
258,0.356102,83.5354,859.933,856.212,603.852
260,0.218585,71.102,855.082,775.556,593.78
262,0.104235,59.6214,855.91,682.659,587.472
264,0.18264,52.5538,854.56,634.307,582.324
266,0.306241,44.2917,849.762,688.516,577.138
268,0.306626,36.4826,850.379,699.774,573.748
270,0.121362,28.9319,849.356,692.534,570.65
272,0.000973,26.1701,847.091,636.963,568.937
274,-0.197865,19.7719,842.069,665.86,567.274
276,0.053851,17.9686,837.012,669.249,565.713
278,0.186327,14.2553,831.201,713.254,565.173
280,0.219926,10.5474,825.163,686.548,564.515
282,0.017968,8.06905,820.932,700.393,564.166
284,0.001181,5.1008,818.727,700.477,564.389
286,-0.198639,1.39185,816.13,707.863,564.192
288,-0.1026,-1.05242,816.176,646.023,565.012
290,-0.11858,-2.49997,808.977,646.352,564.143
292,0.086949,-3.31081,804.664,672.44,563.336
294,-0.086806,-4.26572,807.022,643.454,563.739
296,-0.183506,-4.89019,802.556,695.268,563.367
298,-0.118987,-5.1671,801.137,690.183,563.852
300,-0.102577,-5.74688,806.196,683.203,564.739
302,0.000845,-5.12589,811.561,691.269,566.371
304,-0.102099,-5.07178,802.465,711.836,565.932
306,-0.181754,-5.02303,802.165,703.273,566.066
308,-0.119075,-5.44094,802.61,606.817,566.472
310,0.104137,-5.34488,796.48,584.093,566.589
312,0.104192,-5.8464,795.441,561.444,566.596
314,-0.087137,-5.77518,799.351,580.785,565.763
316,-0.196325,-6.02804,798.948,641.571,565.047
318,-0.218121,-5.89097,793.355,687.263,563.879
320,-0.102888,-6.43829,794.409,682.263,563.794
322,0.00064,-6.1338,793.571,681.24,563.787
324,-0.079102,-6.55406,796.475,685.937,564.482
326,-0.102595,-6.25114,795.138,689.987,564.605
328,-0.287496,-6.40331,802.176,698.546,565.989
330,-0.102482,-6.44981,806.733,700.399,567.487
332,-0.102285,-6.18483,806.473,676.59,568.543
334,0.000276,-6.19863,803.861,649.123,569.234
336,-0.197796,-6.17109,806.133,646.327,570.109
338,-0.286962,-6.13146,811.517,647.097,571.452
340,-0.198603,-6.03375,813.571,660.878,572.477
342,-0.017782,-6.05302,816.423,650.2,574.013
344,0.00051,-7.17299,809.926,618.61,574.587
346,-0.102323,-7.06533,798.758,656.369,574.158
348,-0.286578,-6.60743,803.627,695.291,575.171
350,-0.136985,-6.63923,801.345,665.076,576.231
352,-0.102964,-6.80106,803.898,659.352,577.497
354,0.00055,-7.05701,804.45,641.611,578.349
356,-0.184448,-7.03875,805.798,662.091,579.31
358,-0.286758,-6.55925,807.374,652.991,579.938
360,-0.303982,-6.56514,809.855,704.268,580.39
362,-0.119037,-6.64845,808.456,713.768,580.772
364,-0.015745,-6.73437,810.726,703.439,581.487
366,-0.067507,-6.53503,814.589,678.824,582.654
368,-0.19807,-6.62748,805.137,702.47,583.004
370,-0.384871,-6.49312,799.451,666.602,583.259
372,-0.233115,-6.65864,795.814,647.483,583.567
374,-0.084154,-6.54835,797.87,641.763,584.27
376,-0.000345,-6.47084,804.886,670.456,585.718
378,-0.349775,-6.46709,808.257,682.747,586.92
380,-0.319808,-6.36171,811.213,718.314,587.813
382,-0.400114,-6.69498,811.61,683.269,589.163
384,-0.135295,-6.64565,803.18,651.393,589.435
386,-0.198181,-6.29807,797.804,665.979,589.394
388,-0.103204,-6.41177,795.188,656.302,589.833
390,-0.285376,-6.68402,796.285,654.48,590.594
392,-0.198235,-6.67441,801.338,622.155,591.93
393,-0.28633,-6.79456,800.427,627.434,592.451