File: Non-charring/PMMA/GIDAZE+/GIDAZE+_FPA_65kW_Temp_2.csv
Time,Mass,Back Surface Temperature 1
[s],[g],[K]
1,0,297.032
3,0,296.989
5,0,296.959
7,0,296.901
9,0,296.882
11,0,296.86
13,0,296.885
15,0,296.962
17,0,297.491
19,0,297.79
21,0,298.202
23,0,298.647
25,0,299.131
27,0,299.697
29,0,300.288
31,0,300.91
33,0,301.601
35,0,302.314
37,0,303.09
39,0,303.945
41,0,304.808
43,0,305.74
45,0,306.693
47,0,307.698
49,0,308.709
51,0,309.76
53,0,310.826
55,0,311.909
57,0,313.039
59,0,314.195
61,0,315.379
63,0,316.631
65,0,317.926
67,0,319.21
69,0,320.636
71,0,322.041
73,0,323.596
75,0,325.193
77,0,326.938
79,0,328.947
81,0,331.397
83,0,334.826
85,0,341.523
87,0,353.717
89,0,362.267
91,0,366.013
93,0,367.549
95,0,367.864
97,0,361.602
99,0,355.457
101,0,345.464
103,0,339.185
105,0,335.268
107,0,332.613
109,0,330.968
111,0,330.177
113,0,329.701
115,0,329.527
117,0,329.478
119,0,329.553
121,0,329.725
123,0,330.014
125,0,330.389
127,0,330.811
129,0,331.211
131,0,331.736
133,0,332.303
135,0,332.967
137,0,333.65
139,0,334.352
141,0,335.117
143,0,335.568
145,0,336.154
147,0,336.762
149,0,337.47
151,0,338.151
153,0,338.906
155,0,339.642
157,0,340.254
159,0,340.787
161,0,341.28
163,0,341.909
165,0,342.53
167,0,343.174
169,0,343.81
171,0,344.474
173,0,345.902
175,0,347.545
177,0,348.973
179,0,350.821
181,0,353.11
183,0,356.293
185,0,361.893
187,0,377.402
189,0,407.91
191,0,414.981
193,0,426.436
195,0,434.198
197,0,445.722
199,0,460.71
201,0,475.664
203,0,489.162
205,0,502.171
207,0,514.943
209,0,509.577
211,0,486.663
213,0,497.407
215,0,555.686
217,0,666.116
219,0,623.553
221,0,610.854
223,0,645.051
225,0,707.833
227,0,689.27
229,0,610.29
231,0,598.065
233,0,595.087
235,0,594.212
237,0,597.693
239,0,597.375
241,0,600.384
243,0,606.271
245,0,615.219
247,0,613.365
249,0,615.226
251,0,623.468
253,0,630.265
255,0,638.056
257,0,635.935
259,0,646.33
261,0,655.001
263,0,658.264
265,0,683.339
267,0,659.117
269,0,649.307
271,0,656.801
273,0,662.366
275,0,658.682
277,0,665.825
279,0,671.036
281,0,664.888
283,0,670.472
285,0,678.525
287,0,681.028
289,0,676.101
291,0,683.189
293,0,685.808
295,0,677.752
297,0,682.41
299,0,680.49
301,0,685.757
303,0,685.253
305,0,683.558
307,0,684.753
309,0,687.25
311,0,691.277
313,0,692.16
315,0,690.245
317,0,691.149
319,0,690.949
321,0,690.157
323,0,693.058
325,0,697.63
327,0,696.533
329,0,695.532
331,0,696.693
333,0,698.644
335,0,700.571
337,0,700.893
339,0,703.521
341,0,704.68
343,0,703.84
344,0,704.844