File: Non-charring/PMMA/GIDAZE+/GIDAZE+_FPA_65kW_Temp_1.csv
Time,Mass,Back Surface Temperature 1
[s],[g],[K]
1,0,302.461
3,0,302.529
5,0,302.585
7,0,302.639
9,0,302.717
11,0,302.789
13,0,302.875
15,0,303.026
17,0,303.49
19,0,304.033
21,0,304.479
23,0,304.957
25,0,305.485
27,0,306.035
29,0,306.609
31,0,307.202
33,0,307.871
35,0,308.567
37,0,309.287
39,0,310.02
41,0,310.79
43,0,311.548
45,0,312.379
47,0,313.199
49,0,314.096
51,0,315.014
53,0,315.931
55,0,316.88
57,0,317.891
59,0,318.873
61,0,319.925
63,0,321.066
65,0,322.247
67,0,323.48
69,0,324.774
71,0,326.151
73,0,327.654
75,0,329.174
77,0,331.062
79,0,333.306
81,0,336.114
83,0,341.613
85,0,350.098
87,0,358.935
89,0,364.65
91,0,366.786
93,0,368.191
95,0,367.958
97,0,364.471
99,0,360.671
101,0,353.902
103,0,347.173
105,0,342.572
107,0,339.838
109,0,338.307
111,0,337.313
113,0,336.778
115,0,336.517
117,0,336.391
119,0,336.356
121,0,336.425
123,0,336.628
125,0,336.888
127,0,337.082
129,0,337.343
131,0,337.733
133,0,338.155
135,0,338.629
137,0,339.118
139,0,339.651
141,0,340.196
143,0,340.761
145,0,341.316
147,0,341.945
149,0,342.564
151,0,343.168
153,0,343.831
155,0,344.472
157,0,345.112
159,0,345.791
161,0,346.439
163,0,347.08
165,0,347.72
167,0,348.331
169,0,348.912
171,0,349.443
173,0,349.979
175,0,350.619
177,0,351.562
179,0,352.58
181,0,354.404
183,0,357.204
185,0,359.497
187,0,361.861
189,0,364.258
191,0,367.006
193,0,370.936
195,0,375.691
197,0,384.22
199,0,393.814
201,0,404.792
203,0,420.466
205,0,442.685
207,0,458.268
209,0,459.193
211,0,454.977
213,0,458.086
215,0,473.023
217,0,500.897
219,0,520.81
221,0,533.948
223,0,541.768
225,0,548.086
227,0,549.913
229,0,561.417
231,0,557.081
233,0,552.229
235,0,550.402
237,0,553.268
239,0,555.901
241,0,557.822
243,0,559.542
245,0,561.377
247,0,563.668
249,0,567.871
251,0,570.009
253,0,571.735
255,0,574.958
257,0,578.55
259,0,580.496
261,0,583.1
263,0,585.483
265,0,587.942
267,0,592.223
269,0,587.972
271,0,586.305
273,0,591.159
275,0,592.396
277,0,594.906
279,0,595.332
281,0,597.085
283,0,601.683
285,0,604.105
287,0,609.01
289,0,609.349
291,0,612.626
293,0,614.493
295,0,616.999
297,0,626.124
299,0,622.311
301,0,622.093
303,0,625.268
305,0,628.915
307,0,628.258
309,0,630.264
311,0,634.672
313,0,633.371
315,0,636.216
317,0,635.568
319,0,638.426
321,0,639.523
323,0,640.515
325,0,642.545
327,0,644.245
329,0,646.25
331,0,646.716
333,0,647.054
335,0,652.984
337,0,651.548
339,0,652.476
341,0,653.053
343,0,655.052
345,0,655.378
347,0,658.385
349,0,654.118