File: PMMA/Calibration_Data/UClan/UClan_Cone_65kW_1.csv
Time,Mass,HRR,Back Surface Temperature 1
[s],[g],[kW/m2],[K]
0,71.12,1.61E-07,323.65
2,71.2,0.263535,0
4,71.1699,0.368965,0
6,71.1599,0.421286,0
8,71.1699,0.442209,0
10,71.1699,0.348698,0
12,71.0399,2.36251,0
14,70.8201,25.4142,0
16,70.5002,85.805,0
18,70.0303,178.858,0
20,69.7603,251.669,0
22,69.3805,336.47,0
24,68.9005,389.826,0
26,68.5007,452.738,0
28,68.0109,497.036,0
30,67.571,547.367,332.15
32,67.1012,590.839,0
34,66.6013,598.454,0
36,66.1514,604.082,0
38,65.6316,599.624,0
40,65.1516,650.939,0
42,64.6119,650.458,0
44,64.142,651.585,0
46,63.6821,673.944,0
48,63.1823,657.029,0
50,62.6624,667.466,0
52,62.1625,673.102,0
54,61.6328,656.541,0
56,61.1729,643.808,0
58,60.623,649.501,0
60,60.1631,685.364,342.15
62,59.6632,667.844,0
64,59.1934,682.464,0
66,58.5836,705.161,0
68,58.0337,674.426,0
70,57.5939,703.115,0
72,57.104,693.238,0
74,56.5942,723.4,0
76,56.0243,687.476,0
78,55.4945,681.39,0
80,55.0046,678.501,0
82,54.4648,707.562,0
84,53.8949,728.713,0
86,53.415,695,0
88,52.8452,730.603,0
90,52.3354,704.746,353.65
92,51.8256,720.755,0
94,51.1957,744.396,0
96,50.7258,715.978,0
98,50.196,717.156,0
100,49.6661,727.549,0
102,49.1663,718.26,0
104,48.6066,725.355,0
106,48.0266,741.872,0
108,47.4368,706.048,0
110,46.917,717.468,0
112,46.3271,760.341,0
114,45.8073,756.631,0
116,45.2175,722.909,0
118,44.6476,778.474,0
120,44.0778,751.889,378.15
122,43.528,786.043,0
124,42.8881,770.293,0
126,42.3383,801.318,0
128,41.6785,768.203,0
130,41.1087,771.104,0
132,40.5588,806.716,0
134,39.8491,817.668,0
136,42.8781,783.906,0
138,47.4568,856.056,0
140,46.817,818.977,0
142,45.9872,822.432,0
144,45.3174,831.113,0
146,44.3477,853.789,0
148,43.0981,890.895,0
150,34.4406,849.217,405.65
152,33.7308,932.891,0
154,33.061,916.76,0
156,32.3712,869.504,0
158,31.7214,922.599,0
160,30.9716,938.182,0
162,30.2618,905.803,0
164,29.5519,966.044,0
166,28.8222,908.992,0
168,28.1524,979.641,0
170,27.4626,933.696,0
172,26.7628,976.716,0
174,26.063,954.405,0
176,25.3832,964.168,0
178,24.6635,977.809,0
180,23.9436,965.672,436.15
182,23.2138,901.461,0
184,22.4741,926.436,0
186,21.7343,965.08,0
188,20.9545,1010.53,0
190,20.2247,1018.57,0
192,19.4349,996.065,0
194,18.6851,963.049,0
196,17.9254,1027.79,0
198,17.0856,1088.4,0
200,16.3358,1006.51,0
202,15.5361,1065.99,0
204,14.8262,1099.51,0
206,14.1964,1111.42,0
208,13.5966,1112.96,0
210,13.0867,1108.24,469.65
212,12.5869,1052.17,0
214,12.227,991.749,0
216,11.8571,867.47,0
218,11.4772,787.474,0
220,11.0974,711.933,0
222,10.8274,654.565,0
224,10.4975,619.445,0
226,10.1576,545.147,0
228,9.83771,530.725,0
230,9.51776,517.059,0
232,9.17792,482.716,0
234,8.89795,477.426,0
236,8.6181,466.768,0
238,8.34814,461.789,0
240,8.0882,456.385,530.15
242,7.82825,438.744,0
244,7.55835,447.297,0
246,7.32843,438.623,0
248,7.05847,414.432,0
250,6.90857,406.416,0
252,6.70862,395.112,0
254,6.49866,373.449,0
256,6.30872,359.545,0
258,6.14874,336.452,0
260,5.9588,320.61,0
262,5.77887,307.401,0
264,5.60895,297.404,0
266,5.45898,287.664,0
268,5.33899,279.617,0
270,5.12903,270.278,703.65
272,4.98914,259.91,0
274,4.82916,259.325,0
276,4.70917,261.724,0
278,4.5592,250.603,0
280,4.43921,258.576,0
282,4.28931,248.292,0
284,4.109375,244.226,0
286,3.98944,243.23,0
288,3.84943,241.505,0
290,3.6795,237.787,0
292,3.53955,233.559,0
294,3.43951,231.929,0
296,3.26959,232.02,0
298,3.16962,231.062,0
300,3.03967,226.203,1003.15
302,2.92975,228.95,0
304,2.71979,222.295,0
306,2.67981,217.45,0
308,1.61011,212.262,0
310,2.55975,208.357,0
312,2.45984,206.883,0
314,2.36987,199.396,0
316,2.25989,194.465,0
318,2.16992,192.52,0
320,2.05994,189.577,0
322,1.94995,184.376,0
324,1.86005,184.542,0
326,1.78003,184.496,0
328,1.69,183.108,0
330,1.57007,182.428,1087.15
332,1.4801,178.95,0
334,1.41016,177.745,0
336,1.32013,173.878,0
338,1.24023,171.61,0
340,1.11023,170.943,0
342,1.03027,167.104,0
344,0.940247,164.074,0
346,0.860291,160.614,0
348,0.780334,155.788,0
350,0.700317,151.855,0
352,0.660339,149.542,0
354,0.600403,148.681,0
356,0.530396,146.729,0
358,0.470398,144.898,0
360,0.400452,145.876,1060.65
362,0.330444,139.167,0
364,0.250427,138.592,0
366,0.220459,130.484,0
368,0.140503,129.577,0
370,0.110535,127.437,0
372,0.0305176,125.233,0
374,-0.01940918,119.6,0
376,-0.109436,116.801,0
378,-0.109436,114.784,0
380,-0.159424,109.948,0
382,-0.109436,106.402,0
384,-0.149414,99.0463,0
386,-0.159424,95.11,0
388,-0.339355,91.9117,0
390,-0.289368,88.0049,994.15
392,-0.259338,85.4649,0
394,-0.23938,82.0794,0
396,-0.329346,79.0201,0
398,-0.349365,76.2777,0
400,-0.299377,75.1683,0
402,-0.359375,72.9593,0
404,-0.359375,71.2198,0
406,-0.419373,69.0395,0
408,-0.419373,66.306,0
410,-0.399353,64.7549,0
412,-0.479309,63.7455,0
414,-0.399353,61.7481,0
416,-0.439331,59.0129,0
418,-0.479309,58.5152,0
420,-0.479309,56.5315,983.15
422,-0.44928,56.5411,0
424,-0.45929,54.9136,0
426,-0.45929,53.2912,0
428,-0.479309,51.238,0
430,-0.489319,48.943,0
432,-0.509277,49.0494,0
434,-0.499329,48.9522,0
436,-0.519287,47.7486,0
438,-0.489319,46.7651,0
440,-0.549316,45.3312,0
442,-0.539307,44.1705,0
444,-0.559326,43.2682,0
446,-0.589294,41.9397,0
448,-0.559326,40.5017,0
450,-0.619324,39.7803,927.65
452,-0.559326,39.0142,0
454,-0.529297,38.2501,0
456,-0.559326,37.2516,0
458,-0.529297,37.0197,0
460,-0.569275,36.9257,0
462,-0.519287,36.662,0
464,-0.549316,35.0708,0
466,-0.579285,33.871,0
468,-0.559326,33.1995,0
470,-0.539307,32.5378,0
472,-0.559326,32.1259,0
474,-0.559326,32.3322,0
476,-0.569275,31.7425,0
478,-0.629272,31.2585,0
480,-0.589294,30.0114,898.65
482,-0.549316,29.9931,0
484,-0.569275,29.7078,0
486,-0.569275,29.1883,0
488,-0.549316,28.981,0
489,-0.539307,28.9921,0