File: PMMA/Calibration_Data/UClan/UClan_Cone_25kW.csv
Time,Sample Mass,HRR,Back Surface Temperature
[s],[g],[kW m-2],[K]
0,74.12,1.74E-07,314.15
4,74.2,0.292643,316.15
8,74.1899,1.39694,316.65
12,74.1699,1.4378,316.65
16,74.1899,1.00922,317.65
20,74.1899,1.81061,318.65
24,74.16,2.47148,319.65
28,74.14,2.40772,320.15
32,74.15,0.966314,321.15
36,74.14,-0.533265,322.15
40,74.14,0.237404,322.65
44,74.14,0.032279,323.65
48,74.14,-0.976785,325.15
52,74.13,-1.45822,327.15
56,74.13,-1.704225,326.15
60,74.12,-0.56418,328.15
64,74.12,0.289177,328.65
68,74.12,0.4464,329.15
72,74.12,0.474529,330.15
76,74.0699,0.879315,331.15
80,74.0699,1.80646,331.65
84,74.08,0.4685,332.15
88,74.1,0.145652,333.65
92,74.0499,0.0857227,334.65
96,74.0699,0.0789865,336.15
100,74.0699,-0.238705,337.65
104,74.04,-0.34292,338.65
108,74.01,-0.344106,341.15
112,73.97,0.457201,342.65
116,73.9399,1.25644,344.65
120,73.8201,7.4409,346.15
124,73.6501,39.1775,348.15
128,73.3102,113.133,350.15
132,72.9503,180.89,352.15
136,72.5105,234.495,354.65
140,72.0605,262.663,357.65
144,71.6407,279.806,360.15
148,71.1509,295.022,362.65
152,70.751,288.225,364.15
156,70.2811,303.299,367.15
160,69.8312,304.418,369.15
164,69.3713,303.559,371.15
168,68.9015,304.795,374.65
172,68.4117,316.745,376.15
176,67.9218,321.177,378.15
180,67.412,319.07,380.15
184,66.9821,322.544,381.65
188,66.4822,327.42,383.65
192,65.9923,312.803,385.15
196,65.5024,332.145,386.65
200,64.9626,338.888,389.65
204,64.4628,339.585,391.65
208,63.9629,335.154,392.65
212,63.4131,339.696,395.15
216,62.8633,338.056,397.65
220,62.3934,347.455,399.15
224,61.8535,357.034,401.15
228,61.3436,355.056,403.65
232,60.8138,356.298,405.15
236,60.234,361.221,407.65
240,59.6642,376.501,409.15
244,59.1244,382.408,411.65
248,58.5645,375.183,412.15
252,57.9746,385.16,415.65
256,58.5745,377.418,417.15
260,57.8748,383.319,419.15
264,57.3749,386.323,420.15
268,56.795,398.155,422.15
272,56.1952,403.434,424.15
276,55.6154,412.521,426.15
280,54.9855,423.722,427.65
284,54.3857,405.98,429.65
288,53.7759,412.867,431.65
292,53.1561,412.467,433.15
296,52.4762,423.764,436.15
300,51.8164,435.982,437.65
304,51.0967,443.23,439.65
308,50.5369,430.935,441.15
312,49.887,432.188,443.65
316,49.2772,434.872,446.15
320,48.5874,440.203,447.15
324,47.9275,433.902,449.65
328,47.2178,450.511,450.65
332,46.6079,445.98,453.65
336,45.9581,447.508,454.65
340,45.2584,452.985,456.65
344,44.5985,454.647,459.15
348,43.9487,440.742,461.15
352,43.2889,452.481,463.15
356,42.5692,457.825,465.65
360,41.9293,456.436,467.15
364,41.1895,452.233,470.65
368,40.5797,450.624,471.65
372,39.8699,465.533,475.15
376,39.2501,461.636,477.65
380,38.6202,454.707,479.65
384,37.9405,479.738,482.15
388,37.2007,486.282,484.15
392,36.4609,488.173,487.15
396,35.7711,491.083,489.65
400,35.03125,487.235,492.65
404,34.3015,506.576,495.15
408,33.5917,498.574,498.65
412,32.882,507.317,502.15
416,32.2021,502.334,505.65
420,31.5323,500.718,509.15
424,30.8525,475.27,512.65
428,30.1927,467.787,517.15
432,29.4629,493.577,520.65
436,28.7131,480.189,525.15
440,27.9733,498.176,529.15
444,25.9439,478.882,533.65
448,26.6537,496.198,538.15
452,25.8439,499.12,542.65
456,25.1241,499.967,548.15
460,24.4244,503.248,554.65
464,23.6646,531.526,561.15
468,22.095,529.729,568.65
472,21.3752,518.959,574.65
476,20.7454,486.947,582.15
480,20.0556,497.491,587.15
484,19.4558,475.121,593.15
488,18.856,453.536,598.15
492,18.3661,430.176,604.15
496,17.8163,418.2,608.15
500,17.2765,406.959,612.65
504,16.8166,373.956,617.65
508,16.4167,349.935,621.15
512,15.9968,338.76,625.15
516,15.587,332.09,630.15
520,15.197,319.981,638.65
524,14.8671,298.612,647.65
528,14.5073,288.955,658.15
532,14.1273,281.034,674.65
536,13.8474,266.086,700.15
540,13.5375,256.116,734.65
544,13.1876,255.308,777.15
548,12.9077,256.615,808.15
552,12.6677,238.754,835.15
556,12.3879,230.9,853.15
560,12.1179,225.789,880.65
564,11.828,224.124,888.15
568,11.618,216.785,895.65
572,11.3881,204.168,905.65
576,11.1582,202.394,916.15
580,10.9383,197.015,924.15
584,10.7583,184.204,935.15
588,10.5084,177.583,948.65
592,10.3684,174.419,945.15
596,10.1785,172.644,935.65
600,10.0186,171.002,931.15
604,9.79858,164.69,926.15
608,9.56866,166.502,919.65
612,9.43872,162.068,919.65
616,9.29871,159.622,915.15
620,9.12878,157.468,905.65
624,8.90881,151.424,890.65
628,8.79889,153.153,874.15
632,8.59894,153.442,857.65
636,8.43896,152.639,843.65
640,8.289,147.654,831.15
644,8.14911,148.486,817.15
648,7.99915,147.902,805.65
652,7.83917,143.964,798.15
656,7.72919,142.287,792.65
660,7.53925,144.033,779.65
664,7.39929,141.479,768.65
668,7.26935,139.547,763.15
672,7.01941,141.588,753.65
676,6.89948,139.14,746.65
680,6.80945,138.254,738.65
684,6.68951,135.615,733.15
688,6.48956,133.65,730.15
692,6.38959,135.046,726.15
696,6.22961,135.907,724.15
700,6.09967,130.186,715.15
704,5.99969,130.154,709.65
708,5.83978,126.8,707.15
712,5.74976,125.46,704.65
716,5.59979,125.262,702.65
720,5.42987,122.25,701.65
724,5.36987,123.007,699.15
728,5.19995,121.789,700.15
732,5.13995,117.134,697.65
736,5.01001,114.029,694.15
740,4.92999,115.273,689.15
744,4.78009,116.569,684.65
748,4.62012,115.561,682.65
752,4.52014,114.257,684.15
756,4.3902,112.024,678.65
760,4.3302,108.123,675.65
764,4.21021,107.077,671.15
768,4.10022,106.296,671.15
772,3.9903,105.822,670.15
776,3.91028,103.175,666.15
780,3.70038,100.831,663.15
784,3.60034,100.438,659.65
788,3.59039,97.9185,656.65
792,3.51044,96.8222,654.15
796,3.4104,97.0955,653.65
800,3.3205,93.6705,652.15
804,3.24048,91.843,650.15
808,3.10052,89.1037,649.15
812,3.02057,87.0635,647.15
816,3.01056,84.7563,646.15
820,2.90063,82.5007,646.65
824,2.87061,80.3125,646.15
828,2.71069,79.2018,646.65
832,2.70068,75.3604,644.65
836,2.66064,76.0677,643.15
840,2.62067,74.4935,642.15
844,-0.12854,73.6833,640.65
848,3.2605,72.9999,640.15
852,3.2605,70.8541,638.65
856,3.19049,71.5484,637.65
860,3.10052,71.4577,636.15
864,3.05054,69.8358,634.65
868,2.98053,69.3763,632.65
872,2.96057,67.3641,632.65
876,2.90063,66.9631,630.15
880,2.84064,64.437,630.15
884,2.81061,63.8717,629.15
888,2.70068,64.1401,626.65
892,2.68066,63.2379,625.65
896,2.64069,64.1841,627.65
900,2.52075,63.3655,628.15
904,2.51074,63.0643,626.65
908,2.52075,63.0305,625.15
912,2.42072,62.5539,624.15
916,2.41071,59.6955,622.65
920,2.32074,58.8273,624.15
924,2.28082,58.6187,623.15
928,2.24078,56.39459,624.15
932,2.17078,55.7074,622.15
936,2.18079,54.2936,620.15
940,2.15082,52.97386,619.15
944,2.09088,51.8374,618.15
948,2.06085,50.8423,618.15
952,2.01086,50.4055,618.15
956,1.95087,49.3128,617.65
960,1.92084,47.543,618.65
964,1.89087,46.0293,618.65
968,1.92084,45.9506,619.15
972,1.82092,45.1985,619.65
976,1.85089,44.1091,618.15
980,1.81091,45.8325,617.65
984,1.71094,45.1205,615.65
988,1.75092,45.203,614.15
992,1.74091,44.8211,615.65
996,1.64099,43.5209,615.65
1000,1.67096,42.0296,615.15
1004,1.68091,39.4609,614.15
1008,1.62097,36.6491,613.15
1012,1.63098,36.7938,610.65
1016,1.62097,36.0984,610.65
1020,1.56097,34.9045,610.15
1024,1.521,34.5697,608.15
1028,1.47095,34.3671,610.15
1032,1.521,34.7428,611.65
1036,1.53101,34.685,612.65
1040,1.51099,33.757,611.65
1044,1.45105,33.5782,611.65
1048,1.49097,32.5339,610.65
1052,1.47095,31.3813,609.65
1056,1.43103,30.0278,609.65
1060,1.43103,30.3999,609.15
1064,1.39105,30.2017,608.15
1068,1.41101,30.484,607.15
1072,1.40106,28.9728,608.15
1076,1.42102,28.773,609.65
1080,1.35101,28.5791,610.15
1084,1.36102,28.4413,609.65
1088,1.32104,26.9782,610.65
1092,1.30103,26.7618,610.15
1096,1.30103,28.4518,608.15
1100,1.30103,29.335,609.15
1104,1.2511,28.4274,607.15
1108,1.2511,27.8744,608.15
1112,1.22107,27.4869,608.15
1116,1.1311,27.16,608.15
1120,1.26105,26.7651,607.15
1122,1.22107,26.6889,607.15