File: PMMA/Validation_Results/Aalto-II/Aalto-II_Gasification_q50_MLR.csv
Time,MLR
s,[g/m2/s]
0,0
2,0
4,0
6.1,0
8.1,0.649612
10.1,0.649612
12.1,0.649612
14.1,1.29922
16.1,1.29922
18.1,1.33254
20,1.33254
22,1.94884
24,1.94884
26,1.94884
28,2.59845
30,3.24806
32,4.54728
34,5.1969
36,5.84651
38,6.49612
40,7.14573
42,7.79534
44,8.44496
46,9.09457
48,9.09457
50,9.74418
52,11.0434
54,11.0434
56,11.0434
58,11.693
60,12.3426
62,12.9922
64,12.3426
66,12.3426
68,13.6419
70,13.6419
72,13.6419
74,13.9429
76.1,13.9429
78.1,14.2915
80.1,14.2915
82.1,14.2915
84.1,14.9411
86.1,14.9411
88.1,14.9411
90.1,14.9411
92.1,14.9411
94.1,15.5907
96.1,15.5907
98.1,15.5907
100.1,16.2403
102.1,16.2403
104.1,15.5907
106.1,16.2403
108.1,16.8899
110.1,16.2403
112.1,16.2403
114.1,16.8899
116.1,16.8899
118.1,16.8899
120.1,16.8899
122.1,16.8899
124.1,17.5395
126.1,17.5395
128.1,17.5395
130.1,17.5395
132.1,17.5395
134.1,17.5395
136.1,17.5395
138.1,18.1891
140.1,18.1891
142.1,18.1891
144.1,18.1891
146.1,18.1891
148.1,18.8387
150.1,18.8387
152.1,18.1891
154.1,18.8387
156.1,18.8387
158.1,18.8387
160.1,19.4884
162.1,19.4884
164.1,18.8387
166.1,18.8387
168.1,19.4884
170.1,20.138
172.1,20.138
174.1,19.4884
176.1,19.4884
178.1,20.138
180.1,20.138
182.1,20.138
184.1,20.7876
186.1,20.138
188.1,20.138
190.1,20.7876
192.1,20.7876
194.1,20.7876
196.1,20.7876
198.1,20.7876
200.1,20.7876
202.1,21.4372
204.1,21.4372
206.1,20.7876
208.1,21.4372
210.1,21.4372
212.1,21.4372
214.1,21.4372
216.1,21.4372
218.1,22.0868
220.1,21.4372
222.1,21.4372
224.1,22.0868
226.1,22.0868
228.1,22.0868
230.1,22.0868
232.1,22.0868
234.1,22.0868
236.1,22.0868
238.1,22.7364
240.1,22.7364
242.1,22.7364
244.1,22.7364
246.1,22.7364
248.1,22.7364
250.1,22.7364
252.1,23.386
254.1,23.386
256.1,24.0356
258.1,24.0356
260.1,23.386
262.1,24.0356
264.1,24.6853
266.1,24.0356
268.1,24.0356
270.1,25.3349
272.1,25.3349
274.1,24.6853
276.1,25.3349
278.1,25.9845
280.1,25.3349
282.1,25.3349
284.1,26.6341
286.1,26.6341
288.1,25.9845
290.1,26.6341
292.1,27.2837
294.1,27.2837
296.1,27.2837
298.1,27.2837
300.1,27.9833
302,27.9833
304,27.2837
306,27.9333
308,28.5829
310,28.5829
312,28.5829
314,29.2325
316,29.2325
318,29.2325
320,29.2325
322,29.2325
324,29.8822
326,29.8822
328,30.5318
330,30.5318
332,30.5318
334,30.5318
336,30.5318
338,31.1814
340,31.1814
342,31.1814
344,31.831
346,31.831
348,31.831
350,31.831
352,31.831
354,32.4806
356,31.831
358,31.1814
360,29.2325
362,20.138
364,7.14573
366,0.649612
368,0
370,0
372,0
374,0
376,0
378,0
380,0
382,0
384,0.649612
386,0.649612
388,0
390,0
392,0
394,0
396,0
398,0
400,0
402,0
404,0
406,0.649612
408,0.649612
410,0
412,0
414,0
416,0
418,0
420,0
422,0
424,0
426,0
428,0
430,0.649612
432,0.649612
434,0
436,0
438,0
440,0
442,0
444,0
446,0
448,0
450,0
452,0
454,0.649612
456,0.649612
458,0
460,0
462,0
464,0
466,0
468,0
470,0
472,0
474,0
476,0
478,0
480,0.649612
482,0.649612
484,0
486,0
488,0
490,0
492,0
494,0
496,0
498,0
500,0