File: PMMA/Validation_Results/Aalto-II/Aalto-II_Gasification_q25_MLR.csv
Time,MLR
s,[g/m2/s]
0,0.102959
5.1,-0.0713504
10.1,-0.0185099
15.1,0.132775
20,0.133446
25,0.197086
30,0.252029
35,0.271997
40,0.49859
45,0.598439
50,0.61854
55,0.649218
60,0.709342
65,0.733515
70,0.731871
75,0.711137
80.1,0.740681
85.1,0.734647
90.1,0.780884
95.1,0.779153
100.1,0.815546
105.1,0.877229
110.1,0.897396
115.1,0.958619
120.1,1.04093
125.1,1.09486
130.1,1.16482
135.1,1.31762
140.1,1.40597
145.1,1.54129
150.1,1.62892
155.1,1.73298
160.1,1.88531
165.1,2.02583
170.1,2.1712
175.1,2.31
180.1,2.42424
185.1,2.56994
190.1,2.76432
195.1,2.85149
200.1,3.02353
205.1,3.18762
210.1,3.24359
215.1,3.41662
220.1,3.60476
225.1,3.74363
230.1,3.86575
235.1,3.98524
240.1,4.0347
245.1,4.17561
250.1,4.31448
255.1,4.43692
260.1,4.5976
265.1,4.67768
270.1,4.75
275.1,4.81208
280.1,4.89879
285.1,5.0067
290.1,5.13398
295.1,5.27608
300.1,5.18255
305,5.32437
310,5.33487
315,5.41907
320,5.51563
325,5.52916
330,5.60759
335,5.67407
340,5.69595
345,5.7148
350,5.7642
355,5.83074
360,5.88546
365,5.93887
370,5.96035
375,6.01632
380,6.12885
385,6.19762
390,6.22686
395,6.31403
400,6.40718
405,6.49047
410,6.53028
415,6.55695
420,6.63098
425,6.72104
430,6.83548
435,6.86642
440,6.92764
445,6.98321
450,7.07564
455,7.17464
460,7.2197
465,7.31252
470,7.30726
475,7.46492
480,7.47845
485,7.54454
490,7.59748
495,7.69024
500,7.78181
505,7.79534
510,7.80888
515,7.90045
520,7.9932
525,8.04622
530,8.09693
535,8.09082
540,8.20906
545,8.19632
550,8.28428
555,8.29788
560,8.32855
565,8.41645
570,8.44975
575,8.53771
580,8.54218
585,8.56143
590,8.60826
595,8.67783
600,8.71416
605,8.77544
610,8.7855
615,8.79423
620,8.85427
625,8.8906
630,8.9155
635,8.94624
640,8.98684
645,9.05292
650,9.00484
655,9.01975
660,9.06829
665,9.13398
670,9.173
675,9.16065
680,9.13037
685,9.21583
690,9.2203
695,9.23462
700,9.23423
705,9.28678
710,9.29854
715,9.33
720,9.30819
725,9.36075
730,9.39977
735,9.40364
740,9.42729
745,9.38479
750,9.4242
755,9.45435
760,9.49633
765,9.5433
770,9.5498
775,9.51656
780,9.49942
785,9.55197
790,9.56209
795,9.59355
800,9.65793
805,9.62955
810,9.63875
815,9.66896
820,9.63868
825,9.64354
830,9.69774
835,9.72533
840,9.71048
845,9.70739
850,9.73367
855,9.75995
860,9.78622
865,9.76474
870,9.75817
875,9.76343
880,9.77617
885,9.8238
890,9.80501
895,9.83391
900,9.86019
905,9.8125
910,9.81775
915,9.84928
920,9.86807
925,9.86544
930,9.85224
935,9.85231
940,9.8418
945,9.85756
950,9.84442
955,9.82478
960,9.80678
965,9.74766
970,9.74418
975,9.72355
980,9.71186
985,9.68512
990,9.58048
995,9.52753
1000,9.41711
1005,9.33408
1010,9.20046
1015,9.03932
1020,8.89369
1025,8.57975
1030,8.29617
1035,7.90564
1040,7.34904
1045,6.47096
1050,4.92257
1055,2.97223
1060,1.24779
1065,0.191947
1070,-0.136308
1075,-0.0787627
1080,-0.0266703
1085,0.0135322
1090,0.131775
1095,0.184327
1100,0.171189
1105,0.0923607
1110,-0.0521581
1115,0
1120,0
1125,0
1130,0
1135,0
1140,0
1145,0
1150,0
1155,0
1160,0
1165,-0.0521581
1170,0.0923607
1175,0.171189
1180,0.184327
1185,0.131775
1190,-0.0185909
1195,-0.0709886
1200,0.102521