File: PMMA/Validation_Results/Aalto-I/Aalto-I_Gasification_q50_MLR.csv
Time,MLR
s,[g/m2/s]
0,0
2,0
4,0
6.1,0
8.1,0
10.1,0
12.1,0.649612
14.1,1.29922
16.1,1.29922
18.1,1.33254
20,1.99881
22,2.59845
24,2.59845
26,2.59845
28,3.24806
30,3.89767
32,4.54728
34,5.1969
36,5.84651
38,6.49612
40,7.79534
42,8.44496
44,9.09457
46,9.74418
48,9.74418
50,11.0434
52,11.0434
54,11.0434
56,11.693
58,12.3426
60,12.9922
62,12.9922
64,12.9922
66,12.9922
68,13.6419
70,13.6419
72,13.6419
74,13.9429
76.1,14.5767
78.1,14.9411
80.1,14.9411
82.1,14.9411
84.1,14.9411
86.1,15.5907
88.1,15.5907
90.1,15.5907
92.1,15.5907
94.1,15.5907
96.1,16.2403
98.1,16.2403
100.1,16.2403
102.1,16.8899
104.1,16.8899
106.1,16.8899
108.1,16.8899
110.1,16.8899
112.1,16.8899
114.1,17.5395
116.1,17.5395
118.1,17.5395
120.1,18.1891
122.1,18.1891
124.1,18.1891
126.1,18.1891
128.1,18.1891
130.1,18.1891
132.1,18.8387
134.1,18.8387
136.1,18.8387
138.1,18.8387
140.1,18.8387
142.1,19.4884
144.1,19.4884
146.1,19.4884
148.1,20.138
150.1,20.138
152.1,19.4884
154.1,20.138
156.1,20.7876
158.1,20.138
160.1,20.138
162.1,20.7876
164.1,20.7876
166.1,21.4372
168.1,21.4372
170.1,20.7876
172.1,21.4372
174.1,21.4372
176.1,21.4372
178.1,22.0868
180.1,22.0868
182.1,22.0868
184.1,22.0868
186.1,22.0868
188.1,22.0868
190.1,22.0868
192.1,22.7364
194.1,22.7364
196.1,22.0868
198.1,22.7364
200.1,23.386
202.1,22.7364
204.1,22.7364
206.1,23.386
208.1,23.386
210.1,22.7364
212.1,22.7364
214.1,23.386
216.1,23.386
218.1,23.386
220.1,24.0356
222.1,24.0356
224.1,23.386
226.1,23.386
228.1,24.0356
230.1,24.0356
232.1,24.0356
234.1,24.6853
236.1,24.6853
238.1,24.6853
240.1,24.6853
242.1,24.6853
244.1,24.6853
246.1,25.3349
248.1,25.3349
250.1,25.3349
252.1,25.9845
254.1,25.9845
256.1,25.9845
258.1,25.9845
260.1,25.9845
262.1,25.9845
264.1,25.9845
266.1,26.6341
268.1,26.6341
270.1,26.6341
272.1,26.6341
274.1,26.6341
276.1,26.6341
278.1,26.6341
280.1,27.2837
282.1,27.2837
284.1,26.6341
286.1,26.6341
288.1,27.2837
290.1,27.2837
292.1,27.2837
294.1,27.2837
296.1,27.2837
298.1,27.2837
300.1,27.9833
302,27.317
304,26.6341
306,27.9333
308,27.9333
310,27.2837
312,27.2837
314,27.2837
316,27.9333
318,27.9333
320,27.2837
322,27.2837
324,27.2837
326,27.2837
328,27.2837
330,26.6341
332,26.6341
334,26.6341
336,25.9845
338,25.3349
340,24.0356
342,23.386
344,21.4372
346,18.8387
348,11.693
350,2.59845
352,0
354,0
356,0
358,0
360,0
362,0
364,0
366,0
368,0
370,0
372,0
374,0
376,0
378,0
380,0
382,0
384,0
386,0
388,0
390,0
392,0
394,0
396,0
398,0
400,0
402,0
404,0
406,0
408,0
410,0
412,0
414,0
416,0
418,0
420,0
422,0
424,0
426,0
428,0
430,0
432,0
434,0
436,0
438,0
440,0
442,0
444,0
446,0
448,0
450,0
452,0
454,0
456,0
458,0
460,0
462,0
464,0
466,0
468,0
470,0
472,0
474,0
476,0
478,0
480,0
482,0
484,0
486,0
488,0
490,0
492,0
494,0
496,0
498,0
500,0